T (C)	Fraction solid (wt)-TOTAL	Fraction liquid (wt)-LIQUID	Density (g/(cm)^3)-TOTAL	Molar volume (cm^3)-TOTAL	Volume change (%)-  	Average expansion coeff. (10e-6 1/K)-  	Thermal conductivity (W/(m*K))-TOTAL	Electrical resistivity (10e-6 Ohm*m)-TOTAL	Electrical conductivity (10e6 1/(Ohm*m))-TOTAL	Young's modulus (GPa)-TOTAL	Bulk modulus (GPa)-TOTAL	Shear modulus(GPa)-TOTAL	Poisson's ratio-TOTAL	Liquid viscosity (mPa s)-  	Total viscosity (mPa s)-  	Liquid diffusivity (10e-9 (m^2)/s)-  	Total diffusivity (10e-9 (m^2)/s)-  	Surface Tension (mN/m)-  	Enthalpy (J/mole)-TOTAL	Specific heat (J/(mole K))-TOTAL	Latent heat (J/mole)-TOTAL
1500.0	0.0	1.0	6.9942	7.8812	0.0	29.65676	30.96843	1.86571	0.53599	0.0	106.86313	0.0	0.49541	6.66605	6.66605	1.29827	1.29827	1768.9738	64301.264	 	0.0
1495.0	0.0	1.0	6.99809	7.87681	-0.0556009	29.61501	30.89278	1.865	0.53619	0.0	107.04763	0.0	0.49541	6.72458	6.72458	1.28334	1.28334	1770.76487	64081.83	43.8868	0.0
1490.0	0.0	1.0	7.00197	7.87244	-0.11105	29.57337	30.81713	1.8643	0.5364	0.0	107.23213	0.0	0.49541	6.78396	6.78396	1.26851	1.26851	1772.55282	63862.879	43.7902	0.0
1485.0	0.0	1.0	7.00585	7.86809	-0.16634	29.53184	30.74149	1.86358	0.5366	0.0	107.41664	0.0	0.49541	6.84421	6.84421	1.25377	1.25377	1774.33761	63644.407	43.6944	0.0
1480.0	0.0	1.0	7.00972	7.86374	-0.22148	29.49043	30.66584	1.86287	0.53681	0.0	107.60114	0.0	0.49541	6.90534	6.90534	1.23914	1.23914	1776.11922	63426.411	43.5992	0.0
1475.0	0.0	1.0	7.01359	7.85941	-0.27646	29.44913	30.5902	1.86215	0.53701	0.0	107.78564	0.0	0.49541	6.96738	6.96738	1.22461	1.22461	1777.89759	63208.888	43.5046	0.0
1470.0	0.0	1.0	7.01745	7.85509	-0.33129	29.40795	30.51455	1.86142	0.53722	0.0	107.97015	0.0	0.49541	7.03033	7.03033	1.21017	1.21017	1779.6727	62991.834	43.4108	0.0
1465.0	0.0	1.0	7.0213	7.85078	-0.38597	29.36689	30.43891	1.8607	0.53743	0.0	108.15465	0.0	0.49541	7.09421	7.09421	1.19583	1.19583	1781.44448	62775.248	43.3172	0.0
1460.0	0.0	1.0	7.02514	7.84648	-0.44049	29.32594	30.36326	1.85997	0.53764	0.0	108.33916	0.0	0.49541	7.15905	7.15905	1.18159	1.18159	1783.21292	62559.125	43.2246	0.0
1455.0	0.0	1.0	7.02898	7.84219	-0.49486	29.28512	30.28761	1.85923	0.53786	0.0	108.52366	0.0	0.49541	7.22486	7.22486	1.16745	1.16745	1784.97795	62343.463	43.1324	0.0
1450.0	0.0	1.0	7.03281	7.83792	-0.54907	29.24441	30.21197	1.8585	0.53807	0.0	108.70816	0.0	0.49541	7.29167	7.29167	1.15341	1.15341	1786.73953	62128.291	43.0344	0.0
1445.0	0.0	1.0	7.03664	7.83366	-0.60313	29.20383	30.13632	1.85776	0.53828	0.0	108.89267	0.0	0.49541	7.35949	7.35949	1.13946	1.13946	1788.49763	61913.66	42.9262	0.0
1440.0	0.0	1.0	7.04046	7.82941	-0.65704	29.16338	30.06068	1.85701	0.5385	0.0	109.07717	0.0	0.49541	7.42834	7.42834	1.12562	1.12562	1790.2522	61699.56	42.82	0.0
1435.0	0.0	1.0	7.04427	7.82518	-0.71079	29.12304	29.98503	1.85626	0.53872	0.0	109.26167	0.0	0.49541	7.49824	7.49824	1.11187	1.11187	1792.00319	61485.987	42.7146	0.0
1430.0	0.0	1.0	7.04807	7.82095	-0.76439	29.08284	29.90938	1.85551	0.53894	0.0	109.44618	0.0	0.49541	7.56921	7.56921	1.09822	1.09822	1793.75055	61272.94	42.6094	0.0
1425.0	0.0	1.0	7.05187	7.81674	-0.81783	29.04276	29.83374	1.85475	0.53916	0.0	109.63068	0.0	0.49541	7.64129	7.64129	1.08467	1.08467	1795.49424	61060.413	42.5054	0.0
1420.0	0.0	1.0	7.05566	7.81254	-0.87112	29.00281	29.75809	1.85399	0.53938	0.0	109.81518	0.0	0.49541	7.71448	7.71448	1.07121	1.07121	1797.2342	60848.403	42.402	0.0
1415.0	0.0	1.0	7.05945	7.80835	-0.92426	28.96299	29.68245	1.85323	0.5396	0.0	109.99969	0.0	0.49541	7.78881	7.78881	1.05786	1.05786	1798.97039	60636.908	42.299	0.0
1413.62	0.0	1.0	7.06049	7.8072	-0.93887	28.95205	29.66161	1.85302	0.53966	0.0	110.05052	0.0	0.49541	7.80949	7.80949	1.05419	1.05419	1799.44804	60578.742	42.2255	0.0
1410.0	0.1392	0.8608	7.08428	7.78106	-1.27058	28.12467	29.87362	1.83592	0.54469	0.0292397	109.03354	0.00989989	0.47677	7.85815	13.16715	1.04542	0.6239	1798.12741	58816.975	486.341	1608.946
1405.0	0.29337	0.70663	7.11125	7.75159	-1.6445	27.20485	30.10589	1.81634	0.55056	0.589	107.95763	0.20228	0.45586	7.92652	89.28665	1.03332	0.0917341	1796.43361	56825.262	398.343	3390.179
1400.0	0.41169	0.58831	7.13258	7.72838	-1.93896	26.49626	30.27815	1.80062	0.55536	2.32369	107.19893	0.80706	0.43961	7.9966	331.29244	1.02121	0.0246496	1794.86027	55244.056	316.241	4761.409
1395.0	0.504	0.496	7.1499	7.70964	-2.17672	25.93856	30.40513	1.78775	0.55936	5.29596	106.67283	1.85591	0.42678	8.0676	768.3886	1.0092	0.010596	1793.39945	53958.573	257.097	5837.415
1390.24	0.57685	0.42315	7.16417	7.69436	-2.37062	25.49352	30.5005	1.77707	0.56273	9.20066	106.31189	3.24755	0.41655	8.1372	1377.65015	0.99771	0.00589306	1792.09689	52906.813	 	6690.049
1390.0	0.58067	0.41933	7.16493	7.69355	-2.38093	25.46944	30.50912	1.77631	0.56296	9.39284	106.27074	3.31666	0.41601	8.13961	1416.42071	0.99727	0.00573094	1792.00228	52854.331	220.848	6732.677
1385.0	0.65552	0.34448	7.18017	7.67722	-2.58809	24.9887	30.67353	1.76148	0.5677	13.91696	105.52099	4.9519	0.40522	8.19253	2383.67388	0.98785	0.00339519	1790.12193	51803.919	210.082	7574.602
1380.0	0.71509	0.28491	7.19316	7.66337	-2.76383	24.59184	30.79085	1.74948	0.5716	18.74015	105.03239	6.70944	0.39655	8.24653	3526.97397	0.97842	0.00228769	1788.36168	50913.005	178.183	8257.518
1375.0	0.76332	0.23668	7.20448	7.65141	-2.91562	24.25895	30.87277	1.73956	0.57486	23.7155	104.73313	8.53398	0.38948	8.30236	4807.50017	0.96891	0.00167326	1786.70578	50141.45	154.311	8821.562
1370.0	0.80303	0.19697	7.2146	7.64077	-3.05057	23.9708	30.92758	1.73121	0.57763	28.79306	104.57231	10.40515	0.3836	8.35966	6200.06286	0.95935	0.0012935	1785.14604	49461.048	136.08	9294.939
1365.0	0.83621	0.16379	7.22384	7.63107	-3.17376	23.71359	30.96136	1.72406	0.58003	33.99639	104.51377	12.32975	0.37863	8.41843	7690.89413	0.94975	0.00103959	1783.67738	48851.544	121.901	9697.898
1360.0	0.86426	0.13574	7.23243	7.62208	-3.28779	23.48031	30.97872	1.71783	0.58213	39.39308	104.53332	14.33113	0.37439	8.47878	9272.88893	0.94011	8.59603E-4	1782.28903	48298.544	110.6	10044.831
1355.0	0.88834	0.11166	7.24056	7.61361	-3.39529	23.2638	30.98325	1.71232	0.584	45.10319	104.6122	16.45252	0.37071	8.54066	10947.2913	0.93044	7.25896E-4	1780.97342	47790.399	101.629	10347.383
1350.0	0.90922	0.0907777	7.24837	7.6055	-3.49814	23.05888	30.97756	1.70738	0.58569	51.25181	104.73687	18.73957	0.36748	8.60409	12718.79552	0.92075	6.22873E-4	1779.7247	47318.769	94.326	10613.892
1345.0	0.92753	0.0724706	7.25594	7.59766	-3.59764	22.862	30.96369	1.70288	0.58724	57.9198	104.89734	21.22218	0.36461	8.66946	14594.25701	0.91099	5.41157E-4	1778.53549	46877.233	88.3072	10850.777
1341.61	0.93861	0.0613892	7.26095	7.59249	-3.6632	22.73316	30.95011	1.70005	0.58822	62.67326	105.02423	22.99349	0.36285	8.71453	15923.66122	0.90438	4.94938E-4	1777.74893	46593.027	 	10996.341
1340.0	0.94562	0.0543792	7.26419	7.58916	-3.70541	22.63989	30.94878	1.69844	0.58878	65.9583	105.07097	24.21814	0.36175	8.74169	16712.42075	0.90067	4.7111E-4	1777.86232	46432.05	89.0366	11091.775
1335.0	0.96594	0.0340559	7.27398	7.57911	-3.83297	22.35914	30.93996	1.69365	0.59044	76.47435	105.23711	28.14549	0.35855	8.82902	19285.64221	0.889	4.06986E-4	1778.21719	45951.173	96.1754	11368.93
1325.0	1.0	0.0	7.29241	7.5602	-4.07288	21.83524	30.89991	1.6853	0.59336	93.14447	105.65121	34.41986	0.35306	 	24924.95419	 	3.12946E-4	 	45077.863	87.331	11836.177
1325.0	1.0	0.0	7.29241	7.5602	-4.07288	21.83524	30.89991	1.6853	0.59336	93.14447	105.65121	34.41986	0.35306	 	24924.95419	 	3.12946E-4	 	45325.514	 	 
1320.0	1.0	0.0	7.29508	7.55744	-4.10789	21.81762	30.83394	1.68363	0.59396	93.56836	105.98035	34.58188	0.35285	 	26516.92835	 	2.93238E-4	 	45133.15	38.4728	 
1315.0	1.0	0.0	7.29774	7.55469	-4.14284	21.80001	30.76797	1.68194	0.59455	93.99211	106.30838	34.74389	0.35264	 	28221.64417	 	2.7466E-4	 	44941.102	38.4096	 
1310.0	1.0	0.0	7.30039	7.55194	-4.17774	21.78243	30.702	1.68025	0.59515	94.41571	106.63532	34.9059	0.35243	 	30047.84102	 	2.57155E-4	 	44749.356	38.3492	 
1305.0	1.0	0.0	7.30305	7.54919	-4.21259	21.76487	30.63603	1.67855	0.59575	94.83916	106.96115	35.0679	0.35222	 	32004.99268	 	2.40667E-4	 	44557.908	38.2896	 
1300.0	1.0	0.0	7.3057	7.54645	-4.24738	21.74732	30.57006	1.67684	0.59636	95.26246	107.28589	35.2299	0.35201	 	34103.37379	 	2.25144E-4	 	44366.755	38.2306	 
1295.0	1.0	0.0	7.30835	7.54371	-4.28212	21.7298	30.50409	1.67512	0.59697	95.6856	107.60953	35.39189	0.3518	 	36354.13264	 	2.10533E-4	 	44175.897	38.1716	 
1290.0	1.0	0.0	7.311	7.54098	-4.3168	21.7123	30.43812	1.6734	0.59758	96.10858	107.93208	35.55387	0.35159	 	38769.37117	 	1.96788E-4	 	43985.332	38.113	 
1285.0	1.0	0.0	7.31365	7.53825	-4.35143	21.69482	30.37215	1.67167	0.5982	96.5314	108.25353	35.71584	0.35138	 	41362.2326	 	1.83862E-4	 	43795.062	38.054	 
1280.0	1.0	0.0	7.3163	7.53553	-4.38601	21.67736	30.30618	1.66994	0.59883	96.95406	108.57389	35.87781	0.35117	 	44146.9979	 	1.71711E-4	 	43605.085	37.9954	 
1275.0	1.0	0.0	7.31894	7.5328	-4.42054	21.65992	30.24021	1.66819	0.59945	97.37655	108.89316	36.03976	0.35096	 	47139.19163	 	1.60294E-4	 	43415.402	37.9366	 
1270.0	1.0	0.0	7.32158	7.53009	-4.45501	21.6425	30.17424	1.66644	0.60008	97.79887	109.21134	36.2017	0.35075	 	50355.69839	 	1.49571E-4	 	43226.013	37.8778	 
1265.0	1.0	0.0	7.32422	7.52737	-4.48943	21.6251	30.10826	1.66468	0.60072	98.22102	109.52844	36.36362	0.35054	 	53814.89094	 	1.39503E-4	 	43036.918	37.819	 
1260.0	1.0	0.0	7.32685	7.52467	-4.5238	21.60772	30.04229	1.66291	0.60135	98.64299	109.84445	36.52553	0.35033	 	57536.7712	 	1.30055E-4	 	42848.115	37.7606	 
1255.0	1.0	0.0	7.32949	7.52196	-4.55811	21.59036	29.97632	1.66114	0.602	99.06479	110.15938	36.68743	0.35012	 	61543.12545	 	1.21192E-4	 	42659.607	37.7016	 
1250.0	1.0	0.0	7.33212	7.51926	-4.59237	21.57302	29.91034	1.65935	0.60264	99.48641	110.47322	36.84931	0.34991	 	65857.6955	 	1.12882E-4	 	42471.392	37.643	 
1245.0	1.0	0.0	7.33475	7.51657	-4.62658	21.5557	29.84437	1.65756	0.6033	99.90784	110.78598	37.01117	0.3497	 	70506.36721	 	1.05093E-4	 	42283.47	37.5844	 
1240.0	1.0	0.0	7.33738	7.51387	-4.66074	21.5384	29.77839	1.65576	0.60395	100.32909	111.09767	37.17302	0.34949	 	75517.37861	 	9.77962E-5	 	42095.835	37.527	 
1235.0	1.0	0.0	7.34	7.51119	-4.69484	21.52113	29.71242	1.65396	0.60461	100.75015	111.40827	37.33484	0.34928	 	80921.54944	 	9.09635E-5	 	41908.483	37.4704	 
1230.0	1.0	0.0	7.34263	7.5085	-4.72889	21.50387	29.64644	1.65214	0.60527	101.17102	111.7178	37.49665	0.34907	 	86752.5347	 	8.45682E-5	 	41721.415	37.4136	 
1225.0	1.0	0.0	7.34525	7.50582	-4.76289	21.48663	29.58046	1.65032	0.60594	101.5917	112.02626	37.65843	0.34886	 	93047.10484	 	7.85849E-5	 	41534.628	37.3574	 
1220.0	1.0	0.0	7.34787	7.50315	-4.79684	21.46942	29.51449	1.64849	0.60662	102.01218	112.33364	37.82019	0.34865	 	99845.45539	 	7.29897E-5	 	41348.124	37.3008	 
1215.0	1.0	0.0	7.35048	7.50048	-4.83073	21.45222	29.44851	1.64665	0.60729	102.43246	112.63995	37.98193	0.34844	 	107191.5496	 	6.77599E-5	 	41161.9	37.2448	 
1210.0	1.0	0.0	7.3531	7.49781	-4.86457	21.43504	29.38253	1.6448	0.60798	102.85254	112.94519	38.14364	0.34823	 	115133.4974	 	6.28739E-5	 	40975.957	37.1886	 
1205.0	1.0	0.0	7.35571	7.49515	-4.89837	21.41789	29.31655	1.64295	0.60866	103.27241	113.24937	38.30533	0.34802	 	123723.9756	 	5.83111E-5	 	40790.295	37.1324	 
1200.0	1.0	0.0	7.35832	7.49249	-4.9321	21.40076	29.25057	1.64108	0.60935	103.69209	113.55248	38.46699	0.34781	 	133020.693	 	5.40523E-5	 	40604.912	37.0766	 
1195.0	1.0	0.0	7.36093	7.48983	-4.96579	21.38364	29.18459	1.63921	0.61005	104.11155	113.85452	38.62863	0.3476	 	143086.9061	 	5.00792E-5	 	40419.808	37.0208	 
1190.0	1.0	0.0	7.36354	7.48718	-4.99943	21.36655	29.11861	1.63733	0.61075	104.5308	114.1555	38.79024	0.34739	 	153991.9917	 	4.63743E-5	 	40234.982	36.9652	 
1185.0	1.0	0.0	7.36614	7.48453	-5.03301	21.34948	29.05263	1.63544	0.61146	104.94984	114.45542	38.95182	0.34718	 	165812.0819	 	4.29213E-5	 	40050.435	36.9094	 
1180.0	1.0	0.0	7.36874	7.48189	-5.06654	21.33242	28.98665	1.63354	0.61217	105.36866	114.75429	39.11337	0.34696	 	178630.7701	 	3.97046E-5	 	39866.165	36.854	 
1175.0	1.0	0.0	7.37134	7.47925	-5.10002	21.31539	28.92067	1.63163	0.61288	105.78726	115.05209	39.27489	0.34675	 	192539.8952	 	3.67096E-5	 	39682.172	36.7986	 
1170.0	1.0	0.0	7.37394	7.47662	-5.13345	21.29838	28.85469	1.62972	0.6136	106.20564	115.34884	39.43637	0.34654	 	207640.4137	 	3.39224E-5	 	39498.456	36.7432	 
1165.0	1.0	0.0	7.37654	7.47399	-5.16683	21.28139	28.7887	1.6278	0.61433	106.6238	115.64453	39.59783	0.34633	 	224043.3707	 	3.13299E-5	 	39315.015	36.6882	 
1160.0	1.0	0.0	7.37913	7.47136	-5.20016	21.26442	28.72272	1.62586	0.61506	107.04173	115.93917	39.75925	0.34612	 	241870.9808	 	2.89198E-5	 	39131.85	36.633	 
1155.0	1.0	0.0	7.38172	7.46874	-5.23344	21.24747	28.65674	1.62392	0.61579	107.45944	116.23276	39.92063	0.34591	 	261257.8324	 	2.66803E-5	 	38948.959	36.5782	 
1150.0	1.0	0.0	7.38431	7.46612	-5.26666	21.23054	28.59075	1.62197	0.61653	107.87691	116.5253	40.08199	0.3457	 	282352.231	 	2.46006E-5	 	38766.343	36.5232	 
1145.0	1.0	0.0	7.3869	7.4635	-5.29983	21.21363	28.52477	1.62001	0.61728	108.29415	116.81679	40.2433	0.34549	 	305317.6971	 	2.26703E-5	 	38584.001	36.4684	 
1140.0	1.0	0.0	7.38948	7.46089	-5.33296	21.19674	28.45878	1.61804	0.61803	108.71116	117.10724	40.40458	0.34528	 	330334.6398	 	2.08795E-5	 	38401.931	36.414	 
1135.0	1.0	0.0	7.39206	7.45829	-5.36603	21.17987	28.39279	1.61606	0.61879	109.12793	117.39665	40.56582	0.34507	 	357602.2251	 	1.92192E-5	 	38220.135	36.3592	 
1130.0	1.0	0.0	7.39464	7.45569	-5.39905	21.16302	28.32681	1.61408	0.61955	109.54445	117.68501	40.72702	0.34486	 	387340.4658	 	1.76806E-5	 	38038.61	36.305	 
1125.0	1.0	0.0	7.39722	7.45309	-5.43202	21.14619	28.26082	1.61208	0.62032	109.96074	117.97233	40.88818	0.34465	 	419792.5591	 	1.62557E-5	 	37857.357	36.2506	 
1120.0	1.0	0.0	7.3998	7.45049	-5.46494	21.12939	28.19483	1.61008	0.62109	110.37678	118.25861	41.04931	0.34444	 	455227.5028	 	1.49367E-5	 	37676.375	36.1964	 
1115.0	1.0	0.0	7.40237	7.4479	-5.49781	21.1126	28.12884	1.60806	0.62187	110.79258	118.54386	41.21039	0.34423	 	493943.0278	 	1.37166E-5	 	37495.663	36.1424	 
1110.0	1.0	0.0	7.40494	7.44532	-5.53063	21.09583	28.06285	1.60604	0.62265	111.20812	118.82807	41.37142	0.34402	 	536268.884	 	1.25885E-5	 	37315.221	36.0884	 
1105.0	1.0	0.0	7.40751	7.44273	-5.5634	21.07909	27.99686	1.604	0.62344	111.62341	119.11125	41.53242	0.34381	 	582570.5274	 	1.15461E-5	 	37135.048	36.0346	 
1100.0	1.0	0.0	7.41008	7.44015	-5.59612	21.06236	27.93087	1.60196	0.62424	112.03846	119.39339	41.69337	0.3436	 	633253.2597	 	1.05834E-5	 	36955.144	35.9808	 
1095.0	1.0	0.0	7.41264	7.43758	-5.62879	21.04565	27.86488	1.59991	0.62504	112.45324	119.67451	41.85427	0.34339	 	688766.8781	 	9.69501E-6	 	36775.508	35.9272	 
1090.0	1.0	0.0	7.41521	7.43501	-5.66141	21.02897	27.79889	1.59784	0.62584	112.86777	119.9546	42.01513	0.34318	 	749610.9041	 	8.87553E-6	 	36596.14	35.8736	 
1085.0	1.0	0.0	7.41777	7.43244	-5.69398	21.01231	27.7329	1.59577	0.62666	113.28203	120.23366	42.17595	0.34297	 	816340.466	 	8.12013E-6	 	36417.039	35.8202	 
1080.0	1.0	0.0	7.42033	7.42988	-5.7265	20.99566	27.6669	1.59369	0.62748	113.69604	120.5117	42.33671	0.34276	 	889572.9225	 	7.42422E-6	 	36238.204	35.767	 
1075.0	1.0	0.0	7.42288	7.42732	-5.75896	20.97904	27.60091	1.59159	0.6283	114.10978	120.78871	42.49743	0.34255	 	969995.3263	 	6.78352E-6	 	36059.635	35.7138	 
1070.0	1.0	0.0	7.42544	7.42476	-5.79138	20.96243	27.53492	1.58949	0.62913	114.52325	121.06471	42.6581	0.34234	 	1058372.841	 	6.19402E-6	 	35881.332	35.6606	 
1065.0	1.0	0.0	7.42799	7.42221	-5.82375	20.94585	27.46892	1.58738	0.62997	114.93645	121.33968	42.81872	0.34213	 	1155558.239	 	5.65197E-6	 	35703.293	35.6078	 
1060.0	1.0	0.0	7.43054	7.41967	-5.85607	20.92929	27.40293	1.58526	0.63081	115.34938	121.61364	42.97929	0.34192	 	1262502.63	 	5.15387E-6	 	35525.518	35.555	 
1055.0	1.0	0.0	7.43309	7.41712	-5.88834	20.91275	27.33693	1.58312	0.63166	115.76204	121.88658	43.13981	0.34171	 	1380267.588	 	4.69646E-6	 	35348.006	35.5024	 
1050.0	1.0	0.0	7.43563	7.41458	-5.92056	20.89623	27.27093	1.58098	0.63252	116.17443	122.15851	43.30027	0.3415	 	1510038.866	 	4.27669E-6	 	35170.758	35.4496	 
1045.0	1.0	0.0	7.43818	7.41205	-5.95274	20.87973	27.20494	1.57883	0.63338	116.58653	122.42943	43.46068	0.34129	 	1653141.925	 	3.89172E-6	 	34993.772	35.3972	 
1040.0	1.0	0.0	7.44072	7.40952	-5.98486	20.86325	27.13894	1.57666	0.63425	116.99836	122.69934	43.62104	0.34108	 	1811059.536	 	3.5389E-6	 	34817.047	35.345	 
1035.0	1.0	0.0	7.44326	7.40699	-6.01693	20.84679	27.07294	1.57449	0.63513	117.40991	122.96824	43.78134	0.34087	 	1985451.724	 	3.21577E-6	 	34640.584	35.2926	 
1030.0	1.0	0.0	7.44579	7.40447	-6.04896	20.83035	27.00694	1.5723	0.63601	117.82117	123.23613	43.94159	0.34066	 	2178178.418	 	2.92003E-6	 	34464.381	35.2406	 
1025.0	1.0	0.0	7.44833	7.40195	-6.08093	20.81393	26.94094	1.57011	0.6369	118.23214	123.50302	44.10178	0.34045	 	2391325.173	 	2.64956E-6	 	34288.438	35.1886	 
1020.0	1.0	0.0	7.45086	7.39943	-6.11286	20.79753	26.87494	1.5679	0.63779	118.64283	123.76891	44.26191	0.34024	 	2627232.41	 	2.40235E-6	 	34112.755	35.1366	 
1015.0	1.0	0.0	7.45339	7.39692	-6.14473	20.78115	26.80894	1.56569	0.6387	119.05323	124.03379	44.42199	0.34003	 	2888528.686	 	2.17659E-6	 	33937.33	35.085	 
1010.0	1.0	0.0	7.45592	7.39441	-6.17656	20.76479	26.74294	1.56346	0.63961	119.46333	124.29768	44.58201	0.33982	 	3178168.586	 	1.97055E-6	 	33762.163	35.0334	 
1005.0	1.0	0.0	7.45845	7.3919	-6.20834	20.74845	26.67694	1.56122	0.64053	119.87315	124.56057	44.74197	0.33961	 	3499475.902	 	1.78265E-6	 	33587.253	34.982	 
1000.0	1.0	0.0	7.46097	7.3894	-6.24007	20.73214	26.61093	1.55897	0.64145	120.28266	124.82246	44.90186	0.3394	 	3856192.908	 	1.61142E-6	 	33412.601	34.9304	 
995.0	1.0	0.0	7.46349	7.38691	-6.27176	20.71584	26.54493	1.55671	0.64238	120.69188	125.08336	45.0617	0.33918	 	4252536.605	 	1.45549E-6	 	33238.204	34.8794	 
990.0	1.0	0.0	7.46601	7.38441	-6.30339	20.69956	26.47892	1.55443	0.64332	121.1008	125.34327	45.22147	0.33897	 	4693263.012	 	1.31361E-6	 	33064.063	34.8282	 
985.0	1.0	0.0	7.46853	7.38192	-6.33498	20.68331	26.41292	1.55215	0.64427	121.50942	125.60219	45.38119	0.33876	 	5183740.71	 	1.18461E-6	 	32890.176	34.7774	 
980.0	1.0	0.0	7.47105	7.37944	-6.36652	20.66707	26.34691	1.54985	0.64522	121.91773	125.86012	45.54084	0.33855	 	5730035.038	 	1.06741E-6	 	32716.544	34.7264	 
975.0	1.0	0.0	7.47356	7.37696	-6.398	20.65086	26.28091	1.54755	0.64618	122.32573	126.11707	45.70042	0.33834	 	6339004.596	 	9.6102E-7	 	32543.166	34.6756	 
970.0	1.0	0.0	7.47607	7.37448	-6.42945	20.63466	26.2149	1.54523	0.64715	122.73343	126.37303	45.85994	0.33813	 	7018411.933	 	8.64513E-7	 	32370.04	34.6252	 
965.0	1.0	0.0	7.47858	7.372	-6.46084	20.61849	26.14889	1.5429	0.64813	123.14082	126.62801	46.01939	0.33792	 	7777050.657	 	7.77043E-7	 	32197.166	34.5748	 
960.0	1.0	0.0	7.48109	7.36953	-6.49218	20.60234	26.08288	1.54056	0.64912	123.5479	126.882	46.17878	0.33771	 	8624891.511	 	6.97829E-7	 	32024.544	34.5244	 
955.0	1.0	0.0	7.48359	7.36707	-6.52348	20.5862	26.01687	1.5382	0.65011	123.95466	127.13502	46.3381	0.3375	 	9573250.437	 	6.2615E-7	 	31852.173	34.4742	 
950.0	1.0	0.0	7.4861	7.3646	-6.55473	20.57009	25.95086	1.53584	0.65111	124.36111	127.38706	46.49735	0.33729	 	1.063498212E7	 	5.61345E-7	 	31680.052	34.4242	 
945.0	1.0	0.0	7.4886	7.36214	-6.58593	20.554	25.88485	1.53346	0.65212	124.76723	127.63812	46.65654	0.33708	 	1.182470308E7	 	5.02802E-7	 	31508.18	34.3744	 
940.0	1.0	0.0	7.49109	7.35969	-6.61709	20.53793	25.81884	1.53107	0.65314	125.17304	127.88821	46.81565	0.33687	 	1.315904913E7	 	4.49963E-7	 	31336.556	34.3248	 
935.0	1.0	0.0	7.49359	7.35724	-6.64819	20.52187	25.75283	1.52867	0.65416	125.57853	128.13733	46.97469	0.33666	 	1.465697277E7	 	4.02312E-7	 	31165.181	34.275	 
930.0	1.0	0.0	7.49608	7.35479	-6.67925	20.50584	25.68682	1.52626	0.6552	125.98369	128.38548	47.13366	0.33645	 	1.634008699E7	 	3.59379E-7	 	30994.053	34.2256	 
925.0	1.0	0.0	7.49858	7.35235	-6.71027	20.48983	25.6208	1.52383	0.65624	126.38853	128.63266	47.29256	0.33624	 	1.823306336E7	 	3.20729E-7	 	30823.172	34.1762	 
920.0	1.0	0.0	7.50107	7.34991	-6.74123	20.47384	25.55479	1.52139	0.65729	126.79304	128.87887	47.45139	0.33603	 	2.036409322E7	 	2.85967E-7	 	30652.536	34.1272	 
915.0	1.0	0.0	7.50355	7.34747	-6.77215	20.45787	25.48877	1.51894	0.65835	127.19722	129.12412	47.61015	0.33582	 	2.276542266E7	 	2.54731E-7	 	30482.145	34.0782	 
910.0	1.0	0.0	7.50604	7.34504	-6.80302	20.44192	25.42276	1.51647	0.65942	127.60106	129.3684	47.76883	0.33561	 	2.547397384E7	 	2.26689E-7	 	30311.998	34.0294	 
905.0	1.0	0.0	7.50852	7.34261	-6.83384	20.42599	25.35674	1.514	0.6605	128.00458	129.61172	47.92743	0.3354	 	2.853206726E7	 	2.01537E-7	 	30142.095	33.9806	 
900.0	1.0	0.0	7.511	7.34018	-6.86462	20.41009	25.29072	1.51151	0.66159	128.40776	129.85408	48.08596	0.33519	 	3.198826231E7	 	1.78999E-7	 	29972.435	33.932	 
895.0	1.0	0.0	7.51348	7.33776	-6.89535	20.3942	25.22471	1.509	0.66269	128.8106	130.09549	48.24441	0.33498	 	3.589833675E7	 	1.58822E-7	 	29803.016	33.8838	 
890.0	1.0	0.0	7.51596	7.33534	-6.92603	20.37833	25.15869	1.50649	0.6638	129.2131	130.33594	48.40279	0.33477	 	4.032642915E7	 	1.40777E-7	 	29633.838	33.8356	 
885.0	1.0	0.0	7.51843	7.33293	-6.95667	20.36248	25.09267	1.50396	0.66491	129.61527	130.57543	48.56109	0.33456	 	4.534637312E7	 	1.24655E-7	 	29464.9	33.7876	 
880.0	1.0	0.0	7.52091	7.33052	-6.98725	20.34666	25.02665	1.50142	0.66604	130.01709	130.81397	48.71931	0.33435	 	5.104325726E7	 	1.10264E-7	 	29296.202	33.7396	 
875.0	1.0	0.0	7.52338	7.32811	-7.0178	20.33085	24.96062	1.49886	0.66717	130.41856	131.05156	48.87745	0.33414	 	5.75152512E7	 	9.74322E-8	 	29127.742	33.692	 
870.0	1.0	0.0	7.52585	7.32571	-7.04829	20.31506	24.8946	1.49629	0.66832	130.81969	131.2882	49.03551	0.33393	 	6.487574568E7	 	8.60018E-8	 	28959.52	33.6444	 
865.0	1.0	0.0	7.52831	7.32331	-7.07874	20.2993	24.82858	1.49371	0.66948	131.22047	131.5239	49.19349	0.33372	 	7.325586374E7	 	7.58305E-8	 	28791.534	33.5972	 
860.0	1.0	0.0	7.53078	7.32091	-7.10915	20.28355	24.76256	1.49111	0.67064	131.6209	131.75865	49.35139	0.33351	 	8.280741098E7	 	6.6789E-8	 	28623.785	33.5498	 
855.0	1.0	0.0	7.53324	7.31852	-7.1395	20.26783	24.69653	1.4885	0.67182	132.02098	131.99245	49.50921	0.3333	 	9.370634593E7	 	5.87604E-8	 	28456.27	33.503	 
850.0	1.0	0.0	7.5357	7.31613	-7.16981	20.25212	24.63051	1.48587	0.673	132.42071	132.22531	49.66694	0.33309	 	1.061568674E8	 	5.16388E-8	 	28288.989	33.4562	 
845.0	1.0	0.0	7.53815	7.31374	-7.20008	20.23644	24.56448	1.48324	0.6742	132.82007	132.45724	49.82459	0.33288	 	1.203962348E8	 	4.53288E-8	 	28121.94	33.4098	 
840.0	1.0	0.0	7.54061	7.31136	-7.2303	20.22078	24.49845	1.48058	0.67541	133.21909	132.68822	49.98215	0.33267	 	1.367004597E8	 	3.97439E-8	 	27955.124	33.3632	 
835.0	1.0	0.0	7.54306	7.30898	-7.26047	20.20514	24.43243	1.47792	0.67663	133.61774	132.91827	50.13963	0.33246	 	1.553910357E8	 	3.48064E-8	 	27788.539	33.317	 
830.0	1.0	0.0	7.54551	7.30661	-7.2906	20.18951	24.3664	1.47523	0.67786	134.01603	133.14738	50.29703	0.33225	 	1.768429057E8	 	3.04462E-8	 	27622.183	33.2712	 
825.0	1.0	0.0	7.54796	7.30424	-7.32068	20.17391	24.30037	1.47254	0.6791	134.41396	133.37556	50.45434	0.33204	 	2.014939076E8	 	2.66003E-8	 	27456.057	33.2252	 
820.0	1.0	0.0	7.55041	7.30187	-7.35071	20.15833	24.23434	1.46983	0.68035	134.81153	133.6028	50.61156	0.33183	 	2.29855987E8	 	2.32119E-8	 	27290.157	33.18	 
815.0	1.0	0.0	7.55286	7.29951	-7.3807	20.14277	24.16831	1.4671	0.68162	135.20873	133.82912	50.76869	0.33162	 	2.625285269E8	 	2.02301E-8	 	27124.485	33.1344	 
810.0	1.0	0.0	7.5553	7.29715	-7.41065	20.12723	24.10228	1.46436	0.68289	135.60556	134.05451	50.92574	0.3314	 	3.002142153E8	 	1.76094E-8	 	26959.038	33.0894	 
805.0	1.0	0.0	7.55774	7.29479	-7.44055	20.11171	24.03624	1.46161	0.68418	136.00202	134.27898	51.08269	0.33119	 	3.437379611E8	 	1.53087E-8	 	26793.815	33.0446	 
800.0	1.0	0.0	7.56018	7.29244	-7.4704	20.09621	23.97021	1.45884	0.68548	136.39811	134.50251	51.23956	0.33098	 	3.940694756E8	 	1.32915E-8	 	26628.815	33.0	 
795.0	1.0	0.0	7.56261	7.29009	-7.50021	20.08073	23.90418	1.45605	0.68679	136.79383	134.72513	51.39633	0.33077	 	4.523502705E8	 	1.15251E-8	 	26464.037	32.9556	 
790.0	1.0	0.0	7.56505	7.28774	-7.52997	20.06527	23.83814	1.45325	0.68811	137.18917	134.94683	51.55302	0.33056	 	5.199259812E8	 	9.98021E-9	 	26299.48	32.9114	 
785.0	1.0	0.0	7.56748	7.2854	-7.55969	20.04983	23.7721	1.45043	0.68945	137.58414	135.1676	51.70961	0.33035	 	5.983851262E8	 	8.63084E-9	 	26135.141	32.8678	 
780.0	1.0	0.0	7.56991	7.28306	-7.58936	20.03441	23.70607	1.4476	0.6908	137.97873	135.38746	51.86611	0.33014	 	6.896056519E8	 	7.45377E-9	 	25971.02	32.8242	 
775.0	1.0	0.0	7.57234	7.28073	-7.61899	20.01901	23.64003	1.44475	0.69216	138.37294	135.6064	52.02252	0.32993	 	7.958109139E8	 	6.42836E-9	 	25807.115	32.781	 
770.0	1.0	0.0	7.57476	7.2784	-7.64857	20.00364	23.57399	1.44189	0.69354	138.76676	135.82443	52.17883	0.32972	 	9.196371113E8	 	5.53627E-9	 	25643.425	32.738	 
765.0	1.0	0.0	7.57719	7.27607	-7.67811	19.98828	23.50795	1.43901	0.69492	139.16021	136.04155	52.33505	0.32951	 	1.064214646E9	 	4.76121E-9	 	25479.948	32.6954	 
760.0	1.0	0.0	7.57961	7.27374	-7.7076	19.97294	23.44191	1.43611	0.69632	139.55327	136.25776	52.49117	0.3293	 	1.233266435E9	 	4.08877E-9	 	25316.683	32.653	 
755.0	1.0	0.0	7.58203	7.27142	-7.73705	19.95763	23.37587	1.4332	0.69774	139.94594	136.47305	52.64719	0.32909	 	1.431226911E9	 	3.50618E-9	 	25153.627	32.6112	 
750.0	1.0	0.0	7.58444	7.26911	-7.76646	19.94233	23.30983	1.43027	0.69917	140.33822	136.68744	52.80312	0.32888	 	1.663386281E9	 	3.00215E-9	 	24990.78	32.5694	 
745.0	1.0	0.0	7.58686	7.26679	-7.79582	19.92706	23.24379	1.42732	0.70061	140.73012	136.90093	52.95895	0.32867	 	1.93606572E9	 	2.56672E-9	 	24828.139	32.5282	 
740.0	1.0	0.0	7.58927	7.26448	-7.82513	19.9118	23.17774	1.42436	0.70207	141.12162	137.11351	53.11469	0.32846	 	2.256830463E9	 	2.1911E-9	 	24665.702	32.4874	 
735.0	1.0	0.0	7.59168	7.26217	-7.85441	19.89657	23.1117	1.42138	0.70354	141.51273	137.32519	53.27032	0.32825	 	2.634749471E9	 	1.86755E-9	 	24503.467	32.447	 
730.0	1.0	0.0	7.59409	7.25987	-7.88363	19.88135	23.04566	1.41839	0.70503	141.90344	137.53597	53.42586	0.32804	 	3.080712357E9	 	1.58928E-9	 	24341.432	32.407	 
725.0	1.0	0.0	7.5965	7.25757	-7.91282	19.86616	22.97961	1.41537	0.70653	142.29376	137.74585	53.5813	0.32783	 	3.607816915E9	 	1.35032E-9	 	24179.595	32.3674	 
720.0	1.0	0.0	7.5989	7.25527	-7.94195	19.85099	22.91356	1.41234	0.70804	142.68368	137.95483	53.73663	0.32762	 	4.231843806E9	 	1.14544E-9	 	24017.954	32.3282	 
715.0	1.0	0.0	7.60131	7.25298	-7.97105	19.83584	22.84751	1.40929	0.70958	143.0732	138.16292	53.89186	0.32741	 	4.971839051E9	 	9.70046E-10	 	23856.505	32.2898	 
710.0	1.0	0.0	7.60371	7.25069	-8.0001	19.8207	22.78147	1.40623	0.71112	143.46232	138.37012	54.047	0.3272	 	5.850830142E9	 	8.20142E-10	 	23695.247	32.2516	 
705.0	1.0	0.0	7.6061	7.24841	-8.02911	19.80559	22.71542	1.40314	0.71268	143.85104	138.57642	54.20202	0.32699	 	6.896708036E9	 	6.9223E-10	 	23534.176	32.2142	 
700.0	1.0	0.0	7.6085	7.24612	-8.05807	19.7905	22.64937	1.40004	0.71426	144.23935	138.78184	54.35695	0.32678	 	8.143315531E9	 	5.83264E-10	 	23373.29	32.1772	 
695.0	1.0	0.0	7.61089	7.24384	-8.08699	19.77543	22.58331	1.39692	0.71586	144.62725	138.98636	54.51177	0.32657	 	9.631792869E9	 	4.90594E-10	 	23212.585	32.141	 
690.0	1.0	0.0	7.61329	7.24157	-8.11587	19.76038	22.51726	1.39379	0.71747	145.01475	139.19	54.66649	0.32636	 	1.14122E10	 	4.11917E-10	 	23052.058	32.1054	 
685.0	1.0	0.0	7.61568	7.2393	-8.1447	19.74535	22.45121	1.39063	0.7191	145.40184	139.39276	54.8211	0.32615	 	1.3545799999999998E10	 	3.45235E-10	 	22891.705	32.0706	 
680.0	1.0	0.0	7.61806	7.23703	-8.17349	19.73034	22.38515	1.38745	0.72074	145.78851	139.59463	54.9756	0.32594	 	1.6107199999999998E10	 	2.8882E-10	 	22731.522	32.0366	 
675.0	1.0	0.0	7.62045	7.23476	-8.20223	19.71535	22.3191	1.38426	0.72241	146.17478	139.79562	55.13	0.32573	 	1.91881E10	 	2.41175E-10	 	22571.505	32.0034	 
670.0	1.0	0.0	7.62283	7.2325	-8.23094	19.70038	22.25304	1.38105	0.72409	146.56063	139.99573	55.2843	0.32552	 	2.29007E10	 	2.01011E-10	 	22411.65	31.971	 
665.0	1.0	0.0	7.62521	7.23024	-8.2596	19.68543	22.18698	1.37782	0.72579	146.94606	140.19496	55.43848	0.32531	 	2.7383299999999996E10	 	1.67214E-10	 	22251.951	31.9398	 
660.0	1.0	0.0	7.62759	7.22798	-8.28821	19.67051	22.12093	1.37457	0.7275	147.33108	140.39331	55.59255	0.3251	 	3.2806199999999996E10	 	1.3883E-10	 	22092.402	31.9098	 
655.0	1.0	0.0	7.62997	7.22573	-8.31679	19.6556	22.05487	1.3713	0.72924	147.71568	140.59079	55.74652	0.32489	 	3.93797E10	 	1.15036E-10	 	21932.999	31.8806	 
650.0	1.0	0.0	7.63235	7.22348	-8.34532	19.64071	21.9888	1.36801	0.73099	148.09986	140.7874	55.90038	0.32468	 	4.736409999999999E10	 	9.51282E-11	 	21773.735	31.8528	 
645.0	1.0	0.0	7.63472	7.22124	-8.37381	19.62585	21.92274	1.3647	0.73276	148.48361	140.98314	56.05412	0.32447	 	5.708229999999999E10	 	7.85053E-11	 	21614.602	31.8266	 
640.0	1.0	0.0	7.63709	7.219	-8.40225	19.611	21.85668	1.36137	0.73456	148.86695	141.178	56.20776	0.32426	 	6.89352E10	 	6.46528E-11	 	21455.593	31.8018	 
635.0	1.0	0.0	7.63946	7.21676	-8.43065	19.59617	21.79061	1.35802	0.73637	149.24985	141.372	56.36128	0.32405	 	8.34228E10	 	5.31324E-11	 	21296.7	31.7786	 
630.0	1.0	0.0	7.64182	7.21452	-8.45901	19.58137	21.72455	1.35465	0.7382	149.63233	141.56513	56.51469	0.32384	 	1.01169E11	 	4.35713E-11	 	21137.914	31.7572	 
625.0	1.0	0.0	7.64419	7.21229	-8.48733	19.56658	21.65848	1.35126	0.74005	150.01439	141.7574	56.66799	0.32363	 	1.22954E11	 	3.56528E-11	 	20979.223	31.7382	 
620.0	1.0	0.0	7.64655	7.21006	-8.5156	19.55182	21.59241	1.34785	0.74192	150.39601	141.9488	56.82117	0.32342	 	1.49757E11	 	2.91088E-11	 	20820.618	31.721	 
615.0	1.0	0.0	7.64891	7.20784	-8.54384	19.53708	21.52634	1.34442	0.74382	150.7772	142.13934	56.97424	0.3232	 	1.82808E11	 	2.37125E-11	 	20662.085	31.7066	 
610.0	1.0	0.0	7.65127	7.20562	-8.57203	19.52235	21.46027	1.34096	0.74573	151.15796	142.32903	57.1272	0.32299	 	2.2366E11	 	1.92723E-11	 	20503.61	31.695	 
605.0	1.0	0.0	7.65363	7.2034	-8.60017	19.50765	21.3942	1.33749	0.74767	151.53829	142.51785	57.28004	0.32278	 	2.7427E11	 	1.56271E-11	 	20345.178	31.6864	 
600.0	1.0	0.0	7.65598	7.20118	-8.62828	19.49297	21.32813	1.33399	0.74963	151.91818	142.70582	57.43276	0.32257	 	3.3712E11	 	1.26413E-11	 	20186.772	31.6812	 
595.0	1.0	0.0	7.65833	7.19897	-8.65634	19.47831	21.26205	1.33048	0.75161	152.29763	142.89293	57.58537	0.32236	 	4.15358E11	 	1.02014E-11	 	20028.371	31.6802	 
590.0	1.0	0.0	7.66068	7.19676	-8.68437	19.46366	21.19597	1.32694	0.75361	152.67664	143.07919	57.73786	0.32215	 	5.12995E11	 	8.21221E-12	 	19868.325	32.0092	 
585.0	1.0	0.0	7.66303	7.19456	-8.71235	19.44904	21.1299	1.32338	0.75564	153.05522	143.2646	57.89023	0.32194	 	6.35145E11	 	6.59443E-12	 	19708.642	31.9366	 
580.0	1.0	0.0	7.66538	7.19236	-8.74028	19.43444	21.06382	1.31979	0.75769	153.43335	143.44915	58.04248	0.32173	 	7.88352E11	 	5.28192E-12	 	19549.391	31.8502	 
575.0	1.0	0.0	7.66772	7.19016	-8.76818	19.41986	20.99774	1.31619	0.75977	153.81104	143.63286	58.19462	0.32152	 	9.81015E11	 	4.21972E-12	 	19390.563	31.7656	 
570.0	1.0	0.0	7.67006	7.18796	-8.79604	19.4053	20.93165	1.31256	0.76187	154.18828	143.81572	58.34663	0.32131	 	1.22393E12	 	3.36228E-12	 	19232.149	31.6828	 
565.0	1.0	0.0	7.6724	7.18577	-8.82385	19.39076	20.86557	1.30891	0.764	154.56508	143.99774	58.49852	0.3211	 	1.53104E12	 	2.6719E-12	 	19074.143	31.6012	 
560.0	1.0	0.0	7.67474	7.18358	-8.85162	19.37624	20.79948	1.30523	0.76615	154.94143	144.17891	58.65029	0.32089	 	1.92037E12	 	2.11751E-12	 	18916.535	31.5216	 
555.0	1.0	0.0	7.67708	7.1814	-8.87935	19.36174	20.7334	1.30154	0.76832	155.31733	144.35924	58.80194	0.32068	 	2.41531E12	 	1.67349E-12	 	18759.32	31.443	 
550.0	1.0	0.0	7.67941	7.17921	-8.90704	19.34727	20.66731	1.29782	0.77053	155.69278	144.53873	58.95347	0.32047	 	3.04628E12	 	1.31885E-12	 	18602.49	31.366	 
545.0	1.0	0.0	7.68174	7.17703	-8.93469	19.33281	20.60122	1.29407	0.77276	156.06778	144.71739	59.10488	0.32026	 	3.85301E12	 	1.03638E-12	 	18446.039	31.2902	 
540.0	1.0	0.0	7.68407	7.17486	-8.9623	19.31837	20.53513	1.2903	0.77501	156.44233	144.8952	59.25616	0.32005	 	4.8875E12	 	8.12028E-13	 	18289.961	31.2156	 
535.0	1.0	0.0	7.6864	7.17269	-8.98986	19.30395	20.46903	1.28651	0.7773	156.81642	145.07218	59.40732	0.31984	 	6.21801E12	 	6.34347E-13	 	18134.251	31.142	 
530.0	1.0	0.0	7.68872	7.17052	-9.01739	19.28956	20.40294	1.28269	0.77961	157.19005	145.24832	59.55835	0.31963	 	7.9345E12	 	4.94042E-13	 	17978.902	31.0698	 
525.0	1.0	0.0	7.69105	7.16835	-9.04487	19.27518	20.33684	1.27885	0.78195	157.56323	145.42364	59.70926	0.31942	 	1.01558E13	 	3.83581E-13	 	17823.909	30.9986	 
520.0	1.0	0.0	7.69337	7.16619	-9.07231	19.26082	20.27074	1.27498	0.78433	157.93595	145.59812	59.86004	0.31921	 	1.30395E13	 	2.96879E-13	 	17669.269	30.928	 
515.0	1.0	0.0	7.69569	7.16403	-9.09972	19.24649	20.20465	1.27109	0.78673	158.30821	145.77177	60.0107	0.319	 	1.67953E13	 	2.29038E-13	 	17514.975	30.8588	 
510.0	1.0	0.0	7.698	7.16187	-9.12708	19.23217	20.13855	1.26717	0.78916	158.68	145.9446	60.16122	0.31879	 	2.17029E13	 	1.76122E-13	 	17361.025	30.79	 
505.0	1.0	0.0	7.70032	7.15972	-9.1544	19.21788	20.07244	1.26323	0.79162	159.05134	146.1166	60.31162	0.31858	 	2.81372E13	 	1.3498E-13	 	17207.413	30.7224	 
500.0	1.0	0.0	7.70263	7.15757	-9.18168	19.20361	20.00634	1.25926	0.79412	159.4222	146.28777	60.4619	0.31837	 	3.66017E13	 	1.03098E-13	 	17054.135	30.6556	 
495.0	1.0	0.0	7.70494	7.15542	-9.20892	19.18935	19.94023	1.25526	0.79665	159.79261	146.45812	60.61204	0.31816	 	4.7776E13	 	7.84734E-14	 	16901.189	30.5892	 
490.0	1.0	0.0	7.70725	7.15328	-9.23612	19.17512	19.87413	1.25124	0.79921	160.16254	146.62765	60.76205	0.31795	 	6.25801E13	 	5.95197E-14	 	16748.57	30.5238	 
485.0	1.0	0.0	7.70956	7.15114	-9.26328	19.16091	19.80802	1.24719	0.8018	160.53201	146.79636	60.91194	0.31774	 	8.22638E13	 	4.49814E-14	 	16596.274	30.4592	 
480.0	1.0	0.0	7.71186	7.149	-9.2904	19.14672	19.74191	1.24311	0.80443	160.901	146.96426	61.06169	0.31753	 	1.08532E14	 	3.38695E-14	 	16444.3	30.3948	 
475.0	1.0	0.0	7.71417	7.14687	-9.31748	19.13254	19.6758	1.23901	0.8071	161.26952	147.13133	61.21131	0.31732	 	1.43721E14	 	2.54071E-14	 	16292.643	30.3314	 
470.0	1.0	0.0	7.71647	7.14474	-9.34452	19.11839	19.60969	1.23488	0.8098	161.63758	147.29759	61.3608	0.31711	 	1.91039E14	 	1.89863E-14	 	16141.302	30.2682	 
465.0	1.0	0.0	7.71877	7.14261	-9.37152	19.10426	19.54357	1.23072	0.81253	162.00515	147.46304	61.51016	0.3169	 	2.5491699999999997E14	 	1.41329E-14	 	15990.272	30.206	 
460.0	1.0	0.0	7.72106	7.14048	-9.39848	19.09015	19.47746	1.22653	0.81531	162.37225	147.62768	61.65939	0.31669	 	3.41496E14	 	1.04784E-14	 	15839.551	30.1442	 
455.0	1.0	0.0	7.72336	7.13836	-9.4254	19.07606	19.41134	1.22231	0.81812	162.73888	147.79151	61.80848	0.31648	 	4.59322E14	 	7.73731E-15	 	15689.138	30.0826	 
450.0	1.0	0.0	7.72565	7.13624	-9.45228	19.06199	19.34522	1.21807	0.82097	163.10502	147.95452	61.95744	0.31627	 	6.2034E14	 	5.68964E-15	 	15539.029	30.0218	 
445.0	1.0	0.0	7.72794	7.13413	-9.47912	19.04794	19.2791	1.2138	0.82386	163.47069	148.11673	62.10626	0.31606	 	8.41319E14	 	4.16621E-15	 	15389.223	29.9612	 
440.0	1.0	0.0	7.73023	7.13201	-9.50592	19.03391	19.21298	1.20949	0.82679	163.83588	148.27814	62.25495	0.31585	 	1.1459E15	 	3.03753E-15	 	15239.716	29.9014	 
435.0	1.0	0.0	7.73252	7.12991	-9.53268	19.0199	19.14686	1.20516	0.82976	164.20058	148.43874	62.4035	0.31564	 	1.56758E15	 	2.20487E-15	 	15090.508	29.8416	 
430.0	1.0	0.0	7.7348	7.1278	-9.55941	19.00592	19.08073	1.2008	0.83278	164.5648	148.59854	62.55192	0.31543	 	2.15401E15	 	1.59326E-15	 	14941.597	29.7822	 
425.0	1.0	0.0	7.73709	7.1257	-9.58609	18.99195	19.01461	1.19641	0.83584	164.92854	148.75754	62.7002	0.31522	 	2.97333E15	 	1.14602E-15	 	14792.979	29.7236	 
420.0	1.0	0.0	7.73937	7.1236	-9.61273	18.978	18.94848	1.19198	0.83894	165.29179	148.91574	62.84834	0.31501	 	4.12344E15	 	8.20453E-16	 	14644.654	29.665	 
415.0	1.0	0.0	7.74165	7.1215	-9.63934	18.96408	18.88235	1.18753	0.84208	165.65455	149.07314	62.99634	0.31479	 	5.74567E15	 	5.8456E-16	 	14496.62	29.6068	 
410.0	1.0	0.0	7.74392	7.11941	-9.6659	18.95017	18.81622	1.18305	0.84528	166.01683	149.22975	63.14421	0.31458	 	8.04509E15	 	4.1445E-16	 	14348.876	29.5488	 
405.0	1.0	0.0	7.7462	7.11732	-9.69243	18.93628	18.75009	1.17853	0.84852	166.37861	149.38556	63.29193	0.31437	 	1.13208E16	 	2.92371E-16	 	14201.419	29.4914	 
400.0	1.0	0.0	7.74847	7.11523	-9.71892	18.92242	18.68396	1.17398	0.8518	166.73991	149.54058	63.43952	0.31416	 	1.60114E16	 	2.05196E-16	 	14054.249	29.434	 
395.0	1.0	0.0	7.75074	7.11314	-9.74537	18.90857	18.61782	1.1694	0.85514	167.10071	149.69481	63.58697	0.31395	 	2.27632E16	 	1.43261E-16	 	13907.364	29.377	 
390.0	1.0	0.0	7.75301	7.11106	-9.77178	18.89475	18.55169	1.16479	0.85853	167.46102	149.84825	63.73428	0.31374	 	3.25344E16	 	9.94844E-17	 	13760.763	29.3202	 
385.0	1.0	0.0	7.75528	7.10898	-9.79815	18.88094	18.48555	1.16014	0.86197	167.82083	150.00091	63.88144	0.31353	 	4.67531E16	 	6.8707E-17	 	13614.445	29.2636	 
380.0	1.0	0.0	7.75754	7.10691	-9.82449	18.86716	18.41941	1.15546	0.86546	168.18015	150.15277	64.02847	0.31332	 	6.7559900000000008E16	 	4.71857E-17	 	13468.408	29.2074	 
375.0	1.0	0.0	7.7598	7.10484	-9.85078	18.8534	18.35327	1.15075	0.869	168.53897	150.30386	64.17535	0.31311	 	9.81826E16	 	3.22202E-17	 	13322.652	29.1512	 
370.0	1.0	0.0	7.76206	7.10277	-9.87704	18.83965	18.28712	1.146	0.8726	168.8973	150.45416	64.32209	0.3129	 	1.43518E17	 	2.18723E-17	 	13177.175	29.0954	 
365.0	1.0	0.0	7.76432	7.1007	-9.90326	18.82593	18.22098	1.14122	0.87626	169.25513	150.60367	64.46868	0.31269	 	2.11037E17	 	1.47588E-17	 	13031.977	29.0396	 
360.0	1.0	0.0	7.76658	7.09864	-9.92944	18.81223	18.15483	1.1364	0.87997	169.61245	150.75241	64.61514	0.31248	 	3.12219E17	 	9.89769E-18	 	12887.056	28.9842	 
355.0	1.0	0.0	7.76883	7.09658	-9.95558	18.79855	18.08868	1.13155	0.88374	169.96928	150.90037	64.76145	0.31227	 	4.64802E17	 	6.59603E-18	 	12742.412	28.9288	 
350.0	1.0	0.0	7.77109	7.09452	-9.98168	18.78489	18.02253	1.12666	0.88758	170.3256	151.04756	64.90761	0.31206	 	6.96385E17	 	4.36747E-18	 	12598.044	28.8736	 
345.0	1.0	0.0	7.77334	7.09247	-10.00775	18.77125	17.95638	1.12174	0.89147	170.68142	151.19397	65.05363	0.31185	 	1.0502E18	 	2.87282E-18	 	12453.951	28.8186	 
340.0	1.0	0.0	7.77559	7.09041	-10.03378	18.75763	17.89023	1.11678	0.89543	171.03674	151.33961	65.19951	0.31164	 	1.59443E18	 	1.87693E-18	 	12310.134	28.7634	 
335.0	1.0	0.0	7.77783	7.08837	-10.05977	18.74403	17.82407	1.11179	0.89945	171.39155	151.48448	65.34524	0.31143	 	2.43737E18	 	1.2178E-18	 	12166.59	28.7088	 
330.0	1.0	0.0	7.78008	7.08632	-10.08572	18.73045	17.75792	1.10675	0.90354	171.74586	151.62858	65.49082	0.31122	 	3.75226E18	 	7.84548E-19	 	12023.32	28.654	 
325.0	1.0	0.0	7.78232	7.08428	-10.11164	18.71689	17.69176	1.10168	0.9077	172.09966	151.77191	65.63625	0.31101	 	5.81832E18	 	5.01764E-19	 	11880.322	28.5996	 
320.0	1.0	0.0	7.78456	7.08224	-10.13751	18.70335	17.6256	1.09658	0.91193	172.45295	151.91447	65.78154	0.3108	 	9.08896E18	 	3.1852E-19	 	11737.598	28.5448	 
315.0	1.0	0.0	7.7868	7.0802	-10.16335	18.68983	17.55943	1.09143	0.91623	172.80573	152.05627	65.92669	0.31059	 	1.43062E19	 	2.00655E-19	 	11595.146	28.4904	 
310.0	1.0	0.0	7.78904	7.07817	-10.18916	18.67634	17.49327	1.08624	0.9206	173.158	152.19731	66.07168	0.31038	 	2.26942E19	 	1.25416E-19	 	11452.965	28.4362	 
305.0	1.0	0.0	7.79127	7.07614	-10.21492	18.66286	17.4271	1.08102	0.92505	173.50977	152.33759	66.21653	0.31017	 	3.62886E19	 	7.77601E-20	 	11311.057	28.3816	 
300.0	1.0	0.0	7.79351	7.07411	-10.24065	18.6494	17.36093	1.07575	0.92958	173.86102	152.47711	66.36122	0.30996	 	5.85037E19	 	4.78158E-20	 	11169.419	28.3276	 
295.0	1.0	0.0	7.79574	7.07208	-10.26634	18.63597	17.29476	1.07045	0.93419	174.21176	152.61588	66.50577	0.30975	 	9.51147E19	 	2.91543E-20	 	11028.054	28.273	 
290.0	1.0	0.0	7.79797	7.07006	-10.29199	18.62255	17.22859	1.0651	0.93888	174.56199	152.75389	66.65017	0.30954	 	1.55977E20	 	1.76218E-20	 	10886.959	28.219	 
285.0	1.0	0.0	7.8002	7.06804	-10.31761	18.60915	17.16242	1.05972	0.94365	174.9117	152.89115	66.79442	0.30933	 	2.5805999999999997E20	 	1.05564E-20	 	10746.135	28.1648	 
280.0	1.0	0.0	7.80242	7.06603	-10.34319	18.59578	17.09624	1.05429	0.94851	175.2609	153.02765	66.93852	0.30912	 	4.3085999999999993E20	 	6.26605E-21	 	10605.583	28.1104	 
275.0	1.0	0.0	7.80464	7.06402	-10.36873	18.58242	17.03006	1.04882	0.95345	175.60959	153.16341	67.08247	0.30891	 	7.261259999999999E20	 	3.68446E-21	 	10465.302	28.0562	 
270.0	1.0	0.0	7.80687	7.062	-10.39424	18.56909	16.96388	1.04331	0.95849	175.95776	153.29842	67.22627	0.3087	 	1.23555E21	 	2.14558E-21	 	10325.293	28.0018	 
265.0	1.0	0.0	7.80909	7.06	-10.41971	18.55578	16.8977	1.03775	0.96362	176.30542	153.43269	67.36992	0.30849	 	2.12325E21	 	1.23705E-21	 	10185.555	27.9476	 
260.0	1.0	0.0	7.8113	7.05799	-10.44514	18.54248	16.83151	1.03215	0.96885	176.65256	153.56622	67.51341	0.30828	 	3.68597E21	 	7.05966E-22	 	10046.089	27.8932	 
255.0	1.0	0.0	7.81352	7.05599	-10.47054	18.52921	16.76532	1.02651	0.97417	176.99919	153.699	67.65676	0.30807	 	6.46604E21	 	3.98663E-22	 	9906.895	27.8388	 
250.0	1.0	0.0	7.81573	7.05399	-10.4959	18.51596	16.69914	1.02082	0.9796	177.3453	153.83104	67.79995	0.30786	 	1.14654E22	 	2.22701E-22	 	9767.974	27.7842	 
245.0	1.0	0.0	7.81795	7.052	-10.52122	18.50273	16.63294	1.01509	0.98514	177.69089	153.96235	67.943	0.30765	 	2.05563E22	 	1.23026E-22	 	9629.327	27.7294	 
240.0	1.0	0.0	7.82016	7.05	-10.54651	18.48951	16.56675	1.00931	0.99078	178.03596	154.09293	68.08589	0.30744	 	3.7276799999999996E22	 	6.71881E-23	 	9490.952	27.675	 
235.0	1.0	0.0	7.82236	7.04801	-10.57176	18.47632	16.50055	1.00349	0.99653	178.38052	154.22277	68.22863	0.30723	 	6.83944E22	 	3.62625E-23	 	9352.853	27.6198	 
230.0	1.0	0.0	7.82457	7.04603	-10.59698	18.46315	16.43436	0.99761	1.00239	178.72456	154.35189	68.37122	0.30702	 	1.2701099999999999E23	 	1.9335E-23	 	9215.028	27.565	 
225.0	1.0	0.0	7.82677	7.04404	-10.62216	18.45	16.36816	0.9917	1.00837	179.06809	154.48027	68.51365	0.30681	 	2.3881299999999998E23	 	1.0181E-23	 	9077.479	27.5098	 
220.0	1.0	0.0	7.82898	7.04206	-10.6473	18.43687	16.30195	0.98573	1.01448	179.41109	154.60794	68.65594	0.3066	 	4.5481599999999996E23	 	5.29212E-24	 	8940.207	27.4544	 
215.0	1.0	0.0	7.83118	7.04008	-10.67241	18.42376	16.23575	0.97971	1.02071	179.75358	154.73488	68.79807	0.30639	 	8.77699E23	 	2.71453E-24	 	8803.212	27.399	 
210.0	1.0	0.0	7.83338	7.03811	-10.69748	18.41067	16.16954	0.97365	1.02707	180.09555	154.8611	68.94005	0.30618	 	1.71698E24	 	1.37342E-24	 	8666.496	27.3432	 
205.0	1.0	0.0	7.83557	7.03613	-10.72252	18.39761	16.10333	0.96753	1.03356	180.43701	154.9866	69.08187	0.30596	 	3.40626E24	 	6.85129E-25	 	8530.06	27.2872	 
200.0	1.0	0.0	7.83777	7.03416	-10.74752	18.38456	16.03712	0.96137	1.04018	180.77795	155.11139	69.22355	0.30575	 	6.85615E24	 	3.36826E-25	 	8393.905	27.231	 
195.0	1.0	0.0	7.83996	7.03219	-10.77248	18.37153	15.9709	0.95515	1.04695	181.11838	155.23547	69.36507	0.30554	 	1.40079E25	 	1.63117E-25	 	8258.032	27.1746	 
190.0	1.0	0.0	7.84215	7.03023	-10.79741	18.35852	15.90468	0.94889	1.05387	181.45829	155.35884	69.50645	0.30533	 	2.90645E25	 	7.7776E-26	 	8122.444	27.1176	 
185.0	1.0	0.0	7.84434	7.02827	-10.82231	18.34554	15.83846	0.94257	1.06093	181.79768	155.48151	69.64767	0.30512	 	6.1273500000000006E25	 	3.6494E-26	 	7987.14	27.0608	 
180.0	1.0	0.0	7.84653	7.02631	-10.84717	18.33257	15.77224	0.93619	1.06815	182.13656	155.60347	69.78874	0.30491	 	1.3132000000000002E26	 	1.68421E-26	 	7852.124	27.0032	 
175.0	1.0	0.0	7.84871	7.02435	-10.87199	18.31962	15.70602	0.92977	1.07554	182.47493	155.72473	69.92965	0.3047	 	2.8627100000000003E26	 	7.6407E-27	 	7717.397	26.9454	 
170.0	1.0	0.0	7.8509	7.0224	-10.89678	18.3067	15.63979	0.92329	1.08308	182.81279	155.84529	70.07042	0.30449	 	6.35126E26	 	3.40547E-27	 	7582.96	26.8874	 
165.0	1.0	0.0	7.85308	7.02045	-10.92153	18.29379	15.57356	0.91675	1.09081	183.15014	155.96517	70.21104	0.30428	 	1.43497E27	 	1.49028E-27	 	7448.817	26.8286	 
160.0	1.0	0.0	7.85526	7.0185	-10.94625	18.28091	15.50733	0.91016	1.0987	183.48698	156.08435	70.35151	0.30407	 	3.30366E27	 	6.39925E-28	 	7314.968	26.7698	 
155.0	1.0	0.0	7.85744	7.01655	-10.97093	18.26804	15.44109	0.90352	1.10679	183.82331	156.20284	70.49183	0.30386	 	7.75548E27	 	2.69447E-28	 	7181.417	26.7102	 
150.0	1.0	0.0	7.85961	7.01461	-10.99558	18.2552	15.37485	0.89681	1.11506	184.15914	156.32066	70.632	0.30365	 	1.8577200000000002E28	 	1.11173E-28	 	7048.166	26.6502	 
145.0	1.0	0.0	7.86179	7.01267	-11.0202	18.24238	15.30861	0.89005	1.12353	184.49447	156.43779	70.77202	0.30344	 	4.54385E28	 	4.49154E-29	 	6915.218	26.5896	 
140.0	1.0	0.0	7.86396	7.01073	-11.04478	18.22957	15.24237	0.88323	1.13221	184.82929	156.55425	70.9119	0.30323	 	1.13572E29	 	1.77552E-29	 	6782.576	26.5284	 
135.0	1.0	0.0	7.86613	7.0088	-11.06932	18.21679	15.17612	0.87635	1.1411	185.16361	156.67004	71.05162	0.30302	 	2.90311E29	 	6.86188E-30	 	6650.242	26.4668	 
130.0	1.0	0.0	7.8683	7.00687	-11.09383	18.20403	15.10987	0.86941	1.15021	185.49744	156.78517	71.19121	0.30281	 	7.595690000000001E29	 	2.59051E-30	 	6518.22	26.4044	 
125.0	1.0	0.0	7.87046	7.00494	-11.11831	18.19129	15.04362	0.86241	1.15955	185.83078	156.89963	71.33065	0.3026	 	2.03593E30	 	9.54489E-31	 	6386.514	26.3412	 
120.0	1.0	0.0	7.87263	7.00301	-11.14275	18.17857	14.97737	0.85534	1.16912	186.16362	157.01344	71.46994	0.30239	 	5.59563E30	 	3.42922E-31	 	6255.127	26.2774	 
115.0	1.0	0.0	7.87479	7.00109	-11.16716	18.16587	14.91111	0.84822	1.17894	186.49598	157.12659	71.6091	0.30218	 	1.57851E31	 	1.20016E-31	 	6124.063	26.2128	 
110.0	1.0	0.0	7.87695	6.99917	-11.19153	18.15319	14.84485	0.84103	1.18902	186.82785	157.23909	71.74811	0.30197	 	4.57511E31	 	4.08746E-32	 	5993.326	26.1474	 
105.0	1.0	0.0	7.87911	6.99725	-11.21587	18.14053	14.77858	0.83378	1.19936	187.15924	157.35096	71.88698	0.30176	 	1.3638799999999999E32	 	1.35324E-32	 	5862.921	26.081	 
100.0	1.0	0.0	7.88127	6.99533	-11.24018	18.12789	14.71232	0.82646	1.20998	187.49016	157.46218	72.02572	0.30155	 	4.1866399999999995E32	 	4.35015E-33	 	5732.853	26.0136	 
95.0	1.0	0.0	7.88343	6.99342	-11.26445	18.11527	14.64605	0.81907	1.22089	187.8206	157.57278	72.16432	0.30134	 	1.32491E33	 	1.35621E-33	 	5603.126	25.9454	 
90.0	1.0	0.0	7.88558	6.99151	-11.28869	18.10267	14.57978	0.81162	1.2321	188.15058	157.68275	72.30278	0.30113	 	4.3279400000000003E33	 	4.09536E-34	 	5473.747	25.8758	 
85.0	1.0	0.0	7.88773	6.9896	-11.31289	18.09009	14.5135	0.8041	1.24363	188.4801	157.79211	72.44111	0.30092	 	1.4612700000000002E34	 	1.19625E-34	 	5344.72	25.8054	 
80.0	1.0	0.0	7.88988	6.9877	-11.33706	18.07753	14.44722	0.79651	1.25547	188.80916	157.90085	72.57932	0.30071	 	5.10676E34	 	3.3752E-35	 	5216.053	25.7334	 
75.0	1.0	0.0	7.89203	6.9858	-11.3612	18.065	14.38094	0.78885	1.26766	189.13778	158.00899	72.71739	0.3005	 	1.8499899999999997E35	 	9.18511E-36	 	5087.751	25.6604	 
70.0	1.0	0.0	7.89418	6.9839	-11.3853	18.05248	14.31465	0.78113	1.2802	189.46595	158.11653	72.85534	0.30029	 	6.95797E35	 	2.40707E-36	 	4959.821	25.586	 
65.0	1.0	0.0	7.89632	6.982	-11.40937	18.03998	14.24837	0.77333	1.29312	189.79368	158.22348	72.99316	0.30008	 	2.7215099999999995E36	 	6.06437E-37	 	4832.272	25.5098	 
60.0	1.0	0.0	7.89847	6.98011	-11.43341	18.02751	14.18207	0.76545	1.30642	190.12099	158.32985	73.13087	0.29987	 	1.1089599999999999E37	 	1.46625E-37	 	4705.11	25.4324	 
55.0	1.0	0.0	7.90061	6.97821	-11.45741	18.01505	14.11578	0.7575	1.32012	190.44788	158.43565	73.26846	0.29966	 	4.71647E37	 	3.3958E-38	 	4578.345	25.353	 
50.0	1.0	0.0	7.90275	6.97633	-11.48138	18.00262	14.04948	0.74948	1.33425	190.77436	158.54089	73.40593	0.29945	 	2.09784E38	 	7.51829E-39	 	4451.985	25.272	 
45.0	1.0	0.0	7.90488	6.97444	-11.50532	17.9902	13.98318	0.74138	1.34883	191.10044	158.64558	73.5433	0.29924	 	9.779109999999999E38	 	1.58789E-39	 	4326.04	25.189	 
40.0	1.0	0.0	7.90702	6.97255	-11.52922	17.97781	13.91687	0.73321	1.36387	191.42613	158.74972	73.68056	0.29903	 	4.7882300000000004E39	 	3.19201E-40	 	4200.52	25.104	 
35.0	1.0	0.0	7.90915	6.97067	-11.55309	17.96543	13.85057	0.72496	1.37939	191.75144	158.85333	73.81772	0.29882	 	2.4685299999999998E40	 	6.0927E-41	 	4075.437	25.0166	 
30.0	1.0	0.0	7.91129	6.96879	-11.57693	17.95308	13.78425	0.71663	1.39543	192.07638	158.95643	73.95478	0.29861	 	1.3433800000000001E41	 	1.1014E-41	 	3950.802	24.927	 
25.0	1.0	0.0	7.91342	6.96692	-11.60074	 	13.71794	0.70821	1.41201	192.40097	159.05901	74.09175	0.2984	 	7.738110000000001E41	 	1.88056E-42	 	3826.628	 	 
