T (C)	Fraction solid (wt)-TOTAL	Fraction liquid (wt)-LIQUID	Density (g/(cm)^3)-TOTAL	Molar volume (cm^3)-TOTAL	Volume change (%)-  	Average expansion coeff. (10e-6 1/K)-  	Thermal conductivity (W/(m*K))-TOTAL	Electrical resistivity (10e-6 Ohm*m)-TOTAL	Electrical conductivity (10e6 1/(Ohm*m))-TOTAL	Young's modulus (GPa)-TOTAL	Bulk modulus (GPa)-TOTAL	Shear modulus(GPa)-TOTAL	Poisson's ratio-TOTAL	Liquid viscosity (mPa s)-  	Total viscosity (mPa s)-  	Liquid diffusivity (10e-9 (m^2)/s)-  	Total diffusivity (10e-9 (m^2)/s)-  	Surface Tension (mN/m)-  	Enthalpy (J/mole)-TOTAL	Specific heat (J/(mole K))-TOTAL	Latent heat (J/mole)-TOTAL
1500.0	0.0	1.0	6.71257	8.00441	0.0	32.52268	32.3641	1.78525	0.56014	0.0	99.89713	0.0	0.49208	5.85489	5.85489	1.47813	1.47813	1585.21209	63694.886	 	0.0
1495.0	0.0	1.0	6.71655	7.99966	-0.0592387	32.47965	32.2871	1.78446	0.56039	0.0	100.09091	0.0	0.49208	5.90408	5.90408	1.46168	1.46168	1586.42216	63473.812	44.2148	0.0
1490.0	0.0	1.0	6.72053	7.99494	-0.11832	32.43673	32.2101	1.78367	0.56064	0.0	100.28469	0.0	0.49208	5.95397	5.95397	1.44534	1.44534	1587.62709	63253.209	44.1206	0.0
1485.0	0.0	1.0	6.72449	7.99022	-0.17724	32.39393	32.1331	1.78288	0.56089	0.0	100.47848	0.0	0.49208	6.00456	6.00456	1.4291	1.4291	1588.82683	63033.073	44.0272	0.0
1480.0	0.0	1.0	6.72845	7.98552	-0.236	32.35126	32.05609	1.78208	0.56114	0.0	100.67226	0.0	0.49208	6.05588	6.05588	1.41296	1.41296	1590.02134	62813.402	43.9342	0.0
1475.0	0.0	1.0	6.73241	7.98083	-0.2946	32.3087	31.97909	1.78127	0.5614	0.0	100.86604	0.0	0.49208	6.10793	6.10793	1.39692	1.39692	1591.21059	62594.192	43.842	0.0
1470.0	0.0	1.0	6.73636	7.97615	-0.35305	32.26628	31.90209	1.78046	0.56165	0.0	101.05982	0.0	0.49208	6.16074	6.16074	1.38098	1.38098	1592.39452	62375.441	43.7502	0.0
1465.0	0.0	1.0	6.7403	7.97148	-0.41133	32.22398	31.82509	1.77965	0.56191	0.0	101.25361	0.0	0.49208	6.2143	6.2143	1.36515	1.36515	1593.5731	62157.146	43.659	0.0
1460.0	0.0	1.0	6.74424	7.96683	-0.46946	32.18181	31.74809	1.77884	0.56216	0.0	101.44739	0.0	0.49208	6.26865	6.26865	1.34943	1.34943	1594.74629	61939.305	43.5682	0.0
1455.0	0.0	1.0	6.74817	7.96219	-0.52743	32.13976	31.67109	1.77802	0.56242	0.0	101.64117	0.0	0.49208	6.32379	6.32379	1.3338	1.3338	1595.91403	61721.913	43.4784	0.0
1450.0	0.0	1.0	6.75209	7.95756	-0.58523	32.09785	31.59409	1.77719	0.56268	0.0	101.83495	0.0	0.49208	6.37974	6.37974	1.31828	1.31828	1597.0763	61504.986	43.3854	0.0
1445.0	0.0	1.0	6.75601	7.95295	-0.64288	32.05607	31.51709	1.77637	0.56295	0.0	102.02874	0.0	0.49208	6.43651	6.43651	1.30286	1.30286	1598.23304	61288.548	43.2876	0.0
1440.0	0.0	1.0	6.75992	7.94835	-0.70037	32.01442	31.44008	1.77554	0.56321	0.0	102.22252	0.0	0.49208	6.49413	6.49413	1.28754	1.28754	1599.38422	61072.594	43.1908	0.0
1435.0	0.0	1.0	6.76382	7.94376	-0.7577	31.97291	31.36308	1.7747	0.56348	0.0	102.4163	0.0	0.49208	6.5526	6.5526	1.27233	1.27233	1600.52978	60857.12	43.0948	0.0
1430.0	0.0	1.0	6.76772	7.93918	-0.81488	31.93153	31.28608	1.77386	0.56374	0.0	102.61008	0.0	0.49208	6.61195	6.61195	1.25722	1.25722	1601.66969	60642.124	42.9992	0.0
1425.0	0.0	1.0	6.77162	7.93462	-0.87189	31.89029	31.20908	1.77302	0.56401	0.0	102.80387	0.0	0.49208	6.67218	6.67218	1.24221	1.24221	1602.80389	60427.603	42.9042	0.0
1420.0	0.0	1.0	6.7755	7.93007	-0.92874	31.84919	31.13208	1.77217	0.56428	0.0	102.99765	0.0	0.49208	6.73333	6.73333	1.2273	1.2273	1603.93235	60213.553	42.81	0.0
1415.0	0.0	1.0	6.77938	7.92553	-0.98544	31.80823	31.05508	1.77132	0.56455	0.0	103.19143	0.0	0.49208	6.79541	6.79541	1.2125	1.2125	1605.05502	59999.971	42.7164	0.0
1410.0	0.0	1.0	6.78325	7.921	-1.04198	31.76741	30.97808	1.77046	0.56482	0.0	103.38521	0.0	0.49208	6.85843	6.85843	1.1978	1.1978	1606.17185	59786.855	42.6232	0.0
1405.0	0.0	1.0	6.78712	7.91649	-1.09835	31.72673	30.90108	1.7696	0.5651	0.0	103.57899	0.0	0.49208	6.92242	6.92242	1.1832	1.1832	1607.2828	59574.201	42.5308	0.0
1400.0	0.0	1.0	6.79098	7.91199	-1.15457	31.6862	30.82407	1.76873	0.56538	0.0	103.77278	0.0	0.49208	6.98739	6.98739	1.16871	1.16871	1608.38781	59362.005	42.4392	0.0
1395.0	0.0	1.0	6.79483	7.9075	-1.21063	31.64582	30.74707	1.76786	0.56565	0.0	103.96656	0.0	0.49208	7.05337	7.05337	1.15432	1.15432	1609.48685	59150.266	42.3478	0.0
1390.0	0.0	1.0	6.79868	7.90303	-1.26653	31.60558	30.67007	1.76699	0.56593	0.0	104.16034	0.0	0.49208	7.12037	7.12037	1.14003	1.14003	1610.57987	58938.979	42.2574	0.0
1385.0	0.0	1.0	6.80252	7.89857	-1.32227	31.5655	30.59307	1.76611	0.56622	0.0	104.35412	0.0	0.49208	7.18842	7.18842	1.12584	1.12584	1611.66681	58728.143	42.1672	0.0
1383.28	0.0	1.0	6.80384	7.89703	-1.34143	31.55172	30.56656	1.76581	0.56631	0.0	104.42084	0.0	0.49208	7.21209	7.21209	1.12098	1.12098	1612.03959	58655.662	42.1085	0.0030
1380.0	0.0560301	0.94397	6.81536	7.8837	-1.508	31.15934	30.68059	1.75576	0.56955	5.88827E-4	102.79915	1.98418E-4	0.4838	7.22034	7.82422	1.11748	1.03124	1610.98206	58012.35	196.209	505.404
1378.62	0.0782403	0.92176	6.81998	7.87843	-1.57383	31.00569	30.72533	1.75174	0.57086	0.00224872	102.16419	7.59437E-4	0.48052	7.22392	8.21599	1.116	0.98124	1610.54244	57754.195	 	705.519
1375.0	0.21017	0.78983	6.84627	7.84822	-1.95121	30.02289	30.95879	1.73472	0.57646	0.023926	100.28507	0.00818133	0.46223	7.23556	25.44735	1.11176	0.31611	1606.42106	56091.337	384.203	2216.474
1370.0	0.35789	0.64211	6.87682	7.81335	-2.38684	28.89951	31.21547	1.71524	0.58301	0.3033	98.31646	0.10521	0.44147	7.25344	162.24473	1.10566	0.0494303	1601.0748	54187.744	380.719	3910.566
1365.0	0.47186	0.52814	6.90148	7.78567	-2.73265	28.02333	31.40619	1.69964	0.58836	1.18951	96.89343	0.41731	0.42523	7.27396	504.97164	1.09918	0.0158334	1596.06789	52671.991	303.151	5217.259
1360.0	0.56024	0.43976	6.92161	7.76326	-3.01265	27.32855	31.5441	1.68704	0.59275	2.83046	95.87673	1.00196	0.41247	7.29605	1059.17801	1.09251	0.00752565	1591.39027	51452.205	243.957	6228.423
1355.0	0.62932	0.37068	6.93818	7.74495	-3.24139	26.7755	31.64074	1.67674	0.5964	5.21654	95.16198	1.8599	0.40237	7.32027	1786.9348	1.08556	0.00444705	1587.01811	50457.261	198.989	7015.178
1350.26	0.68121	0.31879	6.95132	7.73051	-3.42183	26.35208	31.70135	1.66866	0.59928	8.0912	94.69543	2.90071	0.39469	7.345	2593.93054	1.07876	0.00305462	1583.12913	49673.367	 	7602.111
1350.0	0.6841	0.3159	6.95212	7.72965	-3.43255	26.32642	31.70483	1.66821	0.59944	8.28877	94.6694	2.97245	0.39426	7.34672	2646.27358	1.07833	0.00299372	1582.90676	49629.284	165.595	7635.399
1345.0	0.73375	0.26625	6.96624	7.71421	-3.62547	25.86885	31.75755	1.66031	0.6023	12.54542	94.25129	4.52303	0.38684	7.37711	3714.02623	1.07058	0.00212648	1578.91681	48853.913	155.074	8203.444
1340.0	0.7719	0.2281	6.97767	7.70173	-3.78143	25.51497	31.78369	1.65382	0.60466	17.27361	94.00987	6.25378	0.38105	7.40971	4825.20668	1.06258	0.00163172	1575.18973	48215.466	127.689	8634.993
1335.0	0.80083	0.19917	6.98681	7.69171	-3.9065	25.24832	31.78805	1.64847	0.60662	22.04433	93.90661	8.00681	0.3766	7.44448	5931.42231	1.05434	0.00132329	1571.70105	47690.078	105.078	8953.908
1330.0	0.82449	0.17551	6.99481	7.68299	-4.01546	25.0267	31.7797	1.64377	0.60836	26.89784	93.88765	9.79596	0.37291	7.48128	7073.56932	1.04589	0.00110617	1568.42977	47226.813	92.653	9211.121
1325.0	0.84408	0.15592	7.00192	7.67523	-4.11241	24.83858	31.7617	1.63958	0.60991	31.66525	93.9332	11.55835	0.3698	7.51965	8250.5979	1.03731	9.45407E-4	1565.3604	46811.566	83.0494	9420.737
1320.0	0.86045	0.13955	7.00834	7.66827	-4.19938	24.67842	31.73602	1.63577	0.61133	36.22192	94.02973	13.24713	0.36716	7.55988	9465.2757	1.02856	8.21505E-4	1562.46765	46433.926	75.528	9593.163
1315.0	0.87431	0.12569	7.01422	7.66191	-4.2789	24.53902	31.70413	1.63228	0.61264	40.49683	94.16582	14.83519	0.36489	7.60145	10722.56472	1.01972	7.22902E-4	1559.74096	46086.121	69.561	9736.171
1310.0	0.88612	0.11388	7.01964	7.65604	-4.35217	24.41708	31.6672	1.62903	0.61386	44.45102	94.33399	16.30727	0.36292	7.64486	12028.52986	1.01074	6.42386E-4	1557.16231	45762.261	64.772	9855.647
1305.0	0.89627	0.10373	7.02471	7.65058	-4.42034	24.30938	31.62622	1.62599	0.61501	48.08166	94.52761	17.6616	0.36119	7.68973	13390.76217	1.00167	5.75214E-4	1554.71696	45457.831	60.886	9956.102
1300.0	0.90508	0.094921	7.02948	7.64545	-4.48445	24.213	31.58185	1.62312	0.6161	51.39914	94.74213	18.90142	0.35966	7.73635	14816.88222	0.99248	5.18203E-4	1552.39548	45169.334	57.6994	10041.034
1295.0	0.91277	0.0872289	7.034	7.64061	-4.54495	24.12666	31.5347	1.62038	0.61714	54.42316	94.974	20.03353	0.3583	7.78447	16315.21609	0.98321	4.69117E-4	1550.18274	44894.024	55.062	10113.184
1290.0	0.91953	0.0804703	7.03833	7.63598	-4.60286	24.04748	31.48515	1.61775	0.61814	57.1839	95.2197	21.06878	0.35708	7.83381	17894.55825	0.9739	4.2635E-4	1548.07811	44629.73	52.8588	10174.722
1285.0	0.9255	0.0744955	7.04248	7.63154	-4.65822	23.97536	31.43363	1.61522	0.61911	59.7068	95.47729	22.01627	0.35597	7.88464	19564.26304	0.96453	3.88716E-4	1546.065	44374.718	51.0024	10227.381
1280.0	0.93082	0.0691836	7.04649	7.62727	-4.71156	23.90884	31.38042	1.61277	0.62005	62.01873	95.74483	22.88578	0.35496	7.93704	21334.20737	0.95508	3.55323E-4	1544.13918	44127.588	49.426	10272.556
1275.0	0.93556	0.0644367	7.05037	7.62314	-4.76319	23.84696	31.32574	1.61038	0.62097	64.14558	96.02045	23.68676	0.35404	7.99086	23214.68011	0.9456	3.2549E-4	1542.29533	43887.205	48.0766	10311.383
1270.0	0.93982	0.0601762	7.05414	7.61913	-4.81337	23.78907	31.26981	1.60805	0.62187	66.10885	96.30311	24.42707	0.35319	8.04593	25216.60983	0.93609	2.98681E-4	1540.52715	43652.637	46.9136	10344.787
1265.0	0.94367	0.0563329	7.05783	7.61521	-4.86223	23.73472	31.21279	1.60577	0.62275	67.92755	96.59177	25.11369	0.3524	8.10239	27351.86551	0.92656	2.74472E-4	1538.82869	43423.119	45.9036	10373.537
1260.0	0.94715	0.0528546	7.06143	7.61141	-4.90975	23.68411	31.15487	1.60353	0.62363	69.61966	96.88557	25.75322	0.35167	8.16073	29632.9984	0.91694	2.5252E-4	1537.18844	43198.013	45.0212	10398.267
1255.0	0.95031	0.0496932	7.06496	7.60767	-4.95644	23.63564	31.09608	1.60132	0.62448	71.19996	97.18364	26.35113	0.35098	8.2202	32073.37168	0.90734	2.32546E-4	1535.61445	42976.788	44.245	10419.503
1250.0	0.95319	0.046811	7.06843	7.60401	-5.00221	23.58966	31.03659	1.59914	0.62534	72.6817	97.48548	26.91231	0.35034	8.28128	34687.49541	0.8977	2.14317E-4	1534.09585	42758.999	43.5578	10437.691
1245.0	0.95583	0.0441741	7.07184	7.6004	-5.04728	23.54548	30.97642	1.59699	0.62618	74.07597	97.79046	27.44087	0.34974	8.34345	37491.15617	0.88809	1.97639E-4	1532.63464	42544.275	42.9448	10453.199
1240.0	0.95825	0.041755	7.07521	7.59686	-5.09154	23.50345	30.9157	1.59485	0.62702	75.39256	98.09825	27.94041	0.34917	8.40758	40501.16732	0.87841	1.82348E-4	1531.22015	42332.263	42.4024	10466.416
1235.0	0.96047	0.039528	7.07853	7.59337	-5.13519	23.46303	30.85448	1.59274	0.62785	76.63999	98.40843	28.41411	0.34863	8.47286	43735.78816	0.86876	1.68304E-4	1529.85407	42122.683	41.916	10477.641
1230.0	0.96253	0.0374747	7.08181	7.58992	-5.17821	23.42426	30.7928	1.59064	0.62868	77.82498	98.72075	28.86446	0.34811	8.54015	47215.14489	0.85906	1.55385E-4	1528.53063	41915.299	41.4768	10487.105
1225.0	0.96442	0.0355755	7.08506	7.58651	-5.22081	23.3865	30.7307	1.58855	0.62951	78.95521	99.03472	29.29433	0.34762	8.60869	50960.61417	0.84939	1.43485E-4	1527.25546	41709.909	41.078	10495.009
1220.0	0.96618	0.0338152	7.08828	7.58314	-5.26296	23.34984	30.66823	1.58647	0.63033	80.03576	99.35014	29.70561	0.34715	8.67887	54995.66757	0.83971	1.32514E-4	1526.02391	41506.337	40.7144	10501.526
1215.0	0.96782	0.0321804	7.09147	7.5798	-5.30464	23.31441	30.60542	1.5844	0.63115	81.07106	99.66688	30.09994	0.3467	8.75067	59345.83791	0.83003	1.22389E-4	1524.83051	41304.433	40.3808	10506.804
1210.0	0.96934	0.0306598	7.09463	7.5765	-5.34589	23.28005	30.54233	1.58234	0.63197	82.06554	99.98487	30.47896	0.34627	8.82421	64039.58	0.82034	1.13038E-4	1523.67246	41104.065	40.0736	10510.973
1206.1	0.97045	0.0295452	7.09708	7.57394	-5.3779	23.25366	30.49286	1.58074	0.63262	82.81591	100.23376	30.76512	0.34594	8.88258	67961.98597	0.81281	1.06233E-4	1522.79595	40948.614	 	10513.519
1205.0	0.9713	0.0286986	7.09797	7.57299	-5.3898	23.2368	30.47953	1.58026	0.63281	83.26397	100.30703	30.93618	0.34574	8.91827	69277.54224	0.80896	1.04139E-4	1521.97012	40894.454	41.9222	10524.81
1200.0	0.97476	0.0252394	7.10194	7.56872	-5.44308	23.16279	30.41805	1.5781	0.63368	85.14408	100.64079	31.65452	0.3449	9.0834	75503.02012	0.79156	9.5229E-5	1518.45473	40653.583	48.1742	10570.33
1197.01	0.97653	0.0234692	7.10425	7.56625	-5.4739	23.12168	30.38094	1.57681	0.63419	86.14684	100.84069	32.03798	0.34445	9.18397	79406.88301	0.7813	9.03633E-5	1516.45084	40514.029	 	10593.116
1195.0	0.97761	0.0223869	7.10577	7.56462	-5.49426	23.09497	30.35594	1.57596	0.63453	86.77666	100.97452	32.27896	0.34417	9.2521	82104.89339	0.77449	8.72746E-5	1515.15471	40422.158	46.285	10606.824
1190.0	0.98002	0.0199773	7.10948	7.56065	-5.54386	23.03175	30.29335	1.57384	0.63539	88.22825	101.30778	32.8347	0.34352	9.42397	89151.79365	0.75778	8.01024E-5	1512.11296	40197.748	44.882	10636.72
1185.0	0.98207	0.0179296	7.11311	7.55678	-5.59219	22.97214	30.23029	1.57173	0.63624	89.5326	101.64081	33.33449	0.34294	9.59924	96694.18865	0.7414	7.36018E-5	1509.28192	39979.093	43.731	10661.278
1180.0	0.98383	0.0161726	7.11665	7.553	-5.63944	22.91561	30.16683	1.56963	0.63709	90.71887	101.97356	33.78936	0.34242	9.77731	104790.9734	0.7254	6.7682E-5	1506.64148	39765.083	42.802	10681.606
1175.0	0.98535	0.0146497	7.12013	7.5493	-5.68573	22.86175	30.10304	1.56755	0.63794	91.80917	102.30606	34.20771	0.34194	9.95929	113503.0944	0.7097	6.2272E-5	1504.17037	39554.881	42.0404	10698.537
1170.0	0.98668	0.0133196	7.12356	7.54565	-5.73125	22.81001	30.03897	1.56547	0.63879	92.82182	102.63821	34.59648	0.34149	10.14431	122897.5285	0.69435	5.73132E-5	1501.8575	39347.845	41.4072	10712.712
1165.0	0.98785	0.0121495	7.12693	7.54207	-5.77606	22.76019	29.97466	1.56339	0.63964	93.76927	102.97001	34.96043	0.34108	10.33325	133042.7226	0.67929	5.27594E-5	1499.68627	39143.475	40.874	10724.629
1160.0	0.98889	0.0111126	7.13027	7.53853	-5.82027	22.71191	29.91013	1.56132	0.64049	94.66254	103.30141	35.30374	0.34069	10.52563	144014.9726	0.66455	4.85703E-5	1497.65051	38941.377	40.4196	10734.68
1155.0	0.98981	0.0101881	7.13357	7.53503	-5.86394	22.66504	29.84543	1.55924	0.64134	95.50987	103.63238	35.62955	0.34032	10.72147	155895.7098	0.65014	4.47122E-5	1495.73637	38741.239	40.0276	10743.175
1150.0	0.99064	0.00935854	7.13684	7.53158	-5.90711	22.61945	29.78057	1.55717	0.64219	96.31802	103.96288	35.94043	0.33997	10.92112	168774.6765	0.63602	4.11557E-5	1493.93509	38542.808	39.6862	10750.364
1145.0	0.99139	0.0086116	7.14008	7.52816	-5.94987	22.57488	29.71558	1.55509	0.64305	97.09308	104.29293	36.23871	0.33963	11.12472	182749.3525	0.62219	3.7875E-5	1492.23791	38345.878	39.386	10756.452
1140.0	0.99206	0.00793589	7.14329	7.52477	-5.99221	22.53129	29.65047	1.55301	0.64391	97.83892	104.62249	36.52586	0.33931	11.33224	197925.6369	0.60864	3.48476E-5	1490.63893	38150.283	39.119	10761.604
1135.0	0.99268	0.00732111	7.14647	7.52141	-6.03414	22.48877	29.58525	1.55093	0.64478	98.559	104.95151	36.8032	0.339	11.54385	214421.6721	0.59537	3.20529E-5	1489.12613	37955.881	38.8804	10765.958
1130.0	0.99324	0.00676002	7.14964	7.51808	-6.07576	22.44691	29.51993	1.54884	0.64564	99.25769	105.27995	37.07241	0.3387	11.75891	232367.8341	0.5824	2.94724E-5	1487.7031	37762.557	38.6648	10769.629
1125.0	0.99375	0.00624644	7.15278	7.51477	-6.11705	22.40582	29.45453	1.54675	0.64652	99.93714	105.60784	37.33431	0.33841	11.97859	251905.1773	0.56968	2.70896E-5	1486.35413	37570.213	38.4688	10772.712
1120.0	0.99423	0.00577417	7.1559	7.51149	-6.15801	22.3655	29.38904	1.54465	0.6474	100.59886	105.93514	37.58946	0.33813	12.20276	273189.424	0.55722	2.48898E-5	1485.07838	37378.765	38.2896	10775.289
1115.0	0.99466	0.00533909	7.15901	7.50824	-6.19869	22.32576	29.32348	1.54255	0.64828	101.24541	106.26185	37.83885	0.33785	12.43081	296394.1261	0.54503	2.28588E-5	1483.87402	37188.145	38.124	10777.428
1110.0	0.99506	0.00493602	7.16209	7.505	-6.23913	22.28653	29.25787	1.54044	0.64917	101.87886	106.58796	38.08327	0.33758	12.66395	321710.8485	0.53307	2.09841E-5	1482.73285	36998.29	37.971	10779.187
1105.0	0.99544	0.00456292	7.16516	7.50179	-6.27927	22.24799	29.19218	1.53832	0.65006	102.49928	106.91343	38.32275	0.33732	12.90177	349348.6838	0.52136	1.92541E-5	1481.65031	36809.149	37.8282	10780.617
1100.0	0.99578	0.00421564	7.16822	7.49859	-6.31921	22.2098	29.12644	1.5362	0.65096	103.10954	107.23825	38.55839	0.33706	13.14366	379544.9991	0.5099	1.7658E-5	1480.63005	36620.678	37.6942	10781.762
1097.17	0.99597	0.00402959	7.16995	7.49679	-6.34173	22.18845	29.08914	1.535	0.65147	103.45052	107.42214	38.69009	0.33691	13.28288	397896.9931	0.50352	1.68088E-5	1480.07192	36514.1	 	10782.297
1095.0	0.99733	0.00266514	7.17187	7.49474	-6.36737	22.14195	29.06961	1.5336	0.65206	104.38501	107.55928	39.05055	0.33654	13.34606	414897.209	0.50034	1.60946E-5	1478.06495	36413.86	41.3636	10801.635
1090.0	1.0	0.0	7.17605	7.49027	-6.42311	22.04635	29.02256	1.53047	0.65339	106.30026	107.87848	39.78983	0.33577	 	456176.2997	 	1.45847E-5	 	36190.245	44.723	10838.683
1085.0	1.0	0.0	7.17866	7.48755	-6.45713	22.02795	28.95532	1.5284	0.65428	106.7396	108.2018	39.95985	0.33559	 	495718.6077	 	1.33721E-5	 	36034.834	31.0822	 
1080.0	1.0	0.0	7.18126	7.48483	-6.49111	22.00956	28.88808	1.52632	0.65517	107.17892	108.52438	40.1299	0.3354	 	539025.0851	 	1.22525E-5	 	35852.307	36.5054	 
1075.0	1.0	0.0	7.18387	7.48212	-6.52503	21.9912	28.82084	1.52423	0.65607	107.6182	108.84619	40.29999	0.33521	 	586485.1376	 	1.12194E-5	 	35670.065	36.4484	 
1070.0	1.0	0.0	7.18647	7.47941	-6.55889	21.97285	28.7536	1.52212	0.65698	108.05745	109.16724	40.47012	0.33503	 	638531.5993	 	1.02667E-5	 	35488.107	36.3916	 
1065.0	1.0	0.0	7.18907	7.4767	-6.5927	21.95452	28.68636	1.52001	0.65789	108.49666	109.48753	40.64027	0.33484	 	695645.9221	 	9.38865E-6	 	35306.43	36.3354	 
1060.0	1.0	0.0	7.19167	7.474	-6.62646	21.93622	28.61911	1.51789	0.65881	108.93582	109.80704	40.81046	0.33466	 	758364.0233	 	8.58001E-6	 	35125.032	36.2796	 
1055.0	1.0	0.0	7.19427	7.4713	-6.66017	21.91793	28.55187	1.51576	0.65974	109.37492	110.12578	40.98067	0.33447	 	827282.8855	 	7.83574E-6	 	34943.909	36.2246	 
1050.0	1.0	0.0	7.19687	7.46861	-6.69382	21.89966	28.48462	1.51362	0.66067	109.81395	110.44374	41.1509	0.33428	 	903068.006	 	7.15114E-6	 	34763.061	36.1696	 
1045.0	1.0	0.0	7.19946	7.46592	-6.72742	21.8814	28.41737	1.51147	0.66161	110.25291	110.76092	41.32115	0.3341	 	986461.8159	 	6.52186E-6	 	34582.486	36.115	 
1040.0	1.0	0.0	7.20205	7.46323	-6.76096	21.86317	28.35011	1.50931	0.66256	110.6918	111.0773	41.49142	0.33391	 	1078293.201	 	5.9438E-6	 	34402.185	36.0602	 
1035.0	1.0	0.0	7.20464	7.46055	-6.79446	21.84496	28.28286	1.50713	0.66351	111.1306	111.3929	41.66171	0.33373	 	1179488.276	 	5.41316E-6	 	34222.157	36.0056	 
1030.0	1.0	0.0	7.20722	7.45787	-6.8279	21.82677	28.21561	1.50495	0.66447	111.56931	111.7077	41.83201	0.33354	 	1291082.591	 	4.92637E-6	 	34042.402	35.951	 
1025.0	1.0	0.0	7.20981	7.4552	-6.86128	21.80859	28.14835	1.50276	0.66544	112.00792	112.0217	42.00233	0.33335	 	1414234.97	 	4.48012E-6	 	33862.92	35.8964	 
1020.0	1.0	0.0	7.21239	7.45253	-6.89462	21.79044	28.08109	1.50056	0.66642	112.44643	112.33489	42.17265	0.33317	 	1550243.208	 	4.07132E-6	 	33683.71	35.842	 
1015.0	1.0	0.0	7.21497	7.44987	-6.9279	21.7723	28.01383	1.49834	0.6674	112.88483	112.64728	42.34297	0.33298	 	1700561.899	 	3.6971E-6	 	33504.772	35.7876	 
1010.0	1.0	0.0	7.21754	7.44721	-6.96113	21.75419	27.94656	1.49612	0.6684	113.3231	112.95885	42.5133	0.3328	 	1866822.703	 	3.35476E-6	 	33326.105	35.7334	 
1005.0	1.0	0.0	7.22012	7.44455	-6.99431	21.73609	27.8793	1.49389	0.66939	113.76126	113.26961	42.68363	0.33261	 	2050857.391	 	3.04182E-6	 	33147.708	35.6794	 
1000.0	1.0	0.0	7.22269	7.4419	-7.02743	21.71801	27.81203	1.49164	0.6704	114.19928	113.57955	42.85396	0.33242	 	2254724.092	 	2.75596E-6	 	32969.58	35.6256	 
995.0	1.0	0.0	7.22526	7.43926	-7.0605	21.69995	27.74476	1.48939	0.67142	114.63716	113.88866	43.02428	0.33224	 	2480737.197	 	2.49503E-6	 	32791.721	35.5718	 
990.0	1.0	0.0	7.22783	7.43661	-7.09352	21.68191	27.67749	1.48712	0.67244	115.0749	114.19695	43.1946	0.33205	 	2731501.466	 	2.25704E-6	 	32614.129	35.5184	 
985.0	1.0	0.0	7.23039	7.43397	-7.12649	21.66389	27.61022	1.48484	0.67347	115.51249	114.5044	43.36491	0.33187	 	3009950.969	 	2.04014E-6	 	32436.805	35.4648	 
980.0	1.0	0.0	7.23296	7.43134	-7.15941	21.64589	27.54295	1.48255	0.67451	115.94992	114.81102	43.5352	0.33168	 	3319393.576	 	1.8426E-6	 	32259.746	35.4118	 
975.0	1.0	0.0	7.23552	7.42871	-7.19227	21.62791	27.47567	1.48025	0.67556	116.38718	115.1168	43.70548	0.33149	 	3663561.848	 	1.66284E-6	 	32082.952	35.3588	 
970.0	1.0	0.0	7.23808	7.42608	-7.22509	21.60994	27.40839	1.47794	0.67662	116.82428	115.42174	43.87575	0.33131	 	4046671.287	 	1.49938E-6	 	31906.424	35.3056	 
965.0	1.0	0.0	7.24063	7.42346	-7.25785	21.592	27.34111	1.47562	0.67768	117.26119	115.72583	44.04599	0.33112	 	4473487.087	 	1.35087E-6	 	31730.158	35.2532	 
960.0	1.0	0.0	7.24319	7.42084	-7.29055	21.57408	27.27383	1.47329	0.67875	117.69792	116.02906	44.21622	0.33094	 	4949400.694	 	1.21605E-6	 	31554.156	35.2004	 
955.0	1.0	0.0	7.24574	7.41823	-7.32321	21.55617	27.20654	1.47094	0.67984	118.13446	116.33145	44.38642	0.33075	 	5480517.701	 	1.09375E-6	 	31378.415	35.1482	 
950.0	1.0	0.0	7.24829	7.41562	-7.35582	21.53828	27.13926	1.46859	0.68093	118.5708	116.63298	44.55659	0.33056	 	6073758.859	 	9.82899E-7	 	31202.935	35.096	 
945.0	1.0	0.0	7.25084	7.41301	-7.38837	21.52042	27.07197	1.46622	0.68203	119.00694	116.93364	44.72673	0.33038	 	6736976.266	 	8.82516E-7	 	31027.716	35.0438	 
940.0	1.0	0.0	7.25338	7.41041	-7.42087	21.50257	27.00468	1.46384	0.68314	119.44287	117.23345	44.89684	0.33019	 	7479087.166	 	7.91685E-7	 	30852.755	34.9922	 
935.0	1.0	0.0	7.25593	7.40781	-7.45332	21.48474	26.93739	1.46145	0.68425	119.87858	117.53238	45.06692	0.33001	 	8310228.17	 	7.09569E-7	 	30678.053	34.9404	 
930.0	1.0	0.0	7.25847	7.40522	-7.48572	21.46693	26.87009	1.45904	0.68538	120.31407	117.83044	45.23697	0.32982	 	9241933.191	 	6.35395E-7	 	30503.609	34.8888	 
925.0	1.0	0.0	7.26101	7.40263	-7.51807	21.44914	26.8028	1.45663	0.68652	120.74933	118.12763	45.40697	0.32963	 	1.028733899E7	 	5.68453E-7	 	30329.421	34.8376	 
920.0	1.0	0.0	7.26354	7.40004	-7.55037	21.43137	26.7355	1.4542	0.68766	121.18436	118.42394	45.57693	0.32945	 	1.14614228E7	 	5.08093E-7	 	30155.489	34.7864	 
915.0	1.0	0.0	7.26608	7.39746	-7.58262	21.41362	26.6682	1.45176	0.68882	121.61914	118.71937	45.74685	0.32926	 	1.278127742E7	 	4.53716E-7	 	29981.811	34.7356	 
910.0	1.0	0.0	7.26861	7.39489	-7.61481	21.39589	26.60089	1.44931	0.68998	122.05368	119.01392	45.91673	0.32908	 	1.426642993E7	 	4.04773E-7	 	29808.387	34.6848	 
905.0	1.0	0.0	7.27114	7.39231	-7.64696	21.37817	26.53359	1.44685	0.69116	122.48796	119.30758	46.08655	0.32889	 	1.59392114E7	 	3.60762E-7	 	29635.215	34.6344	 
900.0	1.0	0.0	7.27367	7.38974	-7.67905	21.36048	26.46628	1.44437	0.69234	122.92198	119.60035	46.25633	0.3287	 	1.782518627E7	 	3.21223E-7	 	29462.295	34.584	 
895.0	1.0	0.0	7.27619	7.38718	-7.71109	21.3428	26.39897	1.44188	0.69354	123.35574	119.89222	46.42605	0.32852	 	1.995365145E7	 	2.85735E-7	 	29289.626	34.5338	 
890.0	1.0	0.0	7.27872	7.38462	-7.74308	21.32515	26.33166	1.43938	0.69474	123.78922	120.1832	46.59572	0.32833	 	2.235821725E7	 	2.53913E-7	 	29117.207	34.4838	 
885.0	1.0	0.0	7.28124	7.38206	-7.77502	21.30751	26.26434	1.43687	0.69596	124.22242	120.47328	46.76533	0.32815	 	2.507748431E7	 	2.25407E-7	 	28945.036	34.4342	 
880.0	1.0	0.0	7.28376	7.37951	-7.80691	21.28989	26.19703	1.43434	0.69719	124.65534	120.76246	46.93488	0.32796	 	2.815583321E7	 	1.99896E-7	 	28773.113	34.3846	 
875.0	1.0	0.0	7.28627	7.37696	-7.83876	21.27229	26.12971	1.4318	0.69842	125.08797	121.05073	47.10437	0.32777	 	3.164434668E7	 	1.77088E-7	 	28601.436	34.3354	 
870.0	1.0	0.0	7.28879	7.37442	-7.87054	21.25471	26.06239	1.42925	0.69967	125.52031	121.33809	47.27379	0.32759	 	3.560188799E7	 	1.56717E-7	 	28430.004	34.2864	 
865.0	1.0	0.0	7.2913	7.37188	-7.90228	21.23715	25.99507	1.42668	0.70093	125.95234	121.62455	47.44315	0.3274	 	4.009636335E7	 	1.38542E-7	 	28258.817	34.2374	 
860.0	1.0	0.0	7.29381	7.36934	-7.93397	21.21961	25.92774	1.4241	0.7022	126.38406	121.91008	47.61244	0.32722	 	4.52062016E7	 	1.22342E-7	 	28087.872	34.189	 
855.0	1.0	0.0	7.29632	7.36681	-7.96561	21.20209	25.86041	1.42151	0.70348	126.81547	122.19471	47.78166	0.32703	 	5.10220908E7	 	1.07918E-7	 	27917.17	34.1404	 
850.0	1.0	0.0	7.29882	7.36428	-7.9972	21.18459	25.79308	1.4189	0.70477	127.24655	122.47841	47.9508	0.32684	 	5.764901865E7	 	9.50895E-8	 	27746.708	34.0924	 
845.0	1.0	0.0	7.30132	7.36175	-8.02874	21.16711	25.72575	1.41628	0.70607	127.67731	122.76119	48.11987	0.32666	 	6.520867315E7	 	8.36915E-8	 	27576.486	34.0444	 
840.0	1.0	0.0	7.30383	7.35923	-8.06023	21.14964	25.65842	1.41365	0.70739	128.10774	123.04305	48.28886	0.32647	 	7.38422705E7	 	7.35759E-8	 	27406.502	33.9968	 
835.0	1.0	0.0	7.30632	7.35672	-8.09167	21.1322	25.59108	1.411	0.70872	128.53783	123.32398	48.45777	0.32629	 	8.371389078E7	 	6.46082E-8	 	27236.755	33.9494	 
830.0	1.0	0.0	7.30882	7.3542	-8.12306	21.11477	25.52374	1.40834	0.71006	128.96758	123.60398	48.6266	0.3261	 	9.501441762E7	 	5.66672E-8	 	27067.244	33.9022	 
825.0	1.0	0.0	7.31131	7.3517	-8.1544	21.09737	25.4564	1.40567	0.71141	129.39698	123.88304	48.79535	0.32592	 	1.079661973E8	 	4.96433E-8	 	26897.967	33.8554	 
820.0	1.0	0.0	7.31381	7.34919	-8.18569	21.07998	25.38905	1.40298	0.71277	129.82602	124.16117	48.96401	0.32573	 	1.228285565E8	 	4.34377E-8	 	26728.923	33.8088	 
815.0	1.0	0.0	7.31629	7.34669	-8.21693	21.06261	25.32171	1.40028	0.71415	130.2547	124.43837	49.13257	0.32554	 	1.399043449E8	 	3.79616E-8	 	26560.111	33.7624	 
810.0	1.0	0.0	7.31878	7.34419	-8.24812	21.04526	25.25436	1.39756	0.71553	130.68302	124.71462	49.30105	0.32536	 	1.595477052E8	 	3.31348E-8	 	26391.53	33.7162	 
805.0	1.0	0.0	7.32127	7.3417	-8.27926	21.02793	25.18701	1.39483	0.71693	131.11096	124.98993	49.46944	0.32517	 	1.821733119E8	 	2.88856E-8	 	26223.177	33.6706	 
800.0	1.0	0.0	7.32375	7.33921	-8.31035	21.01062	25.11965	1.39208	0.71835	131.53852	125.2643	49.63773	0.32499	 	2.082673735E8	 	2.51493E-8	 	26055.051	33.6252	 
795.0	1.0	0.0	7.32623	7.33673	-8.34139	20.99333	25.0523	1.38932	0.71978	131.9657	125.53772	49.80592	0.3248	 	2.384007528E8	 	2.18681E-8	 	25887.151	33.58	 
790.0	1.0	0.0	7.32871	7.33425	-8.37239	20.97606	24.98494	1.38655	0.72122	132.39249	125.81019	49.97401	0.32461	 	2.732446358E8	 	1.89902E-8	 	25719.476	33.535	 
785.0	1.0	0.0	7.33118	7.33177	-8.40333	20.95881	24.91758	1.38375	0.72267	132.81889	126.08171	50.142	0.32443	 	3.135892721E8	 	1.64692E-8	 	25552.023	33.4906	 
780.0	1.0	0.0	7.33366	7.3293	-8.43423	20.94157	24.85021	1.38095	0.72414	133.24488	126.35228	50.30989	0.32424	 	3.603664221E8	 	1.42637E-8	 	25384.792	33.4462	 
775.0	1.0	0.0	7.33613	7.32683	-8.46507	20.92436	24.78285	1.37813	0.72562	133.67047	126.62189	50.47767	0.32406	 	4.146762852E8	 	1.23368E-8	 	25217.779	33.4026	 
770.0	1.0	0.0	7.3386	7.32436	-8.49587	20.90716	24.71548	1.37529	0.72712	134.09565	126.89054	50.64534	0.32387	 	4.778198519E8	 	1.06554E-8	 	25050.985	33.3588	 
765.0	1.0	0.0	7.34106	7.3219	-8.52662	20.88999	24.64811	1.37244	0.72863	134.52041	127.15823	50.8129	0.32368	 	5.513378346E8	 	9.19029E-9	 	24884.406	33.3158	 
760.0	1.0	0.0	7.34353	7.31944	-8.55732	20.87283	24.58074	1.36958	0.73015	134.94475	127.42495	50.98035	0.3235	 	6.370575871E8	 	7.91537E-9	 	24718.042	33.2728	 
755.0	1.0	0.0	7.34599	7.31699	-8.58797	20.85569	24.51336	1.36669	0.73169	135.36866	127.69071	51.14768	0.32331	 	7.371497424E8	 	6.8075E-9	 	24551.889	33.2306	 
750.0	1.0	0.0	7.34845	7.31454	-8.61857	20.83857	24.44598	1.3638	0.73325	135.79213	127.95551	51.3149	0.32313	 	8.541966934E8	 	5.84613E-9	 	24385.947	33.1884	 
745.0	1.0	0.0	7.35091	7.3121	-8.64913	20.82147	24.3786	1.36088	0.73482	136.21517	128.21933	51.48199	0.32294	 	9.912755281E8	 	5.01307E-9	 	24220.213	33.1468	 
740.0	1.0	0.0	7.35337	7.30965	-8.67963	20.80439	24.31122	1.35795	0.7364	136.63776	128.48219	51.64897	0.32275	 	1.152058637E9	 	4.29226E-9	 	24054.685	33.1056	 
735.0	1.0	0.0	7.35582	7.30722	-8.71009	20.78733	24.24383	1.35501	0.738	137.0599	128.74407	51.81582	0.32257	 	1.340935964E9	 	3.66947E-9	 	23889.362	33.0646	 
730.0	1.0	0.0	7.35827	7.30478	-8.7405	20.77029	24.17644	1.35205	0.73962	137.48159	129.00497	51.98255	0.32238	 	1.563163815E9	 	3.13219E-9	 	23724.24	33.0244	 
725.0	1.0	0.0	7.36072	7.30235	-8.77086	20.75327	24.10905	1.34907	0.74125	137.90281	129.2649	52.14915	0.3222	 	1.825046299E9	 	2.66937E-9	 	23559.318	32.9844	 
720.0	1.0	0.0	7.36317	7.29992	-8.80117	20.73627	24.04166	1.34607	0.7429	138.32357	129.52385	52.31562	0.32201	 	2.134156959E9	 	2.2713E-9	 	23394.593	32.945	 
715.0	1.0	0.0	7.36561	7.2975	-8.83144	20.71928	23.97426	1.34306	0.74457	138.74386	129.78182	52.48196	0.32182	 	2.499609968E9	 	1.92947E-9	 	23230.063	32.906	 
710.0	1.0	0.0	7.36805	7.29508	-8.86166	20.70232	23.90686	1.34003	0.74625	139.16367	130.0388	52.64817	0.32164	 	2.932392578E9	 	1.63638E-9	 	23065.725	32.8676	 
705.0	1.0	0.0	7.37049	7.29267	-8.89182	20.68537	23.83946	1.33699	0.74795	139.58299	130.2948	52.81424	0.32145	 	3.445773414E9	 	1.3855E-9	 	22901.577	32.8296	 
700.0	1.0	0.0	7.37293	7.29026	-8.92195	20.66844	23.77206	1.33392	0.74967	140.00183	130.54981	52.98017	0.32127	 	4.055804839E9	 	1.17109E-9	 	22737.615	32.7924	 
695.0	1.0	0.0	7.37536	7.28785	-8.95202	20.65154	23.70465	1.33084	0.7514	140.42018	130.80383	53.14596	0.32108	 	4.781942231E9	 	9.88155E-10	 	22573.838	32.7554	 
690.0	1.0	0.0	7.3778	7.28545	-8.98204	20.63465	23.63724	1.32775	0.75316	140.83803	131.05686	53.31161	0.32089	 	5.647808872E9	 	8.3234E-10	 	22410.242	32.7192	 
685.0	1.0	0.0	7.38023	7.28305	-9.01202	20.61778	23.56983	1.32463	0.75493	141.25537	131.3089	53.47712	0.32071	 	6.682142481E9	 	6.99849E-10	 	22246.824	32.6836	 
680.0	1.0	0.0	7.38266	7.28065	-9.04195	20.60093	23.50241	1.3215	0.75672	141.67221	131.55995	53.64248	0.32052	 	7.919968891E9	 	5.87387E-10	 	22083.581	32.6486	 
675.0	1.0	0.0	7.38508	7.27826	-9.07183	20.5841	23.43499	1.31835	0.75853	142.08853	131.81	53.80769	0.32034	 	9.404060256E9	 	4.92094E-10	 	21920.51	32.6142	 
670.0	1.0	0.0	7.38751	7.27587	-9.10167	20.56729	23.36757	1.31518	0.76035	142.50434	132.05905	53.97275	0.32015	 	1.11868E10	 	4.11494E-10	 	21757.606	32.5808	 
665.0	1.0	0.0	7.38993	7.27349	-9.13146	20.5505	23.30014	1.31199	0.7622	142.91962	132.30711	54.13766	0.31996	 	1.3332199999999998E10	 	3.43445E-10	 	21594.867	32.5478	 
660.0	1.0	0.0	7.39235	7.27111	-9.1612	20.53372	23.23272	1.30879	0.76407	143.33437	132.55416	54.30242	0.31978	 	1.5919199999999998E10	 	2.86099E-10	 	21432.288	32.5158	 
655.0	1.0	0.0	7.39477	7.26873	-9.19089	20.51697	23.16528	1.30556	0.76595	143.74858	132.80021	54.46702	0.31959	 	1.90449E10	 	2.37863E-10	 	21269.865	32.4846	 
650.0	1.0	0.0	7.39718	7.26636	-9.22054	20.50023	23.09785	1.30232	0.76786	144.16226	133.04525	54.63146	0.31941	 	2.28288E10	 	1.97368E-10	 	21107.595	32.454	 
645.0	1.0	0.0	7.39959	7.26399	-9.25014	20.48352	23.03041	1.29906	0.76979	144.57539	133.28929	54.79574	0.31922	 	2.7418899999999996E10	 	1.63437E-10	 	20945.472	32.4246	 
640.0	1.0	0.0	7.402	7.26162	-9.27969	20.46682	22.96297	1.29578	0.77173	144.98797	133.53232	54.95986	0.31904	 	3.2998599999999996E10	 	1.35062E-10	 	20783.493	32.3958	 
635.0	1.0	0.0	7.40441	7.25926	-9.3092	20.45014	22.89552	1.29248	0.7737	145.4	133.77434	55.12382	0.31885	 	3.97953E10	 	1.11381E-10	 	20621.651	32.3684	 
630.0	1.0	0.0	7.40682	7.2569	-9.33866	20.43349	22.82807	1.28916	0.7757	145.81146	134.01535	55.28761	0.31866	 	4.809209999999999E10	 	9.16585E-11	 	20459.942	32.3418	 
625.0	1.0	0.0	7.40922	7.25455	-9.36807	20.41685	22.76062	1.28583	0.77771	146.22237	134.25535	55.45123	0.31848	 	5.824219999999999E10	 	7.52658E-11	 	20298.36	32.3164	 
620.0	1.0	0.0	7.41162	7.2522	-9.39743	20.40023	22.69316	1.28247	0.77975	146.6327	134.49434	55.61468	0.31829	 	7.06868E10	 	6.16698E-11	 	20136.9	32.292	 
615.0	1.0	0.0	7.41402	7.24985	-9.42675	20.38363	22.6257	1.27909	0.7818	147.04245	134.73231	55.77796	0.31811	 	8.59788E10	 	5.04175E-11	 	19975.555	32.269	 
610.0	1.0	0.0	7.41642	7.24751	-9.45603	20.36705	22.55823	1.2757	0.78389	147.45163	134.96926	55.94106	0.31792	 	1.04813E11	 	4.11252E-11	 	19814.318	32.2474	 
605.0	1.0	0.0	7.41881	7.24517	-9.48525	20.35049	22.49076	1.27228	0.78599	147.86022	135.2052	56.10399	0.31773	 	1.28062E11	 	3.34684E-11	 	19653.182	32.2272	 
600.0	1.0	0.0	7.42121	7.24283	-9.51443	20.33394	22.42329	1.26884	0.78812	148.26822	135.44011	56.26674	0.31755	 	1.5683E11	 	2.71735E-11	 	19492.141	32.2082	 
595.0	1.0	0.0	7.4236	7.2405	-9.54357	20.31742	22.35581	1.26538	0.79027	148.67562	135.67401	56.42931	0.31736	 	1.92512E11	 	2.20102E-11	 	19331.185	32.1912	 
590.0	1.0	0.0	7.42598	7.23817	-9.57265	20.30091	22.28833	1.2619	0.79245	149.08243	135.90688	56.5917	0.31718	 	2.36878E11	 	1.77848E-11	 	19170.306	32.1758	 
585.0	1.0	0.0	7.42837	7.23585	-9.6017	20.28443	22.22084	1.2584	0.79466	149.48863	136.13873	56.7539	0.31699	 	2.92176E11	 	1.43353E-11	 	19009.495	32.1622	 
580.0	1.0	0.0	7.43075	7.23353	-9.63069	20.26796	22.15335	1.25488	0.79689	149.89422	136.36955	56.91592	0.3168	 	3.61276E11	 	1.15259E-11	 	18848.741	32.1508	 
575.0	1.0	0.0	7.43313	7.23121	-9.65964	20.25152	22.08586	1.25134	0.79914	150.29919	136.59935	57.07775	0.31662	 	4.47842E11	 	9.24345E-12	 	18688.034	32.1414	 
570.0	1.0	0.0	7.43551	7.2289	-9.68854	20.23509	22.01836	1.24778	0.80142	150.70355	136.82812	57.2394	0.31643	 	5.56575E11	 	7.3938E-12	 	18527.362	32.1344	 
565.0	1.0	0.0	7.43789	7.22659	-9.7174	20.21868	21.95085	1.24419	0.80373	151.10728	137.05586	57.40085	0.31625	 	6.93512E11	 	5.89868E-12	 	18366.712	32.13	 
560.0	1.0	0.0	7.44026	7.22428	-9.74621	20.20229	21.88335	1.24059	0.80607	151.51038	137.28257	57.5621	0.31606	 	8.66435E11	 	4.69325E-12	 	18206.07	32.1284	 
555.0	1.0	0.0	7.44264	7.22198	-9.77498	20.18592	21.81583	1.23696	0.80843	151.91285	137.50824	57.72316	0.31587	 	1.0854E12	 	3.72396E-12	 	18045.42	32.13	 
550.0	1.0	0.0	7.44501	7.21968	-9.8037	20.16957	21.74831	1.23331	0.81083	152.31468	137.73289	57.88403	0.31569	 	1.36345E12	 	2.94663E-12	 	17884.747	32.1346	 
545.0	1.0	0.0	7.44737	7.21738	-9.83238	20.15324	21.68079	1.22963	0.81325	152.71586	137.9565	58.04469	0.3155	 	1.71754E12	 	2.32495E-12	 	17724.031	32.1432	 
540.0	1.0	0.0	7.44974	7.21509	-9.86101	20.13693	21.61327	1.22594	0.8157	153.1164	138.17908	58.20516	0.31532	 	2.16975E12	 	1.82914E-12	 	17563.253	32.1556	 
535.0	1.0	0.0	7.4521	7.2128	-9.88959	20.12063	21.54574	1.22222	0.81819	153.51628	138.40062	58.36542	0.31513	 	2.749E12	 	1.43484E-12	 	17402.39	32.1726	 
530.0	1.0	0.0	7.45446	7.21052	-9.91813	20.10436	21.4782	1.21847	0.8207	153.91551	138.62112	58.52547	0.31494	 	3.4932E12	 	1.12217E-12	 	17241.417	32.1946	 
525.0	1.0	0.0	7.45682	7.20824	-9.94662	20.08811	21.41066	1.21471	0.82324	154.31407	138.84058	58.68532	0.31476	 	4.45228E12	 	8.74961E-13	 	17080.307	32.222	 
520.0	1.0	0.0	7.45918	7.20596	-9.97507	20.07187	21.34311	1.21092	0.82582	154.71196	139.05901	58.84496	0.31457	 	5.69213E12	 	6.80092E-13	 	16919.028	32.2558	 
515.0	1.0	0.0	7.46153	7.20369	-10.00348	20.05565	21.27557	1.20711	0.82843	155.10918	139.27639	59.00439	0.31439	 	7.30004E12	 	5.26951E-13	 	16757.548	32.296	 
510.0	1.0	0.0	7.46388	7.20142	-10.03184	20.03946	21.20801	1.20327	0.83107	155.50573	139.49273	59.16361	0.3142	 	9.39207E12	 	4.06978E-13	 	16595.827	32.3442	 
505.0	1.0	0.0	7.46623	7.19915	-10.06015	20.02328	21.14045	1.19941	0.83374	155.90159	139.70803	59.32261	0.31401	 	1.21229E13	 	3.13287E-13	 	16433.822	32.401	 
500.0	1.0	0.0	7.46858	7.19689	-10.08842	20.00712	21.07289	1.19552	0.83646	156.29677	139.92228	59.48139	0.31383	 	1.56998E13	 	2.40357E-13	 	16271.483	32.4678	 
495.0	1.0	0.0	7.47093	7.19463	-10.11664	19.99098	21.00532	1.19161	0.8392	156.69126	140.13549	59.63996	0.31364	 	2.04008E13	 	1.83775E-13	 	16108.756	32.5454	 
490.0	1.0	0.0	7.47327	7.19237	-10.14482	19.97486	20.93775	1.18767	0.84198	157.08505	140.34766	59.79831	0.31346	 	2.66008E13	 	1.40024E-13	 	15945.576	32.636	 
485.0	1.0	0.0	7.47561	7.19012	-10.17296	19.95876	20.87017	1.18371	0.8448	157.47814	140.55877	59.95644	0.31327	 	3.48071E13	 	1.0631E-13	 	15781.873	32.7406	 
480.0	1.0	0.0	7.47795	7.18787	-10.20105	19.94268	20.80259	1.17973	0.84765	157.87053	140.76884	60.11434	0.31309	 	4.57085E13	 	8.04214E-14	 	15615.938	33.187	 
475.0	1.0	0.0	7.48029	7.18563	-10.2291	19.92661	20.73501	1.17572	0.85055	158.26221	140.97786	60.27202	0.3129	 	6.02437E13	 	6.06127E-14	 	15446.187	33.9502	 
470.0	1.0	0.0	7.48262	7.18339	-10.2571	19.91057	20.66742	1.17168	0.85348	158.65317	141.18584	60.42947	0.31271	 	7.96975E13	 	4.55112E-14	 	15277.417	33.754	 
465.0	1.0	0.0	7.48495	7.18115	-10.28506	19.89454	20.59982	1.16761	0.85645	159.04342	141.39276	60.5867	0.31253	 	1.05835E14	 	3.4041E-14	 	15109.588	33.5658	 
460.0	1.0	0.0	7.48728	7.17891	-10.31297	19.87854	20.53222	1.16352	0.85946	159.43295	141.59863	60.74369	0.31234	 	1.41091E14	 	2.53618E-14	 	14942.666	33.3844	 
455.0	1.0	0.0	7.48961	7.17668	-10.34084	19.86255	20.46462	1.1594	0.86251	159.82175	141.80345	60.90045	0.31216	 	1.88837E14	 	1.882E-14	 	14776.62	33.2092	 
450.0	1.0	0.0	7.49193	7.17446	-10.36866	19.84659	20.39701	1.15526	0.86561	160.20982	142.00721	61.05697	0.31197	 	2.5376499999999997E14	 	1.39086E-14	 	14611.417	33.0406	 
445.0	1.0	0.0	7.49426	7.17223	-10.39644	19.83064	20.3294	1.15109	0.86874	160.59715	142.20993	61.21326	0.31178	 	3.42427E14	 	1.02361E-14	 	14447.03	32.8774	 
440.0	1.0	0.0	7.49658	7.17001	-10.42418	19.81471	20.26178	1.14689	0.87192	160.98374	142.41159	61.36931	0.3116	 	4.64016E14	 	7.50127E-15	 	14283.432	32.7196	 
435.0	1.0	0.0	7.4989	7.1678	-10.45188	19.7988	20.19416	1.14266	0.87515	161.36959	142.61219	61.52513	0.31141	 	6.31489E14	 	5.47326E-15	 	14120.597	32.567	 
430.0	1.0	0.0	7.50121	7.16558	-10.47953	19.78291	20.12653	1.1384	0.87842	161.7547	142.81174	61.6807	0.31123	 	8.6319E14	 	3.97584E-15	 	13958.502	32.419	 
425.0	1.0	0.0	7.50353	7.16337	-10.50713	19.76704	20.0589	1.13412	0.88174	162.13905	143.01024	61.83603	0.31104	 	1.18521E15	 	2.87501E-15	 	13797.125	32.2754	 
420.0	1.0	0.0	7.50584	7.16117	-10.53469	19.75119	19.99127	1.12981	0.88511	162.52264	143.20767	61.99111	0.31085	 	1.63484E15	 	2.06937E-15	 	13636.445	32.136	 
415.0	1.0	0.0	7.50815	7.15896	-10.56221	19.73536	19.92363	1.12547	0.88852	162.90547	143.40405	62.14595	0.31067	 	2.26563E15	 	1.48245E-15	 	13476.442	32.0006	 
410.0	1.0	0.0	7.51045	7.15676	-10.58969	19.71954	19.85598	1.1211	0.89198	163.28754	143.59938	62.30054	0.31048	 	3.15487E15	 	1.05687E-15	 	13317.099	31.8686	 
405.0	1.0	0.0	7.51276	7.15457	-10.61712	19.70375	19.78833	1.11669	0.8955	163.66884	143.79364	62.45488	0.3103	 	4.41468E15	 	7.49745E-16	 	13158.397	31.7404	 
400.0	1.0	0.0	7.51506	7.15238	-10.64451	19.68797	19.72067	1.11226	0.89907	164.04937	143.98685	62.60897	0.31011	 	6.20851E15	 	5.29189E-16	 	13000.321	31.6152	 
395.0	1.0	0.0	7.51736	7.15019	-10.67185	19.67222	19.65301	1.1078	0.90269	164.42912	144.179	62.76281	0.30992	 	8.776E15	 	3.7159E-16	 	12842.855	31.4932	 
390.0	1.0	0.0	7.51966	7.148	-10.69916	19.65648	19.58535	1.10331	0.90636	164.80809	144.37009	62.91639	0.30974	 	1.24703E16	 	2.59551E-16	 	12685.986	31.3738	 
385.0	1.0	0.0	7.52196	7.14582	-10.72642	19.64076	19.51768	1.09879	0.91009	165.18628	144.56013	63.06972	0.30955	 	1.7814700000000002E16	 	1.80316E-16	 	12529.698	31.2576	 
380.0	1.0	0.0	7.52425	7.14364	-10.75363	19.62507	19.45	1.09424	0.91388	165.56368	144.7491	63.22279	0.30937	 	2.55891E16	 	1.24579E-16	 	12373.981	31.1434	 
375.0	1.0	0.0	7.52654	7.14147	-10.78081	19.60939	19.38232	1.08965	0.91772	165.94029	144.93701	63.3756	0.30918	 	3.69626E16	 	8.55854E-17	 	12218.822	31.0318	 
370.0	1.0	0.0	7.52883	7.1393	-10.80794	19.59373	19.31463	1.08503	0.92163	166.3161	145.12387	63.52815	0.309	 	5.36978E16	 	5.84578E-17	 	12064.209	30.9226	 
365.0	1.0	0.0	7.53112	7.13713	-10.83502	19.57809	19.24694	1.08039	0.9256	166.69111	145.30966	63.68044	0.30881	 	7.84686E16	 	3.9693E-17	 	11910.132	30.8154	 
360.0	1.0	0.0	7.5334	7.13496	-10.86207	19.56246	19.17924	1.0757	0.92962	167.06533	145.4944	63.83247	0.30862	 	1.15356E17	 	2.67888E-17	 	11756.581	30.7102	 
355.0	1.0	0.0	7.53569	7.1328	-10.88907	19.54686	19.11154	1.07099	0.93372	167.43873	145.67807	63.98423	0.30844	 	1.70629E17	 	1.79679E-17	 	11603.546	30.607	 
350.0	1.0	0.0	7.53797	7.13064	-10.91603	19.53128	19.04383	1.06624	0.93787	167.81133	145.86069	64.13572	0.30825	 	2.53979E17	 	1.19752E-17	 	11451.018	30.5056	 
345.0	1.0	0.0	7.54025	7.12849	-10.94295	19.51572	18.97612	1.06146	0.9421	168.18311	146.04225	64.28695	0.30807	 	3.80486E17	 	7.92942E-18	 	11298.989	30.4058	 
340.0	1.0	0.0	7.54252	7.12634	-10.96982	19.50017	18.9084	1.05665	0.94639	168.55407	146.22274	64.43791	0.30788	 	5.73782E17	 	5.21563E-18	 	11147.451	30.3076	 
335.0	1.0	0.0	7.5448	7.12419	-10.99666	19.48464	18.84067	1.0518	0.95075	168.92422	146.40218	64.5886	0.30769	 	8.71148E17	 	3.40726E-18	 	10996.396	30.211	 
330.0	1.0	0.0	7.54707	7.12205	-11.02345	19.46914	18.77294	1.04691	0.95519	169.29355	146.58057	64.73901	0.30751	 	1.33182E18	 	2.21037E-18	 	10845.817	30.1158	 
325.0	1.0	0.0	7.54934	7.1199	-11.05019	19.45365	18.7052	1.04199	0.9597	169.66205	146.75789	64.88915	0.30732	 	2.05062E18	 	1.42367E-18	 	10695.707	30.022	 
320.0	1.0	0.0	7.5516	7.11777	-11.0769	19.43818	18.63746	1.03704	0.96428	170.02972	146.93416	65.03902	0.30714	 	3.18045E18	 	9.10254E-19	 	10546.06	29.9294	 
315.0	1.0	0.0	7.55387	7.11563	-11.10356	19.42273	18.56971	1.03205	0.96895	170.39656	147.10936	65.18862	0.30695	 	4.96976E18	 	5.77617E-19	 	10396.87	29.838	 
310.0	1.0	0.0	7.55613	7.1135	-11.13019	19.40731	18.50195	1.02702	0.97369	170.76256	147.28352	65.33793	0.30676	 	7.82543E18	 	3.63713E-19	 	10248.131	29.7478	 
305.0	1.0	0.0	7.55839	7.11137	-11.15677	19.3919	18.43419	1.02196	0.97851	171.12773	147.45662	65.48697	0.30658	 	1.24192E19	 	2.27213E-19	 	10099.837	29.6588	 
300.0	1.0	0.0	7.56065	7.10925	-11.1833	19.3765	18.36642	1.01686	0.98342	171.49206	147.62866	65.63573	0.30639	 	1.98693E19	 	1.4079E-19	 	9951.983	29.5708	 
295.0	1.0	0.0	7.56291	7.10713	-11.2098	19.36113	18.29864	1.01172	0.98841	171.85555	147.79965	65.78421	0.30621	 	3.20529E19	 	8.65132E-20	 	9804.564	29.4838	 
290.0	1.0	0.0	7.56516	7.10501	-11.23626	19.34578	18.23086	1.00655	0.99349	172.21819	147.96959	65.93241	0.30602	 	5.21484E19	 	5.27072E-20	 	9657.576	29.3976	 
285.0	1.0	0.0	7.56741	7.1029	-11.26267	19.33045	18.16307	1.00133	0.99867	172.57999	148.13847	66.08033	0.30583	 	8.55864E19	 	3.18297E-20	 	9511.015	29.3122	 
280.0	1.0	0.0	7.56966	7.10079	-11.28904	19.31513	18.09528	0.99608	1.00393	172.94094	148.30631	66.22796	0.30565	 	1.4172899999999998E20	 	1.90489E-20	 	9364.875	29.228	 
275.0	1.0	0.0	7.57191	7.09868	-11.31537	19.29984	18.02747	0.99079	1.00929	173.30104	148.4731	66.37532	0.30546	 	2.3687199999999997E20	 	1.12946E-20	 	9219.154	29.1442	 
270.0	1.0	0.0	7.57416	7.09657	-11.34166	19.28456	17.95966	0.98546	1.01475	173.66029	148.63884	66.52238	0.30528	 	3.99648E20	 	6.63329E-21	 	9073.847	29.0614	 
265.0	1.0	0.0	7.5764	7.09447	-11.36791	19.2693	17.89185	0.98009	1.02031	174.01869	148.80353	66.66917	0.30509	 	6.808699999999999E20	 	3.85768E-21	 	8928.95	28.9794	 
260.0	1.0	0.0	7.57864	7.09238	-11.39412	19.25407	17.82402	0.97468	1.02598	174.37623	148.96719	66.81566	0.30491	 	1.17164E21	 	2.22097E-21	 	8784.461	28.8978	 
255.0	1.0	0.0	7.58088	7.09028	-11.42028	19.23885	17.75619	0.96923	1.03175	174.73291	149.1298	66.96187	0.30472	 	2.0369800000000001E21	 	1.26549E-21	 	8640.377	28.8168	 
250.0	1.0	0.0	7.58311	7.08819	-11.44641	19.22365	17.68836	0.96373	1.03763	175.08874	149.29137	67.1078	0.30453	 	3.5791E21	 	7.1341E-22	 	8496.694	28.7366	 
245.0	1.0	0.0	7.58535	7.0861	-11.47249	19.20847	17.62051	0.9582	1.04363	175.44371	149.4519	67.25343	0.30435	 	6.357510000000001E21	 	3.97791E-22	 	8353.409	28.657	 
240.0	1.0	0.0	7.58758	7.08402	-11.49853	19.19331	17.55266	0.95262	1.04974	175.79782	149.6114	67.39878	0.30416	 	1.1419999999999999E22	 	2.19314E-22	 	8210.52	28.5778	 
235.0	1.0	0.0	7.58981	7.08194	-11.52453	19.17817	17.4848	0.947	1.05597	176.15107	149.76986	67.54384	0.30398	 	2.07515E22	 	1.19517E-22	 	8068.025	28.499	 
230.0	1.0	0.0	7.59204	7.07986	-11.5505	19.16304	17.41693	0.94133	1.06232	176.50346	149.9273	67.68861	0.30379	 	3.81585E22	 	6.43565E-23	 	7925.921	28.4208	 
225.0	1.0	0.0	7.59426	7.07778	-11.57642	19.14794	17.34905	0.93563	1.0688	176.855	150.0837	67.8331	0.3036	 	7.1030599999999994E22	 	3.42296E-23	 	7784.205	28.3432	 
220.0	1.0	0.0	7.59649	7.07571	-11.6023	19.13286	17.28117	0.92987	1.07542	177.20567	150.23909	67.97729	0.30342	 	1.3389799999999998E23	 	1.7976E-23	 	7642.877	28.2656	 
215.0	1.0	0.0	7.59871	7.07364	-11.62814	19.11779	17.21328	0.92408	1.08216	177.55549	150.39345	68.1212	0.30323	 	2.55707E23	 	9.31745E-24	 	7501.934	28.1886	 
210.0	1.0	0.0	7.60093	7.07158	-11.65393	19.10275	17.14538	0.91823	1.08905	177.90444	150.5468	68.26482	0.30305	 	4.94913E23	 	4.76475E-24	 	7361.374	28.112	 
205.0	1.0	0.0	7.60314	7.06952	-11.67969	19.08772	17.07747	0.91234	1.09608	178.25254	150.69913	68.40815	0.30286	 	9.712129999999999E23	 	2.4029E-24	 	7221.196	28.0356	 
200.0	1.0	0.0	7.60536	7.06746	-11.70541	19.07271	17.00956	0.90641	1.10326	178.59979	150.85046	68.55119	0.30267	 	1.9332500000000002E24	 	1.19453E-24	 	7081.398	27.9596	 
195.0	1.0	0.0	7.60757	7.0654	-11.73109	19.05772	16.94163	0.90042	1.11059	178.94618	151.00078	68.69395	0.30249	 	3.90527E24	 	5.85087E-25	 	6941.98	27.8836	 
190.0	1.0	0.0	7.60978	7.06335	-11.75673	19.04276	16.8737	0.89439	1.11808	179.29172	151.1501	68.83642	0.3023	 	8.00954E24	 	2.82228E-25	 	6802.939	27.8082	 
185.0	1.0	0.0	7.61199	7.0613	-11.78232	19.02781	16.80576	0.88832	1.12573	179.63641	151.29842	68.97861	0.30212	 	1.6686800000000001E25	 	1.34005E-25	 	6664.276	27.7326	 
180.0	1.0	0.0	7.6142	7.05926	-11.80788	19.01288	16.73781	0.88219	1.13355	179.98026	151.44576	69.12051	0.30193	 	3.5332700000000002E25	 	6.25968E-26	 	6525.989	27.6574	 
175.0	1.0	0.0	7.6164	7.05721	-11.8334	18.99796	16.66985	0.87601	1.14154	180.32326	151.59211	69.26212	0.30175	 	7.607630000000001E25	 	2.87515E-26	 	6388.077	27.5824	 
170.0	1.0	0.0	7.6186	7.05517	-11.85888	18.98307	16.60189	0.86978	1.14971	180.66543	151.73748	69.40346	0.30156	 	1.6666300000000003E26	 	1.29777E-26	 	6250.54	27.5074	 
165.0	1.0	0.0	7.6208	7.05314	-11.88432	18.9682	16.53391	0.86351	1.15807	181.00675	151.88188	69.54452	0.30137	 	3.7171000000000004E26	 	5.75315E-27	 	6113.377	27.4326	 
160.0	1.0	0.0	7.623	7.0511	-11.90972	18.95335	16.46592	0.85718	1.16662	181.34725	152.02531	69.68529	0.30119	 	8.445230000000001E26	 	2.5033E-27	 	5976.589	27.3576	 
155.0	1.0	0.0	7.62519	7.04907	-11.93507	18.93851	16.39793	0.85079	1.17537	181.68693	152.16779	69.82579	0.301	 	1.95589E27	 	1.06841E-27	 	5840.174	27.283	 
150.0	1.0	0.0	7.62739	7.04705	-11.96039	18.9237	16.32993	0.84436	1.18433	182.02578	152.30931	69.96602	0.30082	 	4.62059E27	 	4.46976E-28	 	5704.133	27.2082	 
145.0	1.0	0.0	7.62958	7.04502	-11.98567	18.9089	16.26191	0.83787	1.1935	182.36382	152.44989	70.10597	0.30063	 	1.11424E28	 	1.83164E-28	 	5568.466	27.1334	 
140.0	1.0	0.0	7.63176	7.043	-12.01092	18.89412	16.19389	0.83133	1.20289	182.70106	152.58954	70.24565	0.30044	 	2.74483E28	 	7.34647E-29	 	5433.173	27.0586	 
135.0	1.0	0.0	7.63395	7.04099	-12.03612	18.87937	16.12586	0.82474	1.21251	183.03749	152.72826	70.38507	0.30026	 	6.9126500000000005E28	 	2.88179E-29	 	5298.255	26.9836	 
130.0	1.0	0.0	7.63614	7.03897	-12.06128	18.86463	16.05781	0.81808	1.22237	183.37314	152.86607	70.52422	0.30007	 	1.78125E29	 	1.10466E-29	 	5163.712	26.9086	 
125.0	1.0	0.0	7.63832	7.03696	-12.0864	18.84991	15.98976	0.81138	1.23247	183.70801	153.00297	70.66311	0.29989	 	4.70035E29	 	4.13432E-30	 	5029.545	26.8334	 
120.0	1.0	0.0	7.6405	7.03495	-12.11149	18.83521	15.9217	0.80461	1.24283	184.04211	153.13897	70.80175	0.2997	 	1.27132E30	 	1.50935E-30	 	4895.755	26.758	 
115.0	1.0	0.0	7.64268	7.03295	-12.13653	18.82053	15.85363	0.79779	1.25346	184.37544	153.27409	70.94013	0.29951	 	3.5278599999999997E30	 	5.37E-31	 	4762.341	26.6828	 
110.0	1.0	0.0	7.64485	7.03095	-12.16154	18.80586	15.78554	0.79091	1.26437	184.70803	153.40834	71.07826	0.29933	 	1.0054E31	 	1.86002E-31	 	4629.307	26.6068	 
105.0	1.0	0.0	7.64703	7.02895	-12.1865	18.79122	15.71745	0.78397	1.27556	185.03989	153.54174	71.21615	0.29914	 	2.9457299999999997E31	 	6.26553E-32	 	4496.652	26.531	 
100.0	1.0	0.0	7.6492	7.02695	-12.21143	18.7766	15.64934	0.77697	1.28705	185.37102	153.67428	71.35381	0.29896	 	8.883E31	 	2.05027E-32	 	4364.378	26.4548	 
95.0	1.0	0.0	7.65137	7.02496	-12.23632	18.76199	15.58123	0.76991	1.29885	185.70145	153.806	71.49123	0.29877	 	2.76024E32	 	6.50975E-33	 	4232.487	26.3782	 
90.0	1.0	0.0	7.65353	7.02297	-12.26117	18.74741	15.5131	0.76279	1.31098	186.03119	153.93691	71.62842	0.29859	 	8.84899E32	 	2.00299E-33	 	4100.981	26.3012	 
85.0	1.0	0.0	7.6557	7.02099	-12.28599	18.73284	15.44496	0.75561	1.32344	186.36025	154.06702	71.76539	0.2984	 	2.93067E33	 	5.96464E-34	 	3969.86	26.2242	 
80.0	1.0	0.0	7.65786	7.019	-12.31076	18.7183	15.37681	0.74836	1.33626	186.68867	154.19635	71.90216	0.29821	 	1.0040800000000001E34	 	1.71664E-34	 	3839.127	26.1466	 
75.0	1.0	0.0	7.66002	7.01702	-12.33549	18.70377	15.30865	0.74105	1.34944	187.01645	154.32492	72.03871	0.29803	 	3.56393E34	 	4.76786E-35	 	3708.783	26.0688	 
70.0	1.0	0.0	7.66218	7.01505	-12.36019	18.68926	15.24048	0.73367	1.363	187.34362	154.45275	72.17508	0.29784	 	1.3125799999999998E35	 	1.27599E-35	 	3578.832	25.9902	 
65.0	1.0	0.0	7.66434	7.01307	-12.38485	18.67477	15.17229	0.72623	1.37697	187.6702	154.57987	72.31125	0.29766	 	5.024159999999999E35	 	3.28498E-36	 	3449.274	25.9116	 
60.0	1.0	0.0	7.66649	7.0111	-12.40947	18.6603	15.10409	0.71873	1.39135	187.99622	154.70629	72.44725	0.29747	 	2.0021699999999997E36	 	8.12132E-37	 	3320.112	25.8324	 
55.0	1.0	0.0	7.66864	7.00913	-12.43405	18.64585	15.03588	0.71115	1.40617	188.32171	154.83204	72.58308	0.29728	 	8.32213E36	 	1.92453E-37	 	3191.348	25.7528	 
50.0	1.0	0.0	7.67079	7.00717	-12.4586	18.63142	14.96766	0.70351	1.42145	188.6467	154.95714	72.71875	0.2971	 	3.6150699999999996E37	 	4.36289E-38	 	3062.985	25.6726	 
45.0	1.0	0.0	7.67294	7.00521	-12.48311	18.61701	14.89943	0.69579	1.43721	188.97121	155.08164	72.85429	0.29691	 	1.6445499999999999E38	 	9.44215E-39	 	2935.024	25.5922	 
40.0	1.0	0.0	7.67509	7.00325	-12.50757	18.60262	14.83118	0.68801	1.45347	189.29529	155.20554	72.98969	0.29673	 	7.85216E38	 	1.94648E-39	 	2807.468	25.5112	 
35.0	1.0	0.0	7.67723	7.00129	-12.53201	18.58824	14.76292	0.68015	1.47025	189.61898	155.3289	73.12498	0.29654	 	3.94424E39	 	3.81316E-40	 	2680.317	25.4302	 
30.0	1.0	0.0	7.67937	6.99934	-12.5564	18.57389	14.69464	0.67223	1.48759	189.9423	155.45174	73.26017	0.29635	 	2.08959E40	 	7.08081E-41	 	2553.575	25.3484	 
25.0	1.0	0.0	7.68151	6.99739	-12.58076	 	14.62635	0.66423	1.50551	190.26531	155.57409	73.39528	0.29617	 	1.1707000000000001E41	 	1.24301E-41	 	2427.241	 	 
