T (C)	Fraction solid (wt)-TOTAL	Fraction liquid (wt)-LIQUID	Density (g/(cm)^3)-TOTAL	Molar volume (cm^3)-TOTAL	Volume change (%)-  	Average expansion coeff. (10e-6 1/K)-  	Thermal conductivity (W/(m*K))-TOTAL	Electrical resistivity (10e-6 Ohm*m)-TOTAL	Electrical conductivity (10e6 1/(Ohm*m))-TOTAL	Young's modulus (GPa)-TOTAL	Bulk modulus (GPa)-TOTAL	Shear modulus(GPa)-TOTAL	Poisson's ratio-TOTAL	Liquid viscosity (mPa s)-  	Total viscosity (mPa s)-  	Liquid diffusivity (10e-9 (m^2)/s)-  	Total diffusivity (10e-9 (m^2)/s)-  	Surface Tension (mN/m)-  	Enthalpy (J/mole)-TOTAL	Specific heat (J/(mole K))-TOTAL	Latent heat (J/mole)-TOTAL
1500.0	0.0	1.0	6.91569	7.87056	0.0	24.76715	32.05602	1.80241	0.55481	0.0	101.926	0.0	0.49974	6.69478	6.69478	1.2927	1.2927	1805.40162	65973.185	 	0.0
1495.0	0.0	1.0	6.91954	7.86618	-0.0556361	24.71141	31.97969	1.80162	0.55506	0.0	102.11069	0.0	0.49974	6.75173	6.75173	1.27818	1.27818	1807.35049	65751.056	44.4258	0.0
1490.0	0.0	1.0	6.92338	7.86181	-0.11112	24.65568	31.90337	1.80082	0.5553	0.0	102.29538	0.0	0.49974	6.8095	6.8095	1.26375	1.26375	1809.296	65529.524	44.3064	0.0
1487.78	0.0	1.0	6.92508	7.85988	-0.13569	24.63094	31.8695	1.80047	0.55541	0.0	102.37734	0.0	0.49974	6.8354	6.8354	1.25738	1.25738	1810.15825	65431.399	44.2246	0.0090
1485.0	0.14054	0.85946	6.95113	7.8304	-0.51022	23.72907	32.08032	1.78581	0.55997	0.0157689	95.1808	0.00533063	0.47909	6.83406	9.07167	1.25564	0.94592	1808.62555	63858.998	565.366	1449.586
1480.0	0.32527	0.67473	6.98655	7.7909	-1.01206	22.53492	32.348	1.76599	0.56625	0.46612	85.76389	0.16055	0.45161	6.8328	36.61863	1.2523	0.23367	1806.22384	61747.326	422.334	3340.909
1475.0	0.45351	0.54649	7.01234	7.76276	-1.36959	21.70064	32.52184	1.75154	0.57092	1.80401	79.30961	0.62976	0.43229	6.83297	115.88467	1.24869	0.0736274	1804.12566	60231.373	303.191	4637.098
1470.0	0.54714	0.45286	7.03218	7.74152	-1.63951	21.08482	32.63631	1.74041	0.57458	3.89956	74.69115	1.37499	0.41803	6.83435	243.43084	1.24487	0.0349499	1802.26963	59080.284	230.218	5569.003
1465.0	0.61811	0.38189	7.0481	7.72476	-1.85247	20.61106	32.71087	1.73146	0.57755	6.46597	71.28317	2.29761	0.40711	6.83652	406.43364	1.24091	0.020873	1800.61192	58167.256	182.606	6263.425
1460.0	0.67351	0.32649	7.06131	7.7111	-2.02594	20.23576	32.75746	1.72403	0.58004	9.26298	68.71406	3.31177	0.39849	6.83939	593.50812	1.23682	0.0142527	1799.11962	57417.348	149.982	6795.297
1455.0	0.7178	0.2822	7.07251	7.69975	-2.17022	19.93333	32.78383	1.71767	0.58218	12.12934	66.74785	4.35824	0.39154	6.84335	796.79275	1.23253	0.0105858	1797.76365	56783.206	126.828	7211.972
1450.0	0.75383	0.24617	7.08225	7.68999	-2.29423	19.68139	32.79471	1.71213	0.58407	14.96159	65.23068	5.39808	0.38582	6.84779	1010.949	1.22817	0.00831918	1796.53032	56234.563	109.729	7543.711
1445.0	0.78358	0.21642	7.09085	7.68154	-2.40162	19.47099	32.794	1.7072	0.58575	17.7007	64.05733	6.4084	0.38105	6.85296	1232.88597	1.22368	0.00680182	1795.39847	55750.353	96.842	7811.577
1440.0	0.80848	0.19152	7.09854	7.67407	-2.49644	19.29195	32.78415	1.70274	0.58729	20.31695	63.1511	7.37715	0.37702	6.85879	1460.94575	1.21909	0.00572332	1794.35681	55315.747	86.9212	8030.394
1435.0	0.82954	0.17046	7.10553	7.66736	-2.58179	19.13646	32.76695	1.69866	0.5887	22.79563	62.45701	8.29798	0.37356	6.86493	1694.21513	1.21444	0.0049209	1793.39824	54920.025	79.1444	8210.879
1430.0	0.84752	0.15248	7.11191	7.6613	-2.65876	19.00193	32.74398	1.69488	0.59001	25.13473	61.93407	9.16937	0.37058	6.87188	1932.61576	1.20966	0.00430124	1792.50762	54555.254	72.9542	8360.959
1425.0	0.86299	0.13701	7.11782	7.65573	-2.72947	18.883	32.7162	1.69134	0.59125	27.33556	61.55143	9.99122	0.36798	6.87912	2176.15401	1.20484	0.00380867	1791.68322	54215.453	67.9602	8486.614
1420.0	0.87639	0.12361	7.12332	7.65059	-2.79477	18.77754	32.6845	1.688	0.59242	29.40555	61.28461	10.76579	0.36569	6.88681	2425.35824	1.19995	0.00340727	1790.91609	53896.028	63.885	8592.432
1415.0	0.88808	0.11192	7.12847	7.64581	-2.85556	18.68333	32.64954	1.68481	0.59354	31.35246	61.11488	11.49559	0.36367	6.89499	2680.79903	1.19499	0.0030735	1790.20063	53593.4	60.5256	8681.989
1410.0	0.89831	0.10169	7.13332	7.64132	-2.9126	18.59845	32.61183	1.68177	0.59461	33.18493	61.02711	12.18356	0.36187	6.90357	2943.17477	1.18997	0.00279122	1789.53305	53304.743	57.7314	8758.106
1405.0	0.90736	0.0926449	7.13792	7.63708	-2.96645	18.52151	32.57186	1.67883	0.59565	34.91532	61.00834	12.83406	0.36026	6.91259	3213.59383	1.18489	0.00254875	1788.90762	53027.625	55.4236	8823.211
1400.0	0.91534	0.0846553	7.14229	7.63307	-3.01746	18.45166	32.52995	1.67598	0.59667	36.54816	61.05004	13.44861	0.35881	6.922	3492.57972	1.17975	0.00233817	1788.32006	52760.446	53.4358	8878.902
1395.0	0.92243	0.0775661	7.14647	7.62924	-3.06605	18.38783	32.48636	1.67322	0.59765	38.09151	61.14407	14.03005	0.3575	6.93177	3781.02477	1.17457	0.00215334	1787.76822	52501.707	51.7478	8926.67
1390.0	0.92874	0.0712564	7.15047	7.62557	-3.11272	18.32871	32.4413	1.67052	0.59862	39.55365	61.28339	14.58139	0.35631	6.94164	4079.90993	1.16938	0.00198961	1787.25228	52250.179	50.3056	8967.743
1385.0	0.93438	0.0656227	7.15432	7.62204	-3.15754	18.2742	32.39499	1.66788	0.59957	40.94123	61.46254	15.10501	0.35522	6.95205	4390.22466	1.16412	0.00184342	1786.76612	52004.841	49.0676	9003.138
1380.0	0.93942	0.0605805	7.15802	7.61865	-3.20065	18.22396	32.34766	1.66528	0.6005	42.26055	61.67708	15.6032	0.35423	6.96286	4713.03308	1.15881	0.00171198	1786.30371	51764.842	47.9998	9033.702
1379.74	0.93978	0.0602196	7.15825	7.61845	-3.20312	18.22069	32.34533	1.66514	0.60055	42.349	61.68371	15.63664	0.35416	6.96341	4732.43627	1.15854	0.00170469	1786.28038	51751.732	 	9036.027
1379.74	0.93978	0.0602196	7.15825	7.61845	-3.20312	18.22069	32.34533	1.66514	0.60055	42.349	61.68371	15.63664	0.35416	6.96341	4732.43628	1.15854	0.00170469	1786.28038	51751.732	 	9036.027
1375.0	0.94433	0.0556658	7.16152	7.61512	-3.24551	18.16856	32.30303	1.66254	0.60149	43.65387	62.02568	16.12824	0.35334	6.96528	5069.37894	1.1549	0.00158682	1785.34059	51510.134	50.9416	9079.482
1372.66	0.94641	0.0535878	7.16309	7.61351	-3.26587	18.1442	32.28178	1.66127	0.60195	44.27504	62.2	16.36236	0.35295	6.96644	5240.47163	1.15307	0.00153284	1784.88446	51393.084	 	9099.029
1370.0	0.94929	0.0507108	7.16522	7.61136	-3.29327	18.10476	32.25814	1.6598	0.60248	45.10962	62.3895	16.67708	0.35244	6.96905	5455.94106	1.15077	0.00146992	1785.36496	51251.229	51.781	9129.959
1365.0	0.95423	0.0457712	7.16907	7.60748	-3.34257	18.03625	32.2127	1.65708	0.60347	46.61105	62.76079	17.24359	0.35155	6.97463	5872.59235	1.14636	0.00136148	1786.25341	50991.065	52.0328	9182.192
1360.0	0.95861	0.0413887	7.17275	7.60378	-3.38952	17.97373	32.16599	1.65442	0.60444	48.02931	63.1501	17.77907	0.35073	6.98009	6305.92207	1.14196	0.00126405	1787.14244	50738.354	50.5422	9227.469
1355.0	0.96252	0.0374825	7.1763	7.60025	-3.43437	17.91656	32.11822	1.65181	0.6054	49.37366	63.55525	18.28693	0.34997	6.98576	6757.77386	1.13754	0.00117592	1788.02859	50492.032	49.2644	9266.848
1350.0	0.96601	0.0339883	7.17973	7.59686	-3.47749	17.8638	32.06953	1.64924	0.60634	50.65307	63.97408	18.77051	0.34927	6.99139	7230.12699	1.13313	0.00109572	1788.91567	50251.225	48.1614	9301.2
1345.0	0.96915	0.0308516	7.18304	7.59359	-3.51897	17.81523	32.02004	1.6467	0.60727	51.87391	64.40521	19.23216	0.34862	6.99753	7724.85539	1.12865	0.00102239	1789.79543	50015.209	47.2032	9331.247
1340.0	0.97197	0.0280265	7.18627	7.59043	-3.55919	17.76985	31.96976	1.64419	0.6082	53.04327	64.84708	19.67454	0.34802	7.00365	8244.04941	1.12418	9.55038E-4	1790.67796	49783.377	46.3664	9357.591
1335.0	0.97452	0.0254751	7.18942	7.58736	-3.59822	17.72749	31.91892	1.64171	0.60912	54.1664	65.29864	20.09959	0.34745	7.01009	8789.8042	1.11967	8.92964E-4	1791.55732	49555.22	45.6314	9380.738
1330.0	0.97683	0.0231655	7.19249	7.58437	-3.63619	17.68779	31.86755	1.63924	0.61004	55.24826	65.75895	20.50917	0.34692	7.01686	9364.3534	1.11511	8.3557E-4	1792.43264	49330.308	44.9824	9401.117
1325.0	0.97893	0.0210679	7.1955	7.58145	-3.67322	17.65045	31.8157	1.63679	0.61095	56.29308	66.22719	20.90485	0.34641	7.02405	9970.01817	1.11049	7.82363E-4	1793.30188	49108.274	44.4068	9419.089
1320.0	0.98084	0.0191609	7.19846	7.5786	-3.70949	17.61501	31.76341	1.63436	0.61186	57.30496	66.70253	21.28818	0.34593	7.03137	10609.28769	1.10587	7.32921E-4	1794.1715	48888.804	43.894	9434.967
1315.0	0.98258	0.0174217	7.20136	7.5758	-3.74504	17.58135	31.71075	1.63193	0.61277	58.28713	67.18439	21.66035	0.34548	7.03922	11284.76347	1.10117	6.86888E-4	1795.03676	48671.628	43.4352	9449.016
1310.0	0.98417	0.015832	7.20422	7.57305	-3.77997	17.54925	31.65775	1.62952	0.61368	59.24225	67.67233	22.02237	0.34505	7.04733	11999.15612	1.09644	6.43959E-4	1795.89866	48456.513	43.023	9461.467
1305.0	0.98562	0.0143783	7.20704	7.57035	-3.81432	17.51854	31.60444	1.62711	0.61459	60.17336	68.16576	22.37538	0.34463	7.0561	12755.49383	1.09162	6.03862E-4	1796.75588	48243.257	42.6512	9472.52
1300.0	0.98695	0.0130453	7.20982	7.56769	-3.84814	17.48914	31.55088	1.62471	0.61549	61.08276	68.66436	22.72023	0.34424	7.06555	13556.92846	1.0867	5.66364E-4	1797.60464	48031.682	42.315	9482.348
1295.0	0.98818	0.0118205	7.21256	7.56506	-3.8815	17.46081	31.49707	1.62231	0.6164	61.97265	69.16766	23.05777	0.34386	7.07578	14406.8333	1.08168	5.31258E-4	1798.4488	47821.634	42.0096	9491.104
1290.0	0.98931	0.0106948	7.21527	7.56247	-3.91447	17.43344	31.44305	1.61992	0.61731	62.84489	69.6754	23.38868	0.34349	7.08661	15308.80576	1.07659	4.98363E-4	1799.28832	47612.976	41.7316	9498.921
1285.0	0.99034	0.0096577	7.21796	7.5599	-3.94708	17.4069	31.38884	1.61753	0.61823	63.70142	70.18722	23.7137	0.34314	7.09804	16266.77579	1.07141	4.67514E-4	1800.12614	47405.588	41.4776	9505.917
1280.0	0.9913	0.0087001	7.22062	7.55736	-3.97932	17.38124	31.33447	1.61513	0.61914	64.54363	70.70292	24.03335	0.34279	7.11087	17284.8988	1.06605	4.38564E-4	1800.94862	47199.363	41.245	9512.196
1275.0	0.99218	0.00781575	7.22326	7.55485	-4.01127	17.35621	31.27994	1.61274	0.62006	65.37298	71.22222	24.34819	0.34246	7.1245	18367.63233	1.06058	4.11383E-4	1801.76901	46994.205	41.0316	9517.85
1270.0	0.993	0.00699747	7.22587	7.55235	-4.04296	17.33176	31.22527	1.61035	0.62098	66.19089	71.7449	24.65875	0.34214	7.13905	19519.83497	1.05501	3.8585E-4	1802.58742	46790.029	40.8352	9522.959
1265.0	0.99376	0.00623801	7.22847	7.54988	-4.0744	17.30789	31.17048	1.60795	0.62191	66.99851	72.27079	24.96545	0.34182	7.15486	20746.71112	1.04926	3.61856E-4	1803.39679	46586.76	40.6538	9527.601
1262.14	0.9941	0.00590321	7.22989	7.54849	-4.09207	17.29505	31.13906	1.60658	0.62244	67.43228	72.57328	25.13015	0.34166	7.16463	21476.72865	1.04588	3.48907E-4	1803.85203	46471.446	 	9529.513
1260.0	0.99523	0.00476751	7.23135	7.54696	-4.11147	17.26693	31.11572	1.60555	0.62284	68.06041	72.80265	25.36987	0.34136	7.22916	22132.20427	1.0351	3.38101E-4	1803.19505	46370.85	43.182	9545.319
1255.0	0.99732	0.00268075	7.23461	7.54352	-4.15519	17.20565	31.06136	1.60311	0.62379	69.35905	73.34028	25.86537	0.34077	7.3851	23687.63323	1.00994	3.1487E-4	1801.63173	46144.408	45.2884	9574.001
1250.0	0.99884	0.00115753	7.23775	7.54021	-4.19724	17.14893	31.00718	1.60066	0.62474	70.48872	73.88	26.29626	0.34028	7.54676	25297.43117	0.98507	2.93868E-4	1800.03987	45926.55	43.5716	9594.528
1245.0	1.0	0.0	7.24079	7.53699	-4.23816	17.09514	30.95305	1.59819	0.62571	71.50906	74.4216	26.68535	0.33986	 	26982.6542	 	2.7461E-4	 	45714.335	42.443	9609.839
1240.0	1.0	0.0	7.243	7.53469	-4.26742	17.07644	30.89752	1.59579	0.62665	72.11908	74.96433	26.91695	0.33966	 	28639.93343	 	2.57868E-4	 	45483.798	46.1074	 
1235.0	1.0	0.0	7.24521	7.53239	-4.29662	17.05773	30.84198	1.59338	0.6276	72.73202	75.50874	27.14971	0.33946	 	30411.19632	 	2.42046E-4	 	45289.065	38.9466	 
1230.0	1.0	0.0	7.24742	7.53009	-4.32577	17.03903	30.78644	1.59096	0.62855	73.34782	76.05478	27.3836	0.33927	 	32305.08962	 	2.271E-4	 	45094.526	38.9078	 
1225.0	1.0	0.0	7.24962	7.5278	-4.35487	17.02033	30.7309	1.58854	0.62951	73.96644	76.60241	27.61862	0.33907	 	34330.97567	 	2.12988E-4	 	44900.182	38.8688	 
1220.0	1.0	0.0	7.25183	7.52552	-4.38392	17.00163	30.67536	1.5861	0.63048	74.58783	77.15158	27.85474	0.33887	 	36498.99638	 	1.99668E-4	 	44706.028	38.8308	 
1215.0	1.0	0.0	7.25403	7.52324	-4.41292	16.98294	30.61982	1.58366	0.63145	75.21196	77.70222	28.09195	0.33867	 	38820.14351	 	1.87101E-4	 	44512.062	38.7932	 
1210.0	1.0	0.0	7.25622	7.52096	-4.44187	16.96424	30.56428	1.58121	0.63243	75.83878	78.2543	28.33023	0.33848	 	41306.33562	 	1.75249E-4	 	44318.283	38.7558	 
1205.0	1.0	0.0	7.25842	7.51868	-4.47077	16.94555	30.50874	1.57874	0.63341	76.46824	78.80777	28.56958	0.33828	 	43970.50264	 	1.64076E-4	 	44124.687	38.7192	 
1200.0	1.0	0.0	7.26061	7.51641	-4.49961	16.92686	30.4532	1.57627	0.63441	77.10031	79.36256	28.80996	0.33808	 	46826.67858	 	1.53547E-4	 	43931.272	38.683	 
1195.0	1.0	0.0	7.2628	7.51415	-4.52841	16.90817	30.39766	1.57379	0.63541	77.73493	79.91864	29.05137	0.33789	 	49890.1035	 	1.43629E-4	 	43738.036	38.6472	 
1190.0	1.0	0.0	7.26499	7.51188	-4.55715	16.88949	30.34212	1.57131	0.63641	78.37207	80.47595	29.2938	0.33769	 	53177.3355	 	1.34292E-4	 	43544.976	38.612	 
1185.0	1.0	0.0	7.26717	7.50963	-4.58584	16.8708	30.28658	1.56881	0.63743	79.01168	81.03445	29.53722	0.33749	 	56706.37394	 	1.25504E-4	 	43352.088	38.5776	 
1180.0	1.0	0.0	7.26936	7.50737	-4.61448	16.85212	30.23105	1.5663	0.63845	79.65372	81.59408	29.78162	0.3373	 	60496.79498	 	1.17237E-4	 	43159.371	38.5434	 
1175.0	1.0	0.0	7.27153	7.50512	-4.64307	16.83343	30.17551	1.56378	0.63947	80.29814	82.1548	30.02698	0.3371	 	64569.90087	 	1.09464E-4	 	42966.822	38.5098	 
1170.0	1.0	0.0	7.27371	7.50287	-4.67161	16.81476	30.11997	1.56126	0.64051	80.9449	82.71656	30.27329	0.3369	 	68948.88429	 	1.02158E-4	 	42774.437	38.477	 
1165.0	1.0	0.0	7.27589	7.50063	-4.7001	16.79608	30.06443	1.55872	0.64155	81.59396	83.27931	30.52053	0.33671	 	73659.00965	 	9.52939E-5	 	42582.213	38.4448	 
1160.0	1.0	0.0	7.27806	7.49839	-4.72854	16.7774	30.0089	1.55618	0.6426	82.24528	83.843	30.76869	0.33651	 	78727.81289	 	8.88485E-5	 	42390.148	38.413	 
1155.0	1.0	0.0	7.28023	7.49616	-4.75692	16.75873	29.95336	1.55362	0.64366	82.89881	84.40759	31.01775	0.33631	 	84185.3221	 	8.27988E-5	 	42198.239	38.3818	 
1150.0	1.0	0.0	7.28239	7.49393	-4.78526	16.74005	29.89782	1.55106	0.64472	83.55451	84.97303	31.26769	0.33612	 	90064.30101	 	7.71231E-5	 	42006.482	38.3514	 
1145.0	1.0	0.0	7.28456	7.4917	-4.81354	16.72138	29.84229	1.54849	0.64579	84.21233	85.53927	31.51851	0.33592	 	96400.51808	 	7.18008E-5	 	41814.874	38.3216	 
1140.0	1.0	0.0	7.28672	7.48948	-4.84177	16.70271	29.78676	1.5459	0.64687	84.87223	86.10627	31.77017	0.33572	 	103233.044	 	6.68123E-5	 	41623.412	38.2924	 
1135.0	1.0	0.0	7.28888	7.48726	-4.86996	16.68405	29.73123	1.54331	0.64796	85.53418	86.67398	32.02268	0.33553	 	110604.5806	 	6.21387E-5	 	41432.091	38.2642	 
1130.0	1.0	0.0	7.29103	7.48505	-4.89809	16.66538	29.6757	1.54071	0.64905	86.19812	87.24235	32.27601	0.33533	 	118561.8253	 	5.77625E-5	 	41240.91	38.2362	 
1125.0	1.0	0.0	7.29319	7.48284	-4.92617	16.64672	29.62017	1.5381	0.65015	86.86402	87.81134	32.53014	0.33513	 	127155.8744	 	5.36666E-5	 	41049.864	38.2092	 
1120.0	1.0	0.0	7.29534	7.48063	-4.9542	16.62806	29.56464	1.53548	0.65126	87.53183	88.3809	32.78506	0.33493	 	136442.67	 	4.9835E-5	 	40858.949	38.183	 
1115.0	1.0	0.0	7.29749	7.47843	-4.98217	16.6094	29.50912	1.53284	0.65238	88.2015	88.95099	33.04076	0.33474	 	146483.496	 	4.62524E-5	 	40668.162	38.1574	 
1110.0	1.0	0.0	7.29963	7.47623	-5.0101	16.59074	29.4536	1.5302	0.65351	88.873	89.52156	33.29722	0.33454	 	157345.5285	 	4.29044E-5	 	40477.499	38.1326	 
1105.0	1.0	0.0	7.30177	7.47404	-5.03798	16.57208	29.39808	1.52755	0.65464	89.54629	90.09257	33.55442	0.33434	 	169102.4459	 	3.97771E-5	 	40286.955	38.1088	 
1100.0	1.0	0.0	7.30391	7.47185	-5.0658	16.55343	29.34257	1.52489	0.65579	90.22131	90.66398	33.81236	0.33415	 	181835.1089	 	3.68576E-5	 	40096.528	38.0854	 
1095.0	1.0	0.0	7.30605	7.46966	-5.09357	16.53477	29.28706	1.52221	0.65694	90.89803	91.23573	34.071	0.33395	 	195632.3143	 	3.41334E-5	 	39906.212	38.0632	 
1090.0	1.0	0.0	7.30819	7.46748	-5.1213	16.51612	29.23156	1.51953	0.6581	91.57641	91.80779	34.33034	0.33375	 	210591.6352	 	3.15929E-5	 	39716.003	38.0418	 
1085.0	1.0	0.0	7.31032	7.4653	-5.14897	16.49747	29.17606	1.51684	0.65927	92.25639	92.38011	34.59036	0.33356	 	226820.3563	 	2.92249E-5	 	39525.898	38.021	 
1080.0	1.0	0.0	7.31245	7.46313	-5.17659	16.47883	29.12057	1.51413	0.66044	92.93795	92.95264	34.85104	0.33336	 	244436.515	 	2.70188E-5	 	39335.891	38.0014	 
1075.0	1.0	0.0	7.31457	7.46096	-5.20416	16.46018	29.06509	1.51142	0.66163	93.62104	93.52536	35.11238	0.33316	 	263570.0636	 	2.49648E-5	 	39145.977	37.9828	 
1070.0	1.0	0.0	7.3167	7.45879	-5.23168	16.44154	29.00962	1.50869	0.66283	94.30561	94.0982	35.37435	0.33297	 	284364.1646	 	2.30535E-5	 	38956.153	37.9648	 
1065.0	1.0	0.0	7.31882	7.45663	-5.25915	16.4229	28.95415	1.50595	0.66403	94.99162	94.67113	35.63694	0.33277	 	306976.6379	 	2.12758E-5	 	38766.413	37.948	 
1060.0	1.0	0.0	7.32094	7.45447	-5.28656	16.40426	28.8987	1.50321	0.66524	95.67903	95.24411	35.90013	0.33257	 	331581.5773	 	1.96234E-5	 	38576.751	37.9324	 
1055.0	1.0	0.0	7.32305	7.45232	-5.31393	16.38562	28.84325	1.50045	0.66647	96.3678	95.81709	36.16391	0.33238	 	358371.158	 	1.80884E-5	 	38387.164	37.9174	 
1050.0	1.0	0.0	7.32517	7.45017	-5.34125	16.36698	28.78783	1.49768	0.6677	97.05788	96.39004	36.42826	0.33218	 	387557.659	 	1.66632E-5	 	38197.645	37.9038	 
1045.0	1.0	0.0	7.32728	7.44803	-5.36851	16.34835	28.73241	1.49489	0.66894	97.74924	96.9629	36.69316	0.33198	 	419375.7282	 	1.53408E-5	 	38008.189	37.8912	 
1040.0	1.0	0.0	7.32939	7.44588	-5.39572	16.32971	28.67701	1.4921	0.6702	98.44183	97.53565	36.95861	0.33178	 	454084.9195	 	1.41145E-5	 	37818.791	37.8796	 
1035.0	1.0	0.0	7.33149	7.44375	-5.42289	16.31108	28.62163	1.4893	0.67146	99.13561	98.10823	37.22458	0.33159	 	491972.5397	 	1.29779E-5	 	37629.443	37.8696	 
1030.0	1.0	0.0	7.33359	7.44161	-5.45	16.29245	28.56627	1.48648	0.67273	99.83053	98.68061	37.49106	0.33139	 	533356.842	 	1.19251E-5	 	37440.142	37.8602	 
1025.0	1.0	0.0	7.33569	7.43948	-5.47706	16.27382	28.51093	1.48365	0.67401	100.52656	99.25274	37.75803	0.33119	 	578590.6138	 	1.09507E-5	 	37250.88	37.8524	 
1020.0	1.0	0.0	7.33779	7.43736	-5.50407	16.2552	28.45562	1.48081	0.67531	101.22365	99.82459	38.02548	0.331	 	628065.2098	 	1.00492E-5	 	37061.65	37.846	 
1015.0	1.0	0.0	7.33988	7.43523	-5.53103	16.23658	28.40033	1.47795	0.67661	101.92176	100.39611	38.2934	0.3308	 	682215.0876	 	9.21577E-6	 	36872.447	37.8406	 
1010.0	1.0	0.0	7.34197	7.43312	-5.55794	16.21795	28.34507	1.47509	0.67793	102.62085	100.96727	38.56176	0.3306	 	741522.9163	 	8.44578E-6	 	36683.264	37.8366	 
1005.0	1.0	0.0	7.34406	7.431	-5.5848	16.19933	28.28984	1.47221	0.67925	103.32087	101.53802	38.83055	0.33041	 	806525.3307	 	7.73483E-6	 	36494.093	37.8342	 
1000.0	1.0	0.0	7.34615	7.42889	-5.6116	16.18071	28.23465	1.46932	0.68059	104.02179	102.10833	39.09976	0.33021	 	877819.4213	 	7.07882E-6	 	36304.927	37.8332	 
995.0	1.0	0.0	7.34823	7.42679	-5.63836	16.1621	28.17949	1.46641	0.68194	104.72356	102.67815	39.36937	0.33001	 	956070.0589	 	6.47392E-6	 	36115.76	37.8334	 
990.0	1.0	0.0	7.35031	7.42468	-5.66507	16.14348	28.12438	1.46349	0.6833	105.42614	103.24745	39.63936	0.32982	 	1042018.168	 	5.91652E-6	 	35926.582	37.8356	 
985.0	1.0	0.0	7.35239	7.42259	-5.69172	16.12487	28.06931	1.46056	0.68467	106.12949	103.81618	39.90972	0.32962	 	1136490.08	 	5.40323E-6	 	35737.386	37.8392	 
980.0	1.0	0.0	7.35446	7.42049	-5.71832	16.10626	28.01429	1.45761	0.68605	106.83356	104.38431	40.18043	0.32942	 	1240408.119	 	4.93089E-6	 	35548.164	37.8444	 
975.0	1.0	0.0	7.35654	7.4184	-5.74488	16.08765	27.95932	1.45465	0.68745	107.53832	104.9518	40.45149	0.32923	 	1354802.583	 	4.49653E-6	 	35358.907	37.8514	 
970.0	1.0	0.0	7.35861	7.41632	-5.77138	16.06904	27.90441	1.45167	0.68886	108.24373	105.51861	40.72286	0.32903	 	1480825.334	 	4.09738E-6	 	35169.607	37.86	 
965.0	1.0	0.0	7.36067	7.41424	-5.79783	16.05044	27.84956	1.44868	0.69028	108.94973	106.0847	40.99454	0.32883	 	1619765.207	 	3.73085E-6	 	34980.253	37.8708	 
960.0	1.0	0.0	7.36273	7.41216	-5.82423	16.03183	27.79478	1.44567	0.69172	109.6563	106.65004	41.26651	0.32864	 	1773065.515	 	3.39452E-6	 	34790.838	37.883	 
955.0	1.0	0.0	7.3648	7.41008	-5.85058	16.01323	27.74007	1.44265	0.69317	110.36338	107.21458	41.53876	0.32844	 	1942343.937	 	3.08611E-6	 	34601.349	37.8978	 
950.0	1.0	0.0	7.36685	7.40801	-5.87688	15.99463	27.68543	1.43961	0.69463	111.07094	107.77829	41.81127	0.32824	 	2129415.144	 	2.80354E-6	 	34411.779	37.914	 
945.0	1.0	0.0	7.36891	7.40595	-5.90313	15.97603	27.63088	1.43656	0.69611	111.77894	108.34114	42.08402	0.32804	 	2336316.572	 	2.54481E-6	 	34222.115	37.9328	 
940.0	1.0	0.0	7.37096	7.40389	-5.92933	15.95743	27.57641	1.43349	0.6976	112.48732	108.90307	42.35701	0.32785	 	2565337.777	 	2.30811E-6	 	34032.346	37.9538	 
935.0	1.0	0.0	7.37301	7.40183	-5.95547	15.93884	27.52204	1.4304	0.6991	113.19606	109.46407	42.6302	0.32765	 	2819053.943	 	2.09172E-6	 	33842.462	37.9768	 
930.0	1.0	0.0	7.37506	7.39977	-5.98157	15.92025	27.46777	1.4273	0.70063	113.90512	110.02408	42.90359	0.32745	 	3100364.137	 	1.89406E-6	 	33652.45	38.0024	 
925.0	1.0	0.0	7.3771	7.39772	-6.00762	15.90165	27.4136	1.42417	0.70216	114.61443	110.58308	43.17717	0.32726	 	3412535.031	 	1.71364E-6	 	33462.297	38.0306	 
920.0	1.0	0.0	7.37914	7.39568	-6.03361	15.88306	27.35955	1.42103	0.70371	115.32398	111.14102	43.45091	0.32706	 	3759250.941	 	1.5491E-6	 	33271.991	38.0612	 
915.0	1.0	0.0	7.38118	7.39364	-6.05955	15.86448	27.30561	1.41787	0.70528	116.03372	111.69788	43.7248	0.32686	 	4144671.124	 	1.39916E-6	 	33081.518	38.0946	 
910.0	1.0	0.0	7.38321	7.3916	-6.08545	15.84589	27.25181	1.41469	0.70687	116.74359	112.25361	43.99883	0.32667	 	4573495.48	 	1.26264E-6	 	32890.864	38.1308	 
905.0	1.0	0.0	7.38525	7.38956	-6.11129	15.82731	27.19813	1.41149	0.70847	117.45358	112.80817	44.27298	0.32647	 	5051039.949	 	1.13843E-6	 	32700.014	38.17	 
900.0	1.0	0.0	7.38728	7.38753	-6.13708	15.80872	27.1446	1.40828	0.71009	118.16362	113.36155	44.54724	0.32627	 	5583323.134	 	1.02553E-6	 	32508.952	38.2124	 
895.0	1.0	0.0	7.3893	7.38551	-6.16282	15.79014	27.09122	1.40504	0.71172	118.87369	113.91369	44.82158	0.32608	 	6177165.931	 	9.22988E-7	 	32317.663	38.2578	 
890.0	1.0	0.0	7.39133	7.38349	-6.18852	15.77157	27.03799	1.40178	0.71338	119.58373	114.46456	45.096	0.32588	 	6840306.222	 	8.2994E-7	 	32126.129	38.3068	 
885.0	1.0	0.0	7.39335	7.38147	-6.21416	15.75299	26.98493	1.3985	0.71505	120.29372	115.01413	45.37048	0.32568	 	7581531.076	 	7.45581E-7	 	31934.333	38.3592	 
880.0	1.0	0.0	7.39536	7.37945	-6.23975	15.73441	26.93203	1.39519	0.71675	121.0036	115.56236	45.645	0.32549	 	8410829.286	 	6.69166E-7	 	31742.255	38.4156	 
875.0	1.0	0.0	7.39738	7.37744	-6.26528	15.71584	26.87932	1.39187	0.71846	121.71334	116.10922	45.91954	0.32529	 	9339567.556	 	6.0001E-7	 	31549.877	38.4756	 
870.0	1.0	0.0	7.39939	7.37544	-6.29077	15.69727	26.8268	1.38852	0.72019	122.42289	116.65468	46.1941	0.32509	 	1.038069426E7	 	5.37482E-7	 	31357.177	38.54	 
865.0	1.0	0.0	7.4014	7.37344	-6.31621	15.6787	26.77446	1.38515	0.72194	123.13222	117.1987	46.46866	0.3249	 	1.154897531E7	 	4.80997E-7	 	31164.134	38.6086	 
860.0	1.0	0.0	7.40341	7.37144	-6.3416	15.66013	26.72234	1.38175	0.72372	123.84128	117.74123	46.7432	0.3247	 	1.286126762E7	 	4.30022E-7	 	30970.726	38.6816	 
855.0	1.0	0.0	7.40541	7.36944	-6.36693	15.64156	26.67042	1.37833	0.72551	124.55004	118.28227	47.0177	0.3245	 	1.43368363E7	 	3.84061E-7	 	30776.927	38.7598	 
850.0	1.0	0.0	7.40741	7.36745	-6.39222	15.623	26.61871	1.37489	0.72733	125.25844	118.82175	47.29215	0.3243	 	1.599772333E7	 	3.42662E-7	 	30582.713	38.8428	 
845.0	1.0	0.0	7.40941	7.36547	-6.41745	15.60444	26.56724	1.37142	0.72917	125.96646	119.35967	47.56654	0.32411	 	1.786917629E7	 	3.05409E-7	 	30388.056	38.9314	 
840.0	1.0	0.0	7.4114	7.36349	-6.44264	15.58588	26.51599	1.36793	0.73103	126.67405	119.89597	47.84084	0.32391	 	1.998014773E7	 	2.7192E-7	 	30192.929	39.0254	 
835.0	1.0	0.0	7.41339	7.36151	-6.46777	15.56732	26.46498	1.36441	0.73292	127.38116	120.43063	48.11505	0.32371	 	2.236387741E7	 	2.41846E-7	 	29997.3	39.1258	 
830.0	1.0	0.0	7.41538	7.35953	-6.49286	15.54876	26.41421	1.36086	0.73483	128.08776	120.96361	48.38915	0.32352	 	2.505857211E7	 	2.14865E-7	 	29801.138	39.2324	 
825.0	1.0	0.0	7.41737	7.35756	-6.51789	15.53021	26.36369	1.35729	0.73676	128.79382	121.49489	48.66312	0.32332	 	2.810820033E7	 	1.90684E-7	 	29604.408	39.346	 
820.0	1.0	0.0	7.41935	7.3556	-6.54287	15.51165	26.31343	1.35369	0.73872	129.49927	122.02442	48.93694	0.32312	 	3.156342247E7	 	1.69037E-7	 	29407.074	39.4668	 
815.0	1.0	0.0	7.42133	7.35363	-6.5678	15.4931	26.26343	1.35007	0.7407	130.20409	122.55218	49.21061	0.32293	 	3.548268098E7	 	1.49678E-7	 	29209.098	39.5952	 
810.0	1.0	0.0	7.42331	7.35168	-6.59269	15.47455	26.21369	1.34641	0.74271	130.90824	123.07813	49.48411	0.32273	 	3.993347988E7	 	1.32385E-7	 	29010.438	39.732	 
805.0	1.0	0.0	7.42528	7.34972	-6.61752	15.456	26.16421	1.34273	0.74475	131.61167	123.60225	49.75741	0.32253	 	4.499388816E7	 	1.16953E-7	 	28811.05	39.8776	 
800.0	1.0	0.0	7.42725	7.34777	-6.6423	15.43746	26.11501	1.33902	0.74681	132.31435	124.12449	50.03051	0.32234	 	5.075430917E7	 	1.03199E-7	 	28610.886	40.0328	 
795.0	1.0	0.0	7.42922	7.34582	-6.66703	15.41891	26.06608	1.33529	0.7489	133.01623	124.64483	50.3034	0.32214	 	5.731956536E7	 	9.09528E-8	 	28409.896	40.198	 
790.0	1.0	0.0	7.43119	7.34388	-6.6917	15.40037	26.01742	1.33152	0.75102	133.71727	125.16324	50.57604	0.32194	 	6.481135848E7	 	8.00627E-8	 	28208.025	40.3742	 
785.0	1.0	0.0	7.43315	7.34194	-6.71633	15.38183	25.96903	1.32773	0.75317	134.41744	125.67969	50.84844	0.32175	 	7.337117669E7	 	7.03896E-8	 	28005.215	40.562	 
780.0	1.0	0.0	7.43511	7.34001	-6.74091	15.36329	25.92092	1.32391	0.75534	135.11669	126.19413	51.12057	0.32155	 	8.316373484E7	 	6.18078E-8	 	27801.401	40.7628	 
775.0	1.0	0.0	7.43706	7.33808	-6.76544	15.34475	25.87308	1.32006	0.75754	135.81498	126.70655	51.39241	0.32135	 	9.438105159E7	 	5.42033E-8	 	27596.515	40.9772	 
770.0	1.0	0.0	7.43902	7.33615	-6.78992	15.32622	25.82551	1.31618	0.75977	136.51227	127.21692	51.66397	0.32116	 	1.072472884E8	 	4.74731E-8	 	27390.484	41.2062	 
765.0	1.0	0.0	7.44096	7.33423	-6.81434	15.30768	25.77821	1.31228	0.76203	137.20852	127.72519	51.93521	0.32096	 	1.220245012E8	 	4.15241E-8	 	27183.227	41.4514	 
760.0	1.0	0.0	7.44291	7.33231	-6.83872	15.28915	25.73116	1.30834	0.76433	137.9037	128.23135	52.20612	0.32076	 	1.390194884E8	 	3.62722E-8	 	26974.657	41.714	 
755.0	1.0	0.0	7.44486	7.3304	-6.86305	15.27062	25.68438	1.30438	0.76665	138.59775	128.73536	52.47669	0.32057	 	1.58591954E8	 	3.16419E-8	 	26764.68	41.9954	 
750.0	1.0	0.0	7.4468	7.32849	-6.88732	15.25209	25.63785	1.3004	0.769	139.29065	129.23718	52.7469	0.32037	 	1.811642581E8	 	2.75647E-8	 	26553.191	42.2978	 
745.0	1.0	0.0	7.44873	7.32658	-6.91155	15.23357	25.59155	1.29638	0.77138	139.98235	129.7368	53.01673	0.32017	 	2.072330769E8	 	2.39795E-8	 	26340.079	42.6224	 
740.0	1.0	0.0	7.45067	7.32468	-6.93572	15.21504	25.5455	1.29234	0.77379	140.67281	130.23418	53.28618	0.31997	 	2.37383373E8	 	2.0831E-8	 	26125.22	42.9718	 
735.0	1.0	0.0	7.4526	7.32278	-6.95984	15.19652	25.49966	1.28827	0.77623	141.362	130.72929	53.55523	0.31978	 	2.723051589E8	 	1.80699E-8	 	25908.478	43.3484	 
730.0	1.0	0.0	7.45453	7.32088	-6.98392	15.178	25.45404	1.28418	0.77871	142.04986	131.22211	53.82385	0.31958	 	3.128136456E8	 	1.56519E-8	 	25689.706	43.7544	 
725.0	1.0	0.0	7.45646	7.31899	-7.00794	15.15948	25.40862	1.28007	0.78121	142.73637	131.7126	54.09205	0.31938	 	3.59873502E8	 	1.35373E-8	 	25468.741	44.193	 
720.0	1.0	0.0	7.45838	7.31711	-7.03191	15.14096	25.36338	1.27593	0.78374	143.42148	132.20073	54.35979	0.31919	 	4.146281131E8	 	1.16908E-8	 	25245.401	44.668	 
715.0	1.0	0.0	7.4603	7.31522	-7.05584	15.12245	25.31832	1.27176	0.78631	144.10515	132.68648	54.62707	0.31899	 	4.784349281E8	 	1.00806E-8	 	25019.489	45.1824	 
710.0	1.0	0.0	7.46222	7.31334	-7.07971	15.10393	25.27341	1.26758	0.78891	144.78735	133.16981	54.89386	0.31879	 	5.529082432E8	 	8.67867E-9	 	24790.785	45.7408	 
705.0	1.0	0.0	7.46413	7.31147	-7.10353	15.08542	25.22864	1.26337	0.79154	145.46803	133.65071	55.16017	0.3186	 	6.399710729E8	 	7.45988E-9	 	24559.045	46.348	 
700.0	1.0	0.0	7.46604	7.3096	-7.1273	15.06691	25.18399	1.25914	0.79419	146.14716	134.12913	55.42596	0.3184	 	7.419181582E8	 	6.40192E-9	 	24323.998	47.0094	 
695.0	1.0	0.0	7.46795	7.30773	-7.15102	15.0484	25.13944	1.25489	0.79688	146.82469	134.60506	55.69122	0.3182	 	8.614926424E8	 	5.48501E-9	 	24057.356	53.3284	 
690.0	1.0	0.0	7.46985	7.30587	-7.17469	15.0299	25.09497	1.25062	0.7996	147.50058	135.07846	55.95595	0.31801	 	1.001979557E9	 	4.69161E-9	 	23792.114	53.0484	 
685.0	1.0	0.0	7.47175	7.30401	-7.19831	15.01139	25.05057	1.24633	0.80235	148.17481	135.54931	56.22012	0.31781	 	1.167320015E9	 	4.00618E-9	 	23530.208	52.3812	 
680.0	1.0	0.0	7.47365	7.30215	-7.22188	14.99289	25.0062	1.24203	0.80513	148.84732	136.01758	56.48372	0.31761	 	1.362250984E9	 	3.415E-9	 	23271.517	51.7382	 
675.0	1.0	0.0	7.47555	7.3003	-7.2454	14.97439	24.96184	1.23771	0.80795	149.51808	136.48324	56.74673	0.31742	 	1.592476679E9	 	2.90597E-9	 	23015.925	51.1184	 
670.0	1.0	0.0	7.47744	7.29846	-7.26887	14.95589	24.91748	1.23337	0.81078	150.18705	136.94626	57.00914	0.31722	 	1.864879184E9	 	2.46841E-9	 	22763.324	50.5202	 
665.0	1.0	0.0	7.47933	7.29661	-7.29229	14.93739	24.87308	1.22902	0.81365	150.8542	137.40663	57.27094	0.31702	 	2.187777777E9	 	2.09294E-9	 	22513.609	49.943	 
660.0	1.0	0.0	7.48121	7.29477	-7.31566	14.9189	24.82863	1.22466	0.81655	151.51947	137.86431	57.53211	0.31683	 	2.571248905E9	 	1.77131E-9	 	22266.681	49.3856	 
655.0	1.0	0.0	7.48309	7.29294	-7.33898	14.9004	24.78408	1.22029	0.81948	152.18284	138.31927	57.79263	0.31663	 	3.027521798E9	 	1.4963E-9	 	22022.447	48.8468	 
650.0	1.0	0.0	7.48497	7.29111	-7.36224	14.88191	24.73943	1.21591	0.82243	152.84426	138.77149	58.05248	0.31643	 	3.571468682E9	 	1.26157E-9	 	21780.816	48.3262	 
645.0	1.0	0.0	7.48685	7.28928	-7.38546	14.86342	24.69465	1.21151	0.82541	153.5037	139.22094	58.31167	0.31623	 	4.221213495E9	 	1.06161E-9	 	21541.703	47.8226	 
640.0	1.0	0.0	7.48872	7.28746	-7.40863	14.84493	24.6497	1.20711	0.82842	154.16112	139.6676	58.57016	0.31604	 	4.998889447E9	 	8.9157E-10	 	21305.028	47.335	 
635.0	1.0	0.0	7.49059	7.28564	-7.43175	14.82644	24.60456	1.20271	0.83146	154.81648	140.11144	58.82795	0.31584	 	5.931583926E9	 	7.47263E-10	 	21070.714	46.8628	 
630.0	1.0	0.0	7.49246	7.28382	-7.45481	14.80796	24.5592	1.19829	0.83452	155.46973	140.55243	59.08501	0.31564	 	7.052519774E9	 	6.25032E-10	 	20838.686	46.4056	 
625.0	1.0	0.0	7.49432	7.28201	-7.47783	14.78948	24.5136	1.19388	0.83761	156.12086	140.99056	59.34134	0.31545	 	8.402535488E9	 	5.21705E-10	 	20608.874	45.9624	 
620.0	1.0	0.0	7.49619	7.2802	-7.5008	14.771	24.46773	1.18946	0.84072	156.7698	141.42579	59.59692	0.31525	 	1.00319E10	 	4.34536E-10	 	20381.213	45.5322	 
615.0	1.0	0.0	7.49804	7.2784	-7.52371	14.75252	24.42156	1.18503	0.84386	157.41654	141.8581	59.85174	0.31505	 	1.2002899999999998E10	 	3.6115E-10	 	20155.639	45.1148	 
610.0	1.0	0.0	7.4999	7.2766	-7.54658	14.73404	24.37508	1.18061	0.84702	158.06102	142.28746	60.10577	0.31486	 	1.4392199999999998E10	 	2.99497E-10	 	19932.09	44.7098	 
605.0	1.0	0.0	7.50175	7.2748	-7.56939	14.71556	24.32824	1.17619	0.85021	158.70321	142.71386	60.35902	0.31466	 	1.72954E10	 	2.47813E-10	 	19710.509	44.3162	 
600.0	1.0	0.0	7.5036	7.27301	-7.59216	14.69709	24.28104	1.17176	0.85342	159.34308	143.13726	60.61145	0.31446	 	2.08311E10	 	2.0458E-10	 	19490.841	43.9336	 
595.0	1.0	0.0	7.50544	7.27122	-7.61487	14.67862	24.23344	1.16734	0.85665	159.98058	143.55764	60.86306	0.31427	 	2.5147099999999996E10	 	1.68497E-10	 	19273.034	43.5614	 
590.0	1.0	0.0	7.50728	7.26944	-7.63754	14.66015	24.18543	1.16292	0.8599	160.61569	143.97498	61.11383	0.31407	 	3.0428499999999996E10	 	1.3845E-10	 	19057.037	43.1994	 
585.0	1.0	0.0	7.50912	7.26766	-7.66015	14.64168	24.13698	1.15851	0.86318	161.24835	144.38926	61.36375	0.31387	 	3.69069E10	 	1.13486E-10	 	18842.802	42.847	 
580.0	1.0	0.0	7.51096	7.26588	-7.68272	14.62321	24.08807	1.15409	0.86648	161.87854	144.80044	61.6128	0.31368	 	4.48734E10	 	9.27947E-11	 	18630.283	42.5038	 
575.0	1.0	0.0	7.51279	7.26411	-7.70523	14.60475	24.03868	1.14969	0.8698	162.50621	145.20851	61.86096	0.31348	 	5.469459999999999E10	 	7.56859E-11	 	18419.437	42.1692	 
570.0	1.0	0.0	7.51462	7.26234	-7.72769	14.58628	23.98879	1.14529	0.87314	163.13134	145.61345	62.10824	0.31328	 	6.683369999999999E10	 	6.15738E-11	 	18210.221	41.8432	 
565.0	1.0	0.0	7.51644	7.26058	-7.75011	14.56782	23.93839	1.14089	0.87651	163.75388	146.01523	62.3546	0.31309	 	8.18772E10	 	4.99627E-11	 	18002.596	41.525	 
560.0	1.0	0.0	7.51827	7.25882	-7.77247	14.54936	23.88747	1.1365	0.87989	164.37379	146.41383	62.60003	0.31289	 	1.0057E11	 	4.04335E-11	 	17796.523	41.2146	 
555.0	1.0	0.0	7.52009	7.25706	-7.79478	14.5309	23.836	1.13212	0.8833	164.99105	146.80922	62.84453	0.31269	 	1.23861E11	 	3.26332E-11	 	17591.965	40.9116	 
550.0	1.0	0.0	7.5219	7.25531	-7.81705	14.51245	23.78398	1.12775	0.88672	165.60561	147.20138	63.08807	0.3125	 	1.52963E11	 	2.62651E-11	 	17388.887	40.6156	 
545.0	1.0	0.0	7.52372	7.25356	-7.83926	14.49399	23.73139	1.12338	0.89017	166.21744	147.5903	63.33065	0.3123	 	1.89428E11	 	2.10802E-11	 	17187.256	40.3262	 
540.0	1.0	0.0	7.52553	7.25182	-7.86142	14.47554	23.67823	1.11902	0.89364	166.82649	147.97595	63.57224	0.3121	 	2.35252E11	 	1.68704E-11	 	16987.039	40.0434	 
535.0	1.0	0.0	7.52733	7.25008	-7.88354	14.45709	23.6245	1.11467	0.89712	167.43275	148.35831	63.81283	0.3119	 	2.93007E11	 	1.34617E-11	 	16788.205	39.7668	 
530.0	1.0	0.0	7.52914	7.24834	-7.9056	14.43864	23.57018	1.11033	0.90063	168.03616	148.73735	64.05242	0.31171	 	3.6602E11	 	1.07097E-11	 	16590.725	39.496	 
525.0	1.0	0.0	7.53094	7.24661	-7.92761	14.4202	23.51527	1.10599	0.90417	168.6367	149.11306	64.29098	0.31151	 	4.58605E11	 	8.4944E-12	 	16394.569	39.2312	 
520.0	1.0	0.0	7.53273	7.24488	-7.94957	14.40175	23.45978	1.10166	0.90772	169.23432	149.48541	64.5285	0.31131	 	5.76376E11	 	6.71639E-12	 	16199.71	38.9718	 
515.0	1.0	0.0	7.53453	7.24316	-7.97149	14.38331	23.40369	1.09734	0.91129	169.829	149.85439	64.76497	0.31112	 	7.26667E11	 	5.29371E-12	 	16006.122	38.7176	 
510.0	1.0	0.0	7.53632	7.24144	-7.99335	14.36487	23.34702	1.09303	0.91489	170.4207	150.21997	65.00037	0.31092	 	9.19081E11	 	4.15889E-12	 	15813.78	38.4684	 
505.0	1.0	0.0	7.5381	7.23972	-8.01516	14.34643	23.28977	1.08872	0.91851	171.00938	150.58213	65.2347	0.31072	 	1.16625E12	 	3.25656E-12	 	15622.659	38.2242	 
500.0	1.0	0.0	7.53989	7.23801	-8.03692	14.32799	23.23194	1.08442	0.92216	171.59501	150.94086	65.46792	0.31053	 	1.48482E12	 	2.54142E-12	 	15432.735	37.9848	 
495.0	1.0	0.0	7.54167	7.2363	-8.05863	14.30955	23.17355	1.08012	0.92582	172.17755	151.29613	65.70004	0.31033	 	1.89687E12	 	1.9765E-12	 	15243.986	37.7498	 
490.0	1.0	0.0	7.54344	7.23459	-8.0803	14.29112	23.11459	1.07582	0.92952	172.75697	151.64793	65.93104	0.31013	 	2.43169E12	 	1.53175E-12	 	15056.391	37.519	 
485.0	1.0	0.0	7.54522	7.23289	-8.10191	14.27269	23.05509	1.07153	0.93324	173.33324	151.99624	66.16091	0.30994	 	3.12838E12	 	1.18283E-12	 	14869.927	37.2928	 
480.0	1.0	0.0	7.54699	7.23119	-8.12347	14.25425	22.99505	1.06725	0.93699	173.90632	152.34102	66.38963	0.30974	 	4.03928E12	 	9.10048E-13	 	14684.575	37.0704	 
475.0	1.0	0.0	7.54876	7.2295	-8.14498	14.23583	22.93449	1.06296	0.94077	174.47617	152.68228	66.61718	0.30954	 	5.23474E12	 	6.97558E-13	 	14500.314	36.8522	 
470.0	1.0	0.0	7.55052	7.22781	-8.16644	14.2174	22.87343	1.05868	0.94458	175.04277	153.01999	66.84356	0.30935	 	6.8097E12	 	5.32642E-13	 	14317.128	36.6372	 
465.0	1.0	0.0	7.55228	7.22613	-8.18786	14.19897	22.81188	1.05439	0.94842	175.60608	153.35413	67.06876	0.30915	 	8.89277E12	 	4.0513E-13	 	14134.995	36.4266	 
460.0	1.0	0.0	7.55404	7.22445	-8.20922	14.18055	22.74985	1.0501	0.95229	176.16607	153.68468	67.29275	0.30895	 	1.16589E13	 	3.06917E-13	 	13953.9	36.219	 
455.0	1.0	0.0	7.55579	7.22277	-8.23053	14.16213	22.68738	1.04581	0.95619	176.72271	154.01163	67.51552	0.30876	 	1.53473E13	 	2.31567E-13	 	13773.825	36.015	 
450.0	1.0	0.0	7.55754	7.2211	-8.25179	14.14371	22.62448	1.04152	0.96014	177.27596	154.33496	67.73707	0.30856	 	2.02857E13	 	1.7399E-13	 	13594.754	35.8142	 
445.0	1.0	0.0	7.55929	7.21943	-8.273	14.12529	22.56117	1.03722	0.96411	177.82579	154.65466	67.95739	0.30836	 	2.69263E13	 	1.30174E-13	 	13416.67	35.6168	 
440.0	1.0	0.0	7.56104	7.21776	-8.29416	14.10687	22.49747	1.03292	0.96813	178.37217	154.9707	68.17644	0.30817	 	3.58947E13	 	9.69701E-14	 	13239.558	35.4224	 
435.0	1.0	0.0	7.56278	7.2161	-8.31527	14.08846	22.43341	1.0286	0.97219	178.91506	155.28307	68.39423	0.30797	 	4.80609E13	 	7.19151E-14	 	13063.403	35.231	 
430.0	1.0	0.0	7.56452	7.21444	-8.33634	14.07005	22.36901	1.02428	0.97629	179.45445	155.59175	68.61075	0.30777	 	6.46404E13	 	5.30922E-14	 	12888.19	35.0426	 
425.0	1.0	0.0	7.56625	7.21279	-8.35735	14.05164	22.3043	1.01995	0.98044	179.99029	155.89673	68.82597	0.30758	 	8.73395E13	 	3.90144E-14	 	12713.905	34.857	 
420.0	1.0	0.0	7.56798	7.21114	-8.37831	14.03323	22.23929	1.0156	0.98464	180.52255	156.198	69.03989	0.30738	 	1.18565E14	 	2.85337E-14	 	12540.535	34.674	 
415.0	1.0	0.0	7.56971	7.20949	-8.39922	14.01482	22.17403	1.01124	0.98888	181.05121	156.49554	69.2525	0.30718	 	1.61728E14	 	2.07675E-14	 	12368.065	34.494	 
410.0	1.0	0.0	7.57143	7.20785	-8.42008	13.99642	22.10852	1.00687	0.99318	181.57623	156.78933	69.46378	0.30698	 	2.2169E14	 	1.50403E-14	 	12196.484	34.3162	 
405.0	1.0	0.0	7.57315	7.20621	-8.44089	13.97801	22.04281	1.00248	0.99752	182.09758	157.07936	69.67372	0.30679	 	3.05413E14	 	1.08374E-14	 	12025.779	34.141	 
400.0	1.0	0.0	7.57487	7.20458	-8.46166	13.95961	21.9769	0.99807	1.00193	182.61525	157.36562	69.88231	0.30659	 	4.22919E14	 	7.76858E-15	 	11855.936	33.9686	 
395.0	1.0	0.0	7.57659	7.20295	-8.48237	13.94121	21.91084	0.99365	1.00639	183.12919	157.64809	70.08954	0.30639	 	5.88718E14	 	5.53928E-15	 	11686.945	33.7982	 
390.0	1.0	0.0	7.5783	7.20132	-8.50303	13.92281	21.84464	0.9892	1.01092	183.63938	157.92676	70.2954	0.3062	 	8.2393E14	 	3.92833E-15	 	11518.794	33.6302	 
385.0	1.0	0.0	7.58	7.1997	-8.52364	13.90442	21.77833	0.98473	1.0155	184.14579	158.20162	70.49987	0.306	 	1.15947E15	 	2.77046E-15	 	11351.471	33.4646	 
380.0	1.0	0.0	7.58171	7.19808	-8.5442	13.88602	21.71194	0.98024	1.02016	184.64839	158.47266	70.70294	0.3058	 	1.64086E15	 	1.9428E-15	 	11184.966	33.301	 
375.0	1.0	0.0	7.58341	7.19647	-8.56472	13.86763	21.64548	0.97572	1.02488	185.14716	158.73986	70.90461	0.30561	 	2.33551E15	 	1.35451E-15	 	11019.267	33.1398	 
370.0	1.0	0.0	7.58511	7.19486	-8.58518	13.84924	21.57899	0.97118	1.02968	185.64207	159.00321	71.10486	0.30541	 	3.34387E15	 	9.38751E-16	 	10854.365	32.9804	 
365.0	1.0	0.0	7.5868	7.19325	-8.60559	13.83085	21.51248	0.96661	1.03455	186.13309	159.26271	71.30368	0.30521	 	4.81652E15	 	6.4666E-16	 	10690.25	32.823	 
360.0	1.0	0.0	7.58849	7.19165	-8.62595	13.81246	21.44599	0.96201	1.03949	186.6202	159.51834	71.50106	0.30502	 	6.98067E15	 	4.42687E-16	 	10526.91	32.668	 
355.0	1.0	0.0	7.59018	7.19005	-8.64627	13.79408	21.37952	0.95738	1.04452	187.10338	159.7701	71.697	0.30482	 	1.01813E16	 	3.01125E-16	 	10364.338	32.5144	 
350.0	1.0	0.0	7.59186	7.18845	-8.66653	13.77569	21.3131	0.95272	1.04963	187.58259	160.01797	71.89147	0.30462	 	1.49458E16	 	2.03498E-16	 	10202.523	32.363	 
345.0	1.0	0.0	7.59354	7.18686	-8.68674	13.75731	21.24676	0.94802	1.05483	188.05782	160.26194	72.08448	0.30443	 	2.20856E16	 	1.36607E-16	 	10041.456	32.2134	 
340.0	1.0	0.0	7.59522	7.18527	-8.70691	13.73893	21.1805	0.9433	1.06011	188.52904	160.50202	72.276	0.30423	 	3.28583E16	 	9.10769E-17	 	9881.128	32.0656	 
335.0	1.0	0.0	7.59689	7.18369	-8.72702	13.72055	21.11436	0.93854	1.06549	188.99623	160.73818	72.46604	0.30403	 	4.92264E16	 	6.02975E-17	 	9721.531	31.9194	 
330.0	1.0	0.0	7.59856	7.18211	-8.74708	13.70217	21.04834	0.93374	1.07096	189.45937	160.97043	72.65459	0.30384	 	7.42748E16	 	3.96343E-17	 	9562.656	31.775	 
325.0	1.0	0.0	7.60023	7.18054	-8.7671	13.6838	20.98246	0.92891	1.07654	189.91843	161.19875	72.84162	0.30364	 	1.12889E17	 	2.5861E-17	 	9404.495	31.6322	 
320.0	1.0	0.0	7.6019	7.17897	-8.78706	13.66543	20.91674	0.92403	1.08221	190.3734	161.42315	73.02715	0.30344	 	1.72865E17	 	1.67473E-17	 	9247.04	31.491	 
315.0	1.0	0.0	7.60356	7.1774	-8.80697	13.64706	20.85119	0.91913	1.08799	190.82426	161.64361	73.21115	0.30325	 	2.66739E17	 	1.07619E-17	 	9090.282	31.3516	 
310.0	1.0	0.0	7.60521	7.17584	-8.82684	13.62869	20.78582	0.91418	1.09388	191.27098	161.86013	73.39362	0.30305	 	4.14835E17	 	6.86106E-18	 	8934.214	31.2136	 
305.0	1.0	0.0	7.60686	7.17428	-8.84665	13.61032	20.72064	0.90919	1.09988	191.71355	162.07272	73.57455	0.30285	 	6.5037E17	 	4.33877E-18	 	8778.829	31.077	 
300.0	1.0	0.0	7.60851	7.17272	-8.86642	13.59195	20.65568	0.90416	1.106	192.15195	162.28136	73.75394	0.30266	 	1.02809E18	 	2.72098E-18	 	8624.119	30.942	 
295.0	1.0	0.0	7.61016	7.17117	-8.88613	13.57359	20.59092	0.89909	1.11223	192.58617	162.48605	73.93177	0.30246	 	1.63898E18	 	1.6919E-18	 	8470.078	30.8082	 
290.0	1.0	0.0	7.6118	7.16962	-8.9058	13.55523	20.5264	0.89398	1.11859	193.01619	162.68679	74.10805	0.30226	 	2.63566E18	 	1.04285E-18	 	8316.697	30.6762	 
285.0	1.0	0.0	7.61344	7.16808	-8.92541	13.53687	20.4621	0.88883	1.12508	193.44199	162.88359	74.28276	0.30207	 	4.27636E18	 	6.37035E-19	 	8163.971	30.5452	 
280.0	1.0	0.0	7.61508	7.16654	-8.94498	13.51851	20.39804	0.88363	1.13169	193.86356	163.07644	74.4559	0.30187	 	7.00211E18	 	3.85568E-19	 	8011.892	30.4158	 
275.0	1.0	0.0	7.61671	7.165	-8.96449	13.50015	20.33422	0.87839	1.13844	194.2809	163.26535	74.62746	0.30167	 	1.15734E19	 	2.31167E-19	 	7860.455	30.2874	 
270.0	1.0	0.0	7.61834	7.16347	-8.98396	13.4818	20.27065	0.87311	1.14533	194.69398	163.45031	74.79744	0.30147	 	1.93141E19	 	1.37256E-19	 	7709.653	30.1604	 
265.0	1.0	0.0	7.61997	7.16194	-9.00338	13.46345	20.20732	0.86779	1.15236	195.10279	163.63133	74.96583	0.30128	 	3.25526E19	 	8.06871E-20	 	7559.479	30.0348	 
260.0	1.0	0.0	7.62159	7.16042	-9.02274	13.44509	20.14426	0.86241	1.15954	195.50734	163.80841	75.13264	0.30108	 	5.54257E19	 	4.69488E-20	 	7409.929	29.91	 
255.0	1.0	0.0	7.62321	7.1589	-9.04206	13.42674	20.08144	0.857	1.16686	195.90761	163.98157	75.29785	0.30088	 	9.53611E19	 	2.70317E-20	 	7260.996	29.7866	 
250.0	1.0	0.0	7.62482	7.15738	-9.06133	13.4084	20.01888	0.85154	1.17435	196.30359	164.1508	75.46146	0.30069	 	1.65841E20	 	1.53965E-20	 	7112.674	29.6644	 
245.0	1.0	0.0	7.62643	7.15587	-9.08054	13.39005	19.95657	0.84603	1.18199	196.69528	164.31611	75.62347	0.30049	 	2.9160999999999997E20	 	8.67242E-21	 	6964.959	29.543	 
240.0	1.0	0.0	7.62804	7.15436	-9.09971	13.37171	19.89452	0.84048	1.18979	197.08268	164.47751	75.78388	0.30029	 	5.1860699999999997E20	 	4.82939E-21	 	6817.845	29.4228	 
235.0	1.0	0.0	7.62965	7.15285	-9.11883	13.35336	19.83272	0.83489	1.19777	197.46579	164.63501	75.94269	0.3001	 	9.331269999999999E20	 	2.65789E-21	 	6671.326	29.3038	 
230.0	1.0	0.0	7.63125	7.15135	-9.1379	13.33502	19.77117	0.82924	1.20592	197.8446	164.78863	76.09989	0.2999	 	1.69924E21	 	1.4452E-21	 	6525.399	29.1854	 
225.0	1.0	0.0	7.63285	7.14986	-9.15691	13.31669	19.70987	0.82356	1.21424	198.21911	164.93838	76.25549	0.2997	 	3.13281E21	 	7.76091E-22	 	6380.057	29.0684	 
220.0	1.0	0.0	7.63444	7.14836	-9.17588	13.29835	19.64881	0.81783	1.22276	198.58934	165.08426	76.40948	0.29951	 	5.84972E21	 	4.11463E-22	 	6235.297	28.952	 
215.0	1.0	0.0	7.63603	7.14687	-9.1948	13.28001	19.58799	0.81205	1.23146	198.95527	165.2263	76.56188	0.29931	 	1.1066799999999998E22	 	2.15287E-22	 	6091.115	28.8364	 
210.0	1.0	0.0	7.63762	7.14539	-9.21367	13.26168	19.52741	0.80622	1.24035	199.31693	165.36451	76.71267	0.29911	 	2.12211E22	 	1.11122E-22	 	5947.506	28.7218	 
205.0	1.0	0.0	7.6392	7.14391	-9.23249	13.24335	19.46706	0.80035	1.24945	199.67433	165.49891	76.86186	0.29892	 	4.126169999999999E22	 	5.65592E-23	 	5804.465	28.6082	 
200.0	1.0	0.0	7.64078	7.14243	-9.25126	13.22502	19.40693	0.79444	1.25875	200.02746	165.62953	77.00946	0.29872	 	8.1386E22	 	2.8375E-23	 	5661.99	28.495	 
195.0	1.0	0.0	7.64236	7.14096	-9.26998	13.20669	19.34702	0.78848	1.26827	200.37635	165.75638	77.15547	0.29852	 	1.62917E23	 	1.4025E-23	 	5520.076	28.3828	 
190.0	1.0	0.0	7.64393	7.13949	-9.28865	13.18837	19.28732	0.78247	1.27801	200.72101	165.87949	77.2999	0.29833	 	3.3113399999999995E23	 	6.82661E-24	 	5378.72	28.2712	 
185.0	1.0	0.0	7.6455	7.13802	-9.30728	13.17004	19.22784	0.77642	1.28797	201.06147	165.99889	77.44275	0.29813	 	6.83705E23	 	3.27059E-24	 	5237.918	28.1604	 
180.0	1.0	0.0	7.64707	7.13656	-9.32585	13.15172	19.16855	0.77032	1.29816	201.39774	166.1146	77.58403	0.29793	 	1.4347700000000002E24	 	1.54151E-24	 	5097.669	28.0498	 
175.0	1.0	0.0	7.64863	7.1351	-9.34437	13.1334	19.10946	0.76417	1.3086	201.72984	166.22665	77.72375	0.29774	 	3.06181E24	 	7.14384E-25	 	4957.968	27.9402	 
170.0	1.0	0.0	7.65019	7.13365	-9.36284	13.11508	19.05056	0.75799	1.31929	202.05781	166.33509	77.86192	0.29754	 	6.64805E24	 	3.25344E-25	 	4818.813	27.831	 
165.0	1.0	0.0	7.65174	7.1322	-9.38126	13.09676	18.99183	0.75175	1.33023	202.38168	166.43994	77.99855	0.29734	 	1.4695500000000002E25	 	1.45521E-25	 	4680.202	27.7222	 
160.0	1.0	0.0	7.65329	7.13075	-9.39964	13.07845	18.93328	0.74547	1.34144	202.70148	166.54124	78.13365	0.29715	 	3.3091100000000003E25	 	6.38872E-26	 	4542.132	27.614	 
155.0	1.0	0.0	7.65484	7.12931	-9.41796	13.06014	18.8749	0.73914	1.35292	203.01724	166.63904	78.26724	0.29695	 	7.595420000000001E25	 	2.75126E-26	 	4404.601	27.5062	 
150.0	1.0	0.0	7.65639	7.12787	-9.43624	13.04182	18.81668	0.73277	1.36468	203.32902	166.73338	78.39933	0.29675	 	1.77826E26	 	1.16141E-26	 	4267.608	27.3986	 
145.0	1.0	0.0	7.65793	7.12644	-9.45446	13.02351	18.75862	0.72636	1.37674	203.63685	166.82431	78.52994	0.29656	 	4.24958E26	 	4.80255E-27	 	4131.152	27.2912	 
140.0	1.0	0.0	7.65947	7.12501	-9.47264	13.00521	18.7007	0.71989	1.3891	203.94079	166.91187	78.65908	0.29636	 	1.03734E27	 	1.94389E-27	 	3995.23	27.1844	 
135.0	1.0	0.0	7.661	7.12358	-9.49076	12.9869	18.64292	0.71338	1.40177	204.24089	166.99612	78.78679	0.29616	 	2.58856E27	 	7.69569E-28	 	3859.842	27.0776	 
130.0	1.0	0.0	7.66253	7.12216	-9.50884	12.9686	18.58527	0.70683	1.41477	204.5372	167.07713	78.91307	0.29597	 	6.60854E27	 	2.97747E-28	 	3724.987	26.971	 
125.0	1.0	0.0	7.66406	7.12074	-9.52686	12.95029	18.52775	0.70023	1.4281	204.8298	167.15494	79.03796	0.29577	 	1.72755E28	 	1.12487E-28	 	3590.666	26.8642	 
120.0	1.0	0.0	7.66558	7.11932	-9.54484	12.93199	18.47035	0.69359	1.44178	205.11876	167.22964	79.16148	0.29557	 	4.628340000000001E28	 	4.14591E-29	 	3456.877	26.7578	 
115.0	1.0	0.0	7.6671	7.11791	-9.56277	12.91369	18.41307	0.6869	1.45582	205.40414	167.30129	79.28366	0.29538	 	1.2720200000000002E29	 	1.48933E-29	 	3323.621	26.6512	 
110.0	1.0	0.0	7.66861	7.11651	-9.58064	12.8954	18.35589	0.68016	1.47024	205.68604	167.36996	79.40453	0.29518	 	3.58978E29	 	5.2094E-30	 	3190.899	26.5444	 
105.0	1.0	0.0	7.67013	7.1151	-9.59847	12.8771	18.29882	0.67338	1.48505	205.96454	167.43573	79.52413	0.29498	 	1.04136E30	 	1.77236E-30	 	3058.712	26.4374	 
100.0	1.0	0.0	7.67164	7.1137	-9.61625	12.85881	18.24184	0.66655	1.50026	206.23974	167.4987	79.64248	0.29478	 	3.1085999999999997E30	 	5.85875E-31	 	2927.06	26.3304	 
95.0	1.0	0.0	7.67314	7.11231	-9.63398	12.84052	18.18495	0.65968	1.5159	206.51174	167.55896	79.75964	0.29459	 	9.56022E30	 	1.8795E-31	 	2795.946	26.2228	 
90.0	1.0	0.0	7.67464	7.11092	-9.65166	12.82223	18.12814	0.65276	1.53197	206.78065	167.61659	79.87564	0.29439	 	3.03277E31	 	5.84431E-32	 	2665.371	26.115	 
85.0	1.0	0.0	7.67614	7.10953	-9.66929	12.80394	18.07142	0.64579	1.54849	207.0466	167.67172	79.99053	0.29419	 	9.93665E31	 	1.75919E-32	 	2535.339	26.0064	 
80.0	1.0	0.0	7.67763	7.10815	-9.68687	12.78565	18.01477	0.63878	1.5655	207.30971	167.72444	80.10436	0.294	 	3.36715E32	 	5.11898E-33	 	2405.853	25.8972	 
75.0	1.0	0.0	7.67913	7.10677	-9.7044	12.76737	17.95819	0.63172	1.58299	207.57012	167.77489	80.21718	0.2938	 	1.1817700000000001E33	 	1.43787E-33	 	2276.915	25.7876	 
70.0	1.0	0.0	7.68061	7.10539	-9.72189	12.74909	17.90168	0.62461	1.601	207.82798	167.82318	80.32905	0.2936	 	4.30247E33	 	3.89271E-34	 	2148.53	25.677	 
65.0	1.0	0.0	7.6821	7.10402	-9.73932	12.7308	17.84523	0.61745	1.61955	208.08346	167.86945	80.44003	0.29341	 	1.6274900000000001E34	 	1.01409E-34	 	2020.703	25.5654	 
60.0	1.0	0.0	7.68358	7.10265	-9.7567	12.71253	17.78883	0.61025	1.63866	208.33673	167.91386	80.55019	0.29321	 	6.407400000000001E34	 	2.53772E-35	 	1893.439	25.4528	 
55.0	1.0	0.0	7.68505	7.10129	-9.77403	12.69425	17.73249	0.603	1.65836	208.58797	167.95655	80.6596	0.29301	 	2.63026E35	 	6.08921E-36	 	1766.743	25.3392	 
50.0	1.0	0.0	7.68652	7.09993	-9.79132	12.67597	17.67619	0.59571	1.67868	208.83739	167.9977	80.76834	0.29282	 	1.128E36	 	1.39824E-36	 	1640.623	25.224	 
45.0	1.0	0.0	7.68799	7.09857	-9.80855	12.6577	17.61994	0.58836	1.69963	209.08521	168.03748	80.87649	0.29262	 	5.0641499999999993E36	 	3.06628E-37	 	1515.085	25.1076	 
40.0	1.0	0.0	7.68946	7.09722	-9.82574	12.63943	17.56373	0.58097	1.72126	209.33165	168.07608	80.98414	0.29242	 	2.3853E37	 	6.4076E-38	 	1390.138	24.9894	 
35.0	1.0	0.0	7.69092	7.09587	-9.84288	12.62116	17.50756	0.57353	1.7436	209.57698	168.11371	81.0914	0.29223	 	1.1815E38	 	1.27297E-38	 	1265.79	24.8696	 
30.0	1.0	0.0	7.69238	7.09452	-9.85996	12.60289	17.45142	0.56604	1.76667	209.82146	168.15059	81.19835	0.29203	 	6.16952E38	 	2.39824E-39	 	1142.052	24.7476	 
25.0	1.0	0.0	7.69383	7.09318	-9.877	 	17.39531	0.5585	1.79052	210.06538	168.18696	81.30513	0.29183	 	3.4052900000000005E39	 	4.27334E-40	 	1018.934	 	 
