T (C)	Fraction solid (wt)-TOTAL	Fraction liquid (wt)-LIQUID	Density (g/(cm)^3)-TOTAL	Molar volume (cm^3)-TOTAL	Volume change (%)-  	Average expansion coeff. (10e-6 1/K)-  	Thermal conductivity (W/(m*K))-TOTAL	Electrical resistivity (10e-6 Ohm*m)-TOTAL	Electrical conductivity (10e6 1/(Ohm*m))-TOTAL	Young's modulus (GPa)-TOTAL	Bulk modulus (GPa)-TOTAL	Shear modulus(GPa)-TOTAL	Poisson's ratio-TOTAL	Liquid viscosity (mPa s)-  	Total viscosity (mPa s)-  	Liquid diffusivity (10e-9 (m^2)/s)-  	Total diffusivity (10e-9 (m^2)/s)-  	Surface Tension (mN/m)-  	Enthalpy (J/mole)-TOTAL	Specific heat (J/(mole K))-TOTAL	Latent heat (J/mole)-TOTAL
1500.0	0.0	1.0	6.95848	7.84627	0.0	29.10099	31.40085	1.84002	0.54347	0.0	106.05592	0.0	0.49974	6.60666	6.60666	1.30994	1.30994	1763.73146	64623.775	 	0.0
1495.0	0.0	1.0	6.9624	7.84187	-0.0561804	29.05617	31.32479	1.83928	0.54369	0.0	106.2401	0.0	0.49974	6.66422	6.66422	1.29496	1.29496	1765.54887	64402.465	44.262	0.0
1490.0	0.0	1.0	6.9663	7.83747	-0.1122	29.01145	31.24873	1.83855	0.54391	0.0	106.42427	0.0	0.49974	6.72261	6.72261	1.28008	1.28008	1767.36339	64181.655	44.162	0.0
1485.0	0.0	1.0	6.9702	7.83309	-0.16807	28.96683	31.17266	1.83781	0.54413	0.0	106.60845	0.0	0.49974	6.78185	6.78185	1.2653	1.2653	1769.17501	63961.343	44.0624	0.0
1480.0	0.0	1.0	6.97409	7.82871	-0.22379	28.9223	31.0966	1.83706	0.54435	0.0	106.79263	0.0	0.49974	6.84196	6.84196	1.25062	1.25062	1770.98368	63741.524	43.9638	0.0
1475.0	0.0	1.0	6.97798	7.82436	-0.27934	28.87787	31.02054	1.83631	0.54457	0.0	106.97681	0.0	0.49974	6.90294	6.90294	1.23604	1.23604	1772.78938	63522.197	43.8654	0.0
1470.0	0.0	1.0	6.98185	7.82001	-0.33474	28.83354	30.94448	1.83556	0.54479	0.0	107.16098	0.0	0.49974	6.96482	6.96482	1.22155	1.22155	1774.59207	63303.357	43.768	0.0
1465.0	0.0	1.0	6.98573	7.81567	-0.38999	28.78931	30.86842	1.83481	0.54502	0.0	107.34516	0.0	0.49974	7.02762	7.02762	1.20716	1.20716	1776.39171	63085.001	43.6712	0.0
1460.0	0.0	1.0	6.98959	7.81135	-0.44507	28.74518	30.79236	1.83405	0.54524	0.0	107.52934	0.0	0.49974	7.09135	7.09135	1.19287	1.19287	1778.18828	62867.127	43.5748	0.0
1455.0	0.0	1.0	6.99345	7.80704	-0.5	28.70116	30.7163	1.83329	0.54547	0.0	107.71352	0.0	0.49974	7.15604	7.15604	1.17868	1.17868	1779.98173	62649.731	43.4792	0.0
1450.0	0.0	1.0	6.9973	7.80274	-0.55478	28.65723	30.64024	1.83252	0.5457	0.0	107.89769	0.0	0.49974	7.22169	7.22169	1.16458	1.16458	1781.77203	62432.839	43.3784	0.0
1445.0	0.0	1.0	7.00115	7.79846	-0.6094	28.61341	30.56418	1.83175	0.54593	0.0	108.08187	0.0	0.49974	7.28834	7.28834	1.15059	1.15059	1783.55913	62216.497	43.2684	0.0
1440.0	0.0	1.0	7.00499	7.79418	-0.66386	28.5697	30.48812	1.83098	0.54616	0.0	108.26605	0.0	0.49974	7.35599	7.35599	1.13669	1.13669	1785.34301	62000.698	43.1598	0.0
1435.0	0.0	1.0	7.00882	7.78992	-0.71817	28.52609	30.41205	1.8302	0.54639	0.0	108.45023	0.0	0.49974	7.42467	7.42467	1.12289	1.12289	1787.12363	61785.436	43.0524	0.0
1430.0	0.0	1.0	7.01264	7.78567	-0.77232	28.48259	30.33599	1.82942	0.54662	0.0	108.6344	0.0	0.49974	7.49441	7.49441	1.10918	1.10918	1788.90094	61570.709	42.9454	0.0
1428.55	0.0	1.0	7.01375	7.78445	-0.78799	28.47	30.31395	1.82919	0.54669	0.0	108.68778	0.0	0.49974	7.51481	7.51481	1.10523	1.10523	1789.41537	61508.574	42.8819	0.0070
1425.0	0.14454	0.85546	7.03785	7.75784	-1.1271	27.63083	30.54258	1.81171	0.55197	0.0322014	107.35834	0.0108764	0.48033	7.54169	12.99989	1.09899	0.63756	1787.49798	59731.841	500.344	1624.669
1420.0	0.30415	0.69585	7.06506	7.72811	-1.50602	26.70784	30.79258	1.79171	0.55813	0.64504	105.94834	0.22112	0.4586	7.5795	91.91441	1.09029	0.089908	1785.03265	57738.193	398.73	3404.647
1415.0	0.42456	0.57544	7.08643	7.70499	-1.80062	26.00647	30.97453	1.77592	0.56309	2.4933	104.95914	0.86455	0.44197	7.61689	336.92442	1.08173	0.0244549	1782.79665	56195.238	308.591	4734.457
1412.6	0.4697	0.5303	7.09466	7.69613	-1.91351	25.74535	31.03832	1.76975	0.56505	3.76198	104.62214	1.31018	0.43568	7.63508	512.13557	1.07762	0.0160655	1781.77927	55597.578	 	5229.985
1410.0	0.5186	0.4814	7.10367	7.6864	-2.03758	25.45661	31.13669	1.76144	0.56772	5.12497	103.90864	1.7936	0.42868	7.64858	767.01506	1.07406	0.0107104	1780.49565	54982.397	242.568	5734.674
1405.0	0.59589	0.40411	7.11839	7.67068	-2.23797	25.0025	31.2819	1.74806	0.57206	8.0998	102.89413	2.85698	0.41755	7.67454	1381.71339	1.06725	0.00592788	1778.25361	53976.034	201.273	6528.926
1400.0	0.65521	0.34479	7.13035	7.65796	-2.4	24.65003	31.37911	1.73745	0.57556	11.26456	102.23168	3.99761	0.40891	7.70045	2110.41385	1.06049	0.00386949	1776.23267	53159.517	163.303	7133.845
1395.0	0.70168	0.29832	7.14028	7.64747	-2.53373	24.37272	31.44165	1.72881	0.57843	14.46349	101.8138	5.15791	0.40207	7.72711	2916.05835	1.05367	0.00279207	1774.40318	52478.604	136.183	7603.669
1390.0	0.73873	0.26127	7.14873	7.63855	-2.6474	24.14867	31.47848	1.72161	0.58085	17.61537	101.5692	6.30674	0.39655	7.7541	3774.56972	1.04686	0.00215056	1772.74522	51896.89	116.343	7974.801
1385.0	0.76873	0.23127	7.15606	7.63083	-2.74576	23.96533	31.49602	1.71548	0.58293	20.6817	101.45118	7.42862	0.39203	7.78143	4671.70504	1.04004	0.00173235	1771.23845	51389.421	101.494	8272.189
1380.0	0.79367	0.20633	7.16264	7.62392	-2.83386	23.80911	31.49939	1.71012	0.58475	23.69732	101.42359	8.53514	0.38822	7.80911	5610.08011	1.03323	0.00143824	1769.86986	50935.346	90.815	8516.682
1375.0	0.81481	0.18519	7.16867	7.61769	-2.91322	23.67612	31.4923	1.70534	0.58639	26.68631	101.46467	9.63436	0.38495	7.83747	6593.48387	1.02638	0.00122002	1768.61794	50521.526	82.764	8721.416
1370.0	0.83294	0.16706	7.17429	7.6119	-2.98709	23.55747	31.47662	1.70101	0.58789	29.65728	101.55756	10.72897	0.38211	7.86585	7623.87022	1.01957	0.00105193	1767.48044	50139.609	76.3834	8894.74
1365.0	0.84865	0.15135	7.17957	7.60655	-3.05528	23.45391	31.4543	1.69704	0.58926	32.61653	101.69203	11.82089	0.37961	7.89521	8705.47424	1.01269	9.18434E-4	1766.43623	49783.38	71.2458	9042.866
1360.0	0.8624	0.1376	7.18461	7.60145	-3.12023	23.3587	31.42632	1.69336	0.59054	35.57035	101.8583	12.9122	0.37739	7.92454	9842.9492	1.00586	8.09818E-4	1765.48786	49448.135	67.049	9170.494
1355.0	0.87453	0.12547	7.18943	7.59663	-3.18171	23.2726	31.39382	1.68993	0.59174	38.51814	102.05081	14.0025	0.3754	7.95457	11041.74936	0.999	7.19686E-4	1764.61939	49130.254	63.5762	9281.241
1350.0	0.88532	0.11468	7.19409	7.59203	-3.24031	23.194	31.35753	1.68669	0.59288	41.4562	102.26474	15.09027	0.37361	7.98527	12307.66863	0.9921	6.43679E-4	1763.82368	48826.912	60.6684	9377.931
1345.0	0.89494	0.10506	7.19861	7.58758	-3.29701	23.12024	31.31795	1.68362	0.59396	44.38079	102.49561	16.17408	0.37197	8.01623	13647.26162	0.98522	5.78709E-4	1763.10069	48535.994	58.1836	9462.674
1340.0	0.90362	0.0963829	7.20303	7.58328	-3.35187	23.05117	31.27563	1.68069	0.595	47.28379	102.74081	17.25085	0.37048	8.04754	15067.64536	0.97836	5.22536E-4	1762.44159	48255.56	56.0868	9537.407
1338.06	0.90662	0.0933762	7.20467	7.58168	-3.37228	23.02681	31.25832	1.67959	0.59538	48.36383	102.84008	17.65171	0.36995	8.05993	15634.7446	0.97568	5.02976E-4	1762.19336	48150.273	 	9562.883
1335.0	0.91247	0.0875341	7.20789	7.57854	-3.41229	22.96561	31.23418	1.6777	0.59605	50.5516	102.97838	18.46371	0.36894	8.08282	16644.93255	0.97107	4.71554E-4	1762.55673	47970.659	56.9802	9617.08
1330.0	0.92122	0.0787772	7.21299	7.57364	-3.47463	22.87389	31.19233	1.67473	0.59711	54.11483	103.21889	19.78721	0.36742	8.1208	18378.45153	0.96352	4.25747E-4	1763.17499	47686.291	56.8736	9696.687
1325.0	0.92904	0.070965	7.21789	7.569	-3.53378	22.79064	31.1475	1.67191	0.59812	57.58795	103.47422	21.07858	0.36603	8.15893	20213.15608	0.95603	3.85896E-4	1763.82369	47412.937	54.6708	9765.747
1320.0	0.93605	0.0639509	7.22262	7.56457	-3.59029	22.71446	31.10037	1.6692	0.59909	60.94093	103.74148	22.32669	0.36476	8.19745	22160.13828	0.94856	3.5089E-4	1764.50109	47148.924	52.8026	9825.929
1315.0	0.94238	0.0576192	7.2272	7.56033	-3.64437	22.64478	31.05122	1.6666	0.60003	64.14758	104.01889	23.52176	0.36358	8.23625	24230.4758	0.94113	3.19902E-4	1765.20065	46892.91	51.2028	9878.573
1310.0	0.94813	0.051873	7.23165	7.55625	-3.69633	22.58073	31.0003	1.66408	0.60093	67.1916	104.30455	24.65767	0.36249	8.27595	26436.44167	0.93366	2.92284E-4	1765.91867	46643.803	49.8214	9924.767
1305.0	0.95336	0.046635	7.23601	7.55229	-3.74676	22.52071	30.94779	1.66164	0.60182	70.06467	104.59692	25.73124	0.36147	8.31561	28790.80917	0.92628	2.67535E-4	1766.66174	46400.709	48.6188	9965.403
1300.0	0.95816	0.0418409	7.24027	7.54847	-3.79554	22.46507	30.89394	1.65926	0.60268	72.76259	104.89507	26.74078	0.36052	8.35633	31307.18525	0.91884	2.45252E-4	1767.41773	46162.881	47.5656	10001.225
1295.0	0.96257	0.0374345	7.24446	7.54474	-3.84304	22.41279	30.83887	1.65694	0.60352	75.28952	105.19797	27.6877	0.35962	8.39747	34000.56742	0.91144	2.25107E-4	1768.1902	45929.698	46.6366	10032.852
1290.0	0.96663	0.0333709	7.24859	7.5411	-3.88943	22.3634	30.78271	1.65467	0.60435	77.6522	105.50484	28.57439	0.35877	8.43907	36886.8961	0.90405	2.06831E-4	1768.97864	45700.63	45.8136	10060.81
1285.0	0.97039	0.0296093	7.25266	7.53754	-3.93477	22.31673	30.7256	1.65244	0.60516	79.8598	105.81504	29.40413	0.35797	8.48158	39983.09418	0.89664	1.90204E-4	1769.77809	45475.228	45.0804	10085.544
1280.0	0.97389	0.0261147	7.25669	7.53405	-3.97921	22.27242	30.66762	1.65026	0.60597	81.9253	106.12802	30.18164	0.3572	8.52508	43308.35559	0.8892	1.75036E-4	1770.5872	45253.105	44.4246	10107.442
1275.0	0.97714	0.0228596	7.26067	7.53063	-4.02283	22.23021	30.60886	1.6481	0.60676	83.86089	106.44334	30.91136	0.35647	8.5696	46882.9628	0.88174	1.6117E-4	1771.40425	45033.927	43.8356	10126.836
1270.0	0.98018	0.0198164	7.26461	7.52726	-4.06583	22.18955	30.54939	1.64598	0.60754	85.68043	106.76048	31.59835	0.35577	8.61482	50729.20898	0.87428	1.48469E-4	1772.23464	44817.402	43.305	10144.012
1265.0	0.98304	0.0169624	7.26853	7.52393	-4.1082	22.15046	30.48928	1.64388	0.60832	87.39612	107.0792	32.24709	0.3551	8.66089	54870.94843	0.86681	1.36818E-4	1773.07214	44603.276	42.8252	10159.223
1260.0	0.98572	0.014275	7.27243	7.52065	-4.14999	22.1128	30.4286	1.6418	0.60909	89.02196	107.39921	32.86271	0.35445	8.70855	59335.75645	0.85926	1.26112E-4	1773.91312	44391.324	42.3904	10172.692
1255.0	0.98826	0.0117369	7.2763	7.51741	-4.19133	22.07623	30.36739	1.63974	0.60985	90.56936	107.72017	33.44943	0.35383	8.7568	64152.22251	0.85174	1.16263E-4	1774.7632	44181.348	41.9952	10184.613
1252.09	0.99055	0.00945257	7.27907	7.51535	-4.21764	22.04799	30.3325	1.6385	0.61031	91.82675	107.90629	33.92634	0.35333	8.78604	67378.831	0.84729	1.10484E-4	1775.25519	44052.796	 	10197.905
1250.0	0.99228	0.00772424	7.28075	7.51358	-4.24014	22.01644	30.30784	1.63759	0.61065	92.80267	108.05317	34.29767	0.3529	8.88064	69825.15738	0.83711	1.06468E-4	1774.60694	43947.603	46.749	10220.731
1245.0	0.99533	0.00467437	7.28457	7.50958	-4.29107	21.94959	30.24771	1.63546	0.61145	94.63645	108.39918	34.99635	0.35209	9.11023	75734.01534	0.81334	9.78386E-5	1773.28362	43712.436	47.0334	10258.694
1240.0	0.99739	0.00260784	7.28817	7.50581	-4.33918	21.89094	30.18653	1.63338	0.61223	96.02613	108.73891	35.52664	0.35147	9.34214	81841.80459	0.79054	9.02388E-5	1772.14332	43492.73	43.9412	10281.625
1235.0	0.99888	0.00112002	7.29164	7.50217	-4.38551	21.83731	30.12453	1.63133	0.613	97.15985	109.07448	35.95975	0.35095	9.57561	88269.40942	0.76871	8.33914E-5	1771.15659	43282.232	42.0996	10295.78
1230.0	1.0	0.0	7.29502	7.49864	-4.43061	21.78712	30.0623	1.62929	0.61377	98.13211	109.40697	36.33152	0.35051	 	95100.04809	 	7.71451E-5	 	43077.694	40.9076	10304.403
1225.0	1.0	0.0	7.29763	7.49595	-4.46478	21.77074	29.99713	1.6274	0.61448	98.56608	109.73119	36.49807	0.35029	 	102030.1763	 	7.1666E-5	 	42839.142	47.7104	 
1220.0	1.0	0.0	7.30024	7.49328	-4.49891	21.75437	29.93195	1.6255	0.6152	98.99993	110.05431	36.66463	0.35007	 	109517.2515	 	6.65438E-5	 	42652.37	37.3544	 
1215.0	1.0	0.0	7.30284	7.4906	-4.53299	21.73803	29.86677	1.62359	0.61592	99.43363	110.37635	36.83118	0.34986	 	117610.0703	 	6.17574E-5	 	42465.867	37.3006	 
1210.0	1.0	0.0	7.30545	7.48793	-4.56702	21.7217	29.8016	1.62167	0.61665	99.8672	110.6973	36.99774	0.34964	 	126362.0499	 	5.72869E-5	 	42279.638	37.2458	 
1205.0	1.0	0.0	7.30805	7.48527	-4.601	21.70539	29.73642	1.61975	0.61738	100.30061	111.01717	37.16429	0.34942	 	135831.6972	 	5.31134E-5	 	42093.686	37.1904	 
1200.0	1.0	0.0	7.31065	7.4826	-4.63493	21.6891	29.67124	1.61782	0.61812	100.73388	111.33594	37.33085	0.3492	 	146083.13	 	4.92191E-5	 	41908.013	37.1346	 
1195.0	1.0	0.0	7.31325	7.47995	-4.66881	21.67283	29.60606	1.61587	0.61886	101.167	111.65363	37.4974	0.34899	 	157186.6537	 	4.5587E-5	 	41722.619	37.0788	 
1190.0	1.0	0.0	7.31585	7.47729	-4.70265	21.65658	29.54089	1.61392	0.61961	101.59996	111.97024	37.66395	0.34877	 	169219.4024	 	4.22013E-5	 	41537.504	37.023	 
1185.0	1.0	0.0	7.31844	7.47464	-4.73643	21.64034	29.47571	1.61197	0.62036	102.03276	112.28576	37.83049	0.34855	 	182266.0501	 	3.90466E-5	 	41352.667	36.9674	 
1180.0	1.0	0.0	7.32103	7.47199	-4.77016	21.62413	29.41053	1.61	0.62112	102.46539	112.60019	37.99702	0.34833	 	196419.6017	 	3.61087E-5	 	41168.108	36.9118	 
1175.0	1.0	0.0	7.32362	7.46935	-4.80385	21.60793	29.34535	1.60802	0.62188	102.89786	112.91354	38.16355	0.34812	 	211782.2719	 	3.33742E-5	 	40983.825	36.8566	 
1170.0	1.0	0.0	7.32621	7.46671	-4.83749	21.59175	29.28017	1.60604	0.62265	103.33016	113.22581	38.33007	0.3479	 	228466.4629	 	3.08302E-5	 	40799.818	36.8014	 
1165.0	1.0	0.0	7.3288	7.46408	-4.87108	21.57559	29.21498	1.60404	0.62342	103.76228	113.53699	38.49657	0.34768	 	246595.8535	 	2.84646E-5	 	40616.087	36.7462	 
1160.0	1.0	0.0	7.33138	7.46144	-4.90462	21.55945	29.1498	1.60204	0.6242	104.19422	113.84709	38.66306	0.34746	 	266306.6119	 	2.62661E-5	 	40432.632	36.691	 
1155.0	1.0	0.0	7.33397	7.45882	-4.93811	21.54332	29.08462	1.60003	0.62499	104.62598	114.15611	38.82954	0.34725	 	287748.7475	 	2.42241E-5	 	40249.451	36.6362	 
1150.0	1.0	0.0	7.33655	7.45619	-4.97156	21.52722	29.01944	1.59801	0.62578	105.05756	114.46405	38.996	0.34703	 	311087.619	 	2.23282E-5	 	40066.543	36.5816	 
1145.0	1.0	0.0	7.33913	7.45357	-5.00495	21.51113	28.95425	1.59598	0.62657	105.48894	114.77091	39.16245	0.34681	 	336505.6175	 	2.05692E-5	 	39883.91	36.5266	 
1140.0	1.0	0.0	7.3417	7.45095	-5.0383	21.49506	28.88907	1.59394	0.62738	105.92013	115.07669	39.32888	0.34659	 	364204.0463	 	1.89378E-5	 	39701.548	36.4724	 
1135.0	1.0	0.0	7.34428	7.44834	-5.0716	21.47901	28.82388	1.59189	0.62818	106.35113	115.3814	39.49529	0.34638	 	394405.2223	 	1.74258E-5	 	39519.459	36.4178	 
1130.0	1.0	0.0	7.34685	7.44573	-5.10485	21.46298	28.7587	1.58984	0.629	106.78192	115.68502	39.66168	0.34616	 	427354.8252	 	1.60252E-5	 	39337.642	36.3634	 
1125.0	1.0	0.0	7.34942	7.44313	-5.13805	21.44697	28.69351	1.58777	0.62981	107.21252	115.98757	39.82804	0.34594	 	463324.5282	 	1.47284E-5	 	39156.095	36.3094	 
1120.0	1.0	0.0	7.35199	7.44053	-5.17121	21.43097	28.62832	1.5857	0.63064	107.6429	116.28904	39.99439	0.34573	 	502614.9424	 	1.35285E-5	 	38974.819	36.2552	 
1115.0	1.0	0.0	7.35456	7.43793	-5.20431	21.415	28.56314	1.58361	0.63147	108.07308	116.58944	40.16071	0.34551	 	545558.9184	 	1.24189E-5	 	38793.812	36.2014	 
1110.0	1.0	0.0	7.35713	7.43533	-5.23737	21.39904	28.49795	1.58152	0.6323	108.50304	116.88876	40.327	0.34529	 	592525.2477	 	1.13933E-5	 	38613.075	36.1474	 
1105.0	1.0	0.0	7.35969	7.43274	-5.27038	21.3831	28.43276	1.57941	0.63315	108.93278	117.18701	40.49327	0.34507	 	643922.818	 	1.0446E-5	 	38432.605	36.094	 
1100.0	1.0	0.0	7.36225	7.43016	-5.30335	21.36718	28.36757	1.5773	0.634	109.36231	117.48419	40.65951	0.34486	 	700205.2792	 	9.57148E-6	 	38252.404	36.0402	 
1095.0	1.0	0.0	7.36481	7.42758	-5.33627	21.35128	28.30238	1.57517	0.63485	109.79161	117.78029	40.82572	0.34464	 	761876.2885	 	8.76468E-6	 	38072.47	35.9868	 
1090.0	1.0	0.0	7.36737	7.425	-5.36913	21.3354	28.23719	1.57304	0.63571	110.22068	118.07533	40.9919	0.34442	 	829495.4089	 	8.02078E-6	 	37892.802	35.9336	 
1085.0	1.0	0.0	7.36993	7.42242	-5.40196	21.31953	28.172	1.5709	0.63658	110.64953	118.36929	41.15804	0.3442	 	903684.7501	 	7.33529E-6	 	37713.4	35.8804	 
1080.0	1.0	0.0	7.37248	7.41985	-5.43473	21.30369	28.10681	1.56874	0.63745	111.07814	118.66219	41.32416	0.34399	 	985136.4477	 	6.70403E-6	 	37534.264	35.8272	 
1075.0	1.0	0.0	7.37503	7.41728	-5.46746	21.28786	28.04162	1.56658	0.63833	111.50651	118.95402	41.49024	0.34377	 	1074621.095	 	6.12307E-6	 	37355.392	35.7744	 
1070.0	1.0	0.0	7.37758	7.41472	-5.50014	21.27205	27.97642	1.56441	0.63922	111.93465	119.24479	41.65628	0.34355	 	1172997.258	 	5.58874E-6	 	37176.783	35.7218	 
1065.0	1.0	0.0	7.38013	7.41216	-5.53277	21.25626	27.91123	1.56222	0.64011	112.36254	119.53448	41.82229	0.34333	 	1281222.21	 	5.09762E-6	 	36998.438	35.669	 
1060.0	1.0	0.0	7.38268	7.4096	-5.56535	21.24049	27.84604	1.56003	0.64101	112.79018	119.82312	41.98826	0.34312	 	1400364.073	 	4.64649E-6	 	36820.356	35.6164	 
1055.0	1.0	0.0	7.38522	7.40705	-5.59789	21.22473	27.78084	1.55783	0.64192	113.21758	120.11069	42.15419	0.3429	 	1531615.541	 	4.23237E-6	 	36642.535	35.5642	 
1050.0	1.0	0.0	7.38777	7.4045	-5.63038	21.209	27.71565	1.55561	0.64283	113.64472	120.3972	42.32008	0.34268	 	1676309.406	 	3.85249E-6	 	36464.976	35.5118	 
1045.0	1.0	0.0	7.39031	7.40195	-5.66283	21.19328	27.65045	1.55339	0.64375	114.07161	120.68265	42.48593	0.34246	 	1835936.153	 	3.50424E-6	 	36287.677	35.4598	 
1040.0	1.0	0.0	7.39285	7.39941	-5.69523	21.17758	27.58525	1.55115	0.64468	114.49824	120.96704	42.65174	0.34225	 	2012163.9	 	3.18521E-6	 	36110.638	35.4078	 
1035.0	1.0	0.0	7.39538	7.39687	-5.72758	21.1619	27.52006	1.54891	0.64562	114.92461	121.25037	42.8175	0.34203	 	2206861.019	 	2.89314E-6	 	35933.858	35.356	 
1030.0	1.0	0.0	7.39792	7.39434	-5.75988	21.14624	27.45486	1.54665	0.64656	115.35071	121.53264	42.98322	0.34181	 	2422121.825	 	2.62594E-6	 	35757.336	35.3044	 
1025.0	1.0	0.0	7.40045	7.39181	-5.79214	21.1306	27.38966	1.54439	0.64751	115.77654	121.81386	43.14889	0.34159	 	2660295.764	 	2.38167E-6	 	35581.072	35.2528	 
1020.0	1.0	0.0	7.40298	7.38928	-5.82435	21.11498	27.32446	1.54211	0.64846	116.20211	122.09402	43.31451	0.34138	 	2924020.616	 	2.15852E-6	 	35405.065	35.2014	 
1015.0	1.0	0.0	7.40551	7.38675	-5.85652	21.09937	27.25926	1.53982	0.64943	116.6274	122.37312	43.48009	0.34116	 	3216260.284	 	1.9548E-6	 	35229.314	35.1502	 
1010.0	1.0	0.0	7.40804	7.38423	-5.88864	21.08379	27.19406	1.53752	0.6504	117.05241	122.65118	43.64561	0.34094	 	3540347.861	 	1.76896E-6	 	35053.818	35.0992	 
1005.0	1.0	0.0	7.41057	7.38172	-5.92071	21.06822	27.12886	1.53521	0.65138	117.47714	122.92818	43.81109	0.34072	 	3900034.723	 	1.59956E-6	 	34878.577	35.0482	 
1000.0	1.0	0.0	7.41309	7.37921	-5.95274	21.05267	27.06365	1.53289	0.65236	117.90159	123.20413	43.97651	0.34051	 	4299546.585	 	1.44525E-6	 	34703.59	34.9974	 
995.0	1.0	0.0	7.41561	7.3767	-5.98472	21.03714	26.99845	1.53056	0.65336	118.32576	123.47903	44.14188	0.34029	 	4743647.514	 	1.3048E-6	 	34528.856	34.9468	 
990.0	1.0	0.0	7.41813	7.37419	-6.01665	21.02162	26.93325	1.52821	0.65436	118.74963	123.75289	44.3072	0.34007	 	5237713.146	 	1.17706E-6	 	34354.375	34.8962	 
985.0	1.0	0.0	7.42065	7.37169	-6.04854	21.00613	26.86804	1.52586	0.65537	119.17322	124.02569	44.47246	0.33985	 	5787814.461	 	1.06097E-6	 	34180.144	34.8462	 
980.0	1.0	0.0	7.42316	7.36919	-6.08038	20.99065	26.80284	1.52349	0.65639	119.59651	124.29746	44.63766	0.33964	 	6400813.769	 	9.55553E-7	 	34006.165	34.7958	 
975.0	1.0	0.0	7.42568	7.3667	-6.11218	20.9752	26.73763	1.52111	0.65741	120.0195	124.56817	44.80281	0.33942	 	7084474.759	 	8.59896E-7	 	33832.435	34.746	 
970.0	1.0	0.0	7.42819	7.3642	-6.14393	20.95976	26.67243	1.51872	0.65845	120.44219	124.83785	44.9679	0.3392	 	7847588.802	 	7.73168E-7	 	33658.955	34.696	 
965.0	1.0	0.0	7.4307	7.36172	-6.17564	20.94434	26.60722	1.51632	0.65949	120.86458	125.10648	45.13293	0.33898	 	8700120.062	 	6.946E-7	 	33485.723	34.6464	 
960.0	1.0	0.0	7.43321	7.35923	-6.2073	20.92893	26.54201	1.51391	0.66054	121.28666	125.37407	45.2979	0.33877	 	9653372.352	 	6.23481E-7	 	33312.738	34.597	 
955.0	1.0	0.0	7.43571	7.35675	-6.23891	20.91355	26.4768	1.51148	0.6616	121.70844	125.64063	45.46281	0.33855	 	1.07201812E7	 	5.5916E-7	 	33139.999	34.5478	 
950.0	1.0	0.0	7.43822	7.35427	-6.27048	20.89819	26.41159	1.50905	0.66267	122.1299	125.90614	45.62765	0.33833	 	1.191513518E7	 	5.01034E-7	 	32967.506	34.4986	 
945.0	1.0	0.0	7.44072	7.3518	-6.302	20.88284	26.34638	1.5066	0.66375	122.55104	126.17062	45.79243	0.33811	 	1.325483109E7	 	4.48552E-7	 	32795.258	34.4496	 
940.0	1.0	0.0	7.44322	7.34933	-6.33348	20.86751	26.28117	1.50414	0.66483	122.97187	126.43406	45.95715	0.3379	 	1.475816876E7	 	4.01207E-7	 	32623.254	34.4008	 
935.0	1.0	0.0	7.44572	7.34686	-6.36491	20.8522	26.21596	1.50166	0.66593	123.39238	126.69647	46.12179	0.33768	 	1.644669152E7	 	3.58533E-7	 	32451.492	34.3524	 
930.0	1.0	0.0	7.44822	7.3444	-6.3963	20.83691	26.15075	1.49918	0.66703	123.81257	126.95785	46.28638	0.33746	 	1.834498036E7	 	3.20103E-7	 	32279.973	34.3038	 
925.0	1.0	0.0	7.45071	7.34194	-6.42764	20.82164	26.08554	1.49668	0.66815	124.23243	127.21819	46.45089	0.33724	 	2.048111024E7	 	2.85525E-7	 	32108.694	34.2558	 
920.0	1.0	0.0	7.45321	7.33949	-6.45894	20.80639	26.02032	1.49417	0.66927	124.65197	127.47751	46.61533	0.33703	 	2.288717924E7	 	2.54442E-7	 	31937.655	34.2078	 
915.0	1.0	0.0	7.4557	7.33703	-6.4902	20.79115	25.95511	1.49165	0.6704	125.07117	127.73579	46.77971	0.33681	 	2.559992269E7	 	2.26527E-7	 	31766.855	34.16	 
910.0	1.0	0.0	7.45819	7.33459	-6.5214	20.77594	25.88989	1.48911	0.67154	125.49003	127.99305	46.94401	0.33659	 	2.866142676E7	 	2.01478E-7	 	31596.293	34.1124	 
905.0	1.0	0.0	7.46067	7.33214	-6.55257	20.76074	25.82468	1.48656	0.67269	125.90856	128.24928	47.10824	0.33638	 	3.211995851E7	 	1.79024E-7	 	31425.968	34.065	 
900.0	1.0	0.0	7.46316	7.3297	-6.58369	20.74556	25.75946	1.484	0.67385	126.32675	128.50448	47.27239	0.33616	 	3.60309325E7	 	1.58915E-7	 	31255.879	34.0178	 
895.0	1.0	0.0	7.46564	7.32726	-6.61476	20.7304	25.69424	1.48143	0.67502	126.7446	128.75866	47.43647	0.33594	 	4.045803768E7	 	1.40923E-7	 	31086.024	33.971	 
890.0	1.0	0.0	7.46812	7.32483	-6.64579	20.71525	25.62902	1.47884	0.67621	127.1621	129.01182	47.60048	0.33572	 	4.547455271E7	 	1.2484E-7	 	30916.403	33.9242	 
885.0	1.0	0.0	7.4706	7.3224	-6.67677	20.70013	25.5638	1.47624	0.6774	127.57925	129.26396	47.76441	0.33551	 	5.116488292E7	 	1.10479E-7	 	30747.015	33.8776	 
880.0	1.0	0.0	7.47308	7.31997	-6.70771	20.68502	25.49858	1.47363	0.6786	127.99606	129.51507	47.92826	0.33529	 	5.762635841E7	 	9.76678E-8	 	30577.857	33.8316	 
875.0	1.0	0.0	7.47556	7.31754	-6.73861	20.66994	25.43336	1.471	0.67981	128.41251	129.76517	48.09203	0.33507	 	6.497134014E7	 	8.62509E-8	 	30408.93	33.7854	 
870.0	1.0	0.0	7.47803	7.31512	-6.76946	20.65487	25.36814	1.46836	0.68103	128.8286	130.01425	48.25572	0.33485	 	7.332968979E7	 	7.60869E-8	 	30240.232	33.7396	 
865.0	1.0	0.0	7.4805	7.31271	-6.80027	20.63982	25.30292	1.46571	0.68227	129.24433	130.26231	48.41933	0.33464	 	8.285166969E7	 	6.70479E-8	 	30071.761	33.6942	 
860.0	1.0	0.0	7.48297	7.31029	-6.83103	20.62479	25.23769	1.46304	0.68351	129.6597	130.50935	48.58285	0.33442	 	9.37113519E7	 	5.90176E-8	 	29903.516	33.649	 
855.0	1.0	0.0	7.48544	7.30788	-6.86175	20.60977	25.17247	1.46036	0.68476	130.07471	130.75539	48.7463	0.3342	 	1.06110631E8	 	5.18913E-8	 	29735.496	33.604	 
850.0	1.0	0.0	7.48791	7.30547	-6.89243	20.59478	25.10724	1.45766	0.68603	130.48935	131.00041	48.90966	0.33398	 	1.20283953E8	 	4.5574E-8	 	29567.7	33.5592	 
845.0	1.0	0.0	7.49037	7.30307	-6.92306	20.5798	25.04202	1.45495	0.68731	130.90362	131.24442	49.07293	0.33377	 	1.365038965E8	 	3.99799E-8	 	29400.126	33.5148	 
840.0	1.0	0.0	7.49283	7.30067	-6.95365	20.56485	24.97679	1.45223	0.6886	131.31752	131.48742	49.23612	0.33355	 	1.55087766E8	 	3.50318E-8	 	29232.773	33.4706	 
835.0	1.0	0.0	7.49529	7.29827	-6.98419	20.54991	24.91157	1.44949	0.6899	131.73105	131.72941	49.39922	0.33333	 	1.764053944E8	 	3.06601E-8	 	29065.638	33.427	 
830.0	1.0	0.0	7.49775	7.29588	-7.01469	20.53499	24.84634	1.44674	0.69121	132.14419	131.97039	49.56223	0.33311	 	2.008883849E8	 	2.6802E-8	 	28898.722	33.3832	 
825.0	1.0	0.0	7.50021	7.29349	-7.04515	20.52009	24.78111	1.44397	0.69253	132.55696	132.21037	49.72515	0.3329	 	2.290410762E8	 	2.3401E-8	 	28732.021	33.3402	 
820.0	1.0	0.0	7.50266	7.29111	-7.07556	20.5052	24.71588	1.44119	0.69387	132.96934	132.44934	49.88799	0.33268	 	2.614535681E8	 	2.04067E-8	 	28565.534	33.2974	 
815.0	1.0	0.0	7.50512	7.28872	-7.10593	20.49034	24.65065	1.43839	0.69522	133.38134	132.68731	50.05073	0.33246	 	2.988172154E8	 	1.77734E-8	 	28399.26	33.2548	 
810.0	1.0	0.0	7.50757	7.28634	-7.13626	20.47549	24.58542	1.43558	0.69658	133.79295	132.92428	50.21337	0.33224	 	3.419430868E8	 	1.54604E-8	 	28233.197	33.2126	 
805.0	1.0	0.0	7.51002	7.28397	-7.16654	20.46066	24.52019	1.43276	0.69795	134.20417	133.16025	50.37593	0.33203	 	3.917839831E8	 	1.34313E-8	 	28067.343	33.1708	 
800.0	1.0	0.0	7.51246	7.28159	-7.19678	20.44585	24.45495	1.42992	0.69934	134.61499	133.39522	50.53839	0.33181	 	4.494607429E8	 	1.16535E-8	 	27901.696	33.1294	 
795.0	1.0	0.0	7.51491	7.27922	-7.22698	20.43106	24.38972	1.42706	0.70074	135.02542	133.62919	50.70075	0.33159	 	5.162937137E8	 	1.00977E-8	 	27736.253	33.0886	 
790.0	1.0	0.0	7.51735	7.27686	-7.25713	20.41629	24.32449	1.42419	0.70215	135.43546	133.86216	50.86302	0.33137	 	5.938404591E8	 	8.73799E-9	 	27571.014	33.0478	 
785.0	1.0	0.0	7.51979	7.2745	-7.28724	20.40154	24.25925	1.42131	0.70358	135.84509	134.09414	51.02519	0.33116	 	6.839410069E8	 	7.55119E-9	 	27405.975	33.0078	 
780.0	1.0	0.0	7.52223	7.27214	-7.31731	20.3868	24.19402	1.4184	0.70502	136.25432	134.32513	51.18726	0.33094	 	7.88772225E8	 	6.51666E-9	 	27241.134	32.9682	 
775.0	1.0	0.0	7.52467	7.26978	-7.34734	20.37208	24.12878	1.41549	0.70647	136.66314	134.55512	51.34924	0.33072	 	9.109132718E8	 	5.61608E-9	 	27076.489	32.929	 
770.0	1.0	0.0	7.52711	7.26743	-7.37732	20.35739	24.06355	1.41255	0.70794	137.07156	134.78412	51.51111	0.3305	 	1.053424494E9	 	4.83315E-9	 	26912.038	32.8902	 
765.0	1.0	0.0	7.52954	7.26508	-7.40726	20.34271	23.99831	1.4096	0.70942	137.47956	135.01213	51.67288	0.33029	 	1.219942691E9	 	4.15343E-9	 	26747.777	32.8522	 
760.0	1.0	0.0	7.53197	7.26273	-7.43716	20.32805	23.93307	1.40664	0.71091	137.88716	135.23916	51.83455	0.33007	 	1.414796317E9	 	3.56415E-9	 	26583.705	32.8144	 
755.0	1.0	0.0	7.5344	7.26039	-7.46701	20.3134	23.86783	1.40366	0.71242	138.29433	135.4652	51.99611	0.32985	 	1.643145028E9	 	3.05399E-9	 	26419.817	32.7776	 
750.0	1.0	0.0	7.53683	7.25805	-7.49682	20.29878	23.80259	1.40066	0.71395	138.70109	135.69025	52.15758	0.32964	 	1.911148995E9	 	2.61295E-9	 	26256.111	32.7412	 
745.0	1.0	0.0	7.53926	7.25572	-7.52659	20.28417	23.73735	1.39765	0.71549	139.10743	135.91432	52.31893	0.32942	 	2.226174669E9	 	2.23223E-9	 	26092.584	32.7054	 
740.0	1.0	0.0	7.54168	7.25338	-7.55632	20.26959	23.67211	1.39462	0.71704	139.51334	136.1374	52.48018	0.3292	 	2.597045271E9	 	1.90406E-9	 	25929.232	32.6704	 
735.0	1.0	0.0	7.5441	7.25105	-7.586	20.25502	23.60687	1.39157	0.71861	139.91883	136.35951	52.64132	0.32898	 	3.034346267E9	 	1.62161E-9	 	25766.051	32.6362	 
730.0	1.0	0.0	7.54652	7.24873	-7.61565	20.24047	23.54163	1.3885	0.7202	140.3239	136.58063	52.80236	0.32877	 	3.550798513E9	 	1.37888E-9	 	25603.038	32.6026	 
725.0	1.0	0.0	7.54894	7.24641	-7.64525	20.22594	23.47639	1.38542	0.7218	140.72853	136.80078	52.96328	0.32855	 	4.161714903E9	 	1.1706E-9	 	25440.188	32.57	 
720.0	1.0	0.0	7.55136	7.24409	-7.67481	20.21142	23.41114	1.38232	0.72342	141.13273	137.01995	53.12409	0.32833	 	4.88556018E9	 	9.92172E-10	 	25277.496	32.5384	 
715.0	1.0	0.0	7.55377	7.24177	-7.70432	20.19693	23.3459	1.37921	0.72505	141.5365	137.23814	53.2848	0.32811	 	5.744638468E9	 	8.39551E-10	 	25114.959	32.5074	 
710.0	1.0	0.0	7.55619	7.23946	-7.7338	20.18245	23.28065	1.37608	0.7267	141.93982	137.45536	53.44539	0.3279	 	6.765939227E9	 	7.09216E-10	 	24952.571	32.4776	 
705.0	1.0	0.0	7.5586	7.23715	-7.76323	20.16799	23.21541	1.37293	0.72837	142.34271	137.6716	53.60587	0.32768	 	7.982180075E9	 	5.98096E-10	 	24790.325	32.4492	 
700.0	1.0	0.0	7.56101	7.23484	-7.79262	20.15355	23.15016	1.36976	0.73006	142.74516	137.88688	53.76623	0.32746	 	9.433094725E9	 	5.03515E-10	 	24628.218	32.4214	 
695.0	1.0	0.0	7.56342	7.23254	-7.82197	20.13913	23.08491	1.36657	0.73176	143.14716	138.10118	53.92648	0.32724	 	1.1167E10	 	4.23148E-10	 	24466.241	32.3954	 
690.0	1.0	0.0	7.56582	7.23024	-7.85128	20.12473	23.01967	1.36337	0.73348	143.54872	138.31452	54.08662	0.32703	 	1.3242899999999998E10	 	3.54975E-10	 	24304.388	32.3706	 
685.0	1.0	0.0	7.56822	7.22794	-7.88055	20.11035	22.95442	1.36014	0.73522	143.94982	138.52689	54.24663	0.32681	 	1.5732699999999998E10	 	2.97247E-10	 	24142.651	32.3474	 
680.0	1.0	0.0	7.57063	7.22565	-7.90977	20.09598	22.88917	1.3569	0.73697	144.35048	138.73829	54.40653	0.32659	 	1.87245E10	 	2.4845E-10	 	23981.023	32.3256	 
675.0	1.0	0.0	7.57303	7.22336	-7.93895	20.08164	22.82391	1.35364	0.73875	144.75068	138.94873	54.56631	0.32637	 	2.23262E10	 	2.07276E-10	 	23819.494	32.3058	 
670.0	1.0	0.0	7.57542	7.22107	-7.9681	20.06731	22.75866	1.35037	0.74054	145.15043	139.1582	54.72598	0.32616	 	2.6670599999999996E10	 	1.72598E-10	 	23658.054	32.288	 
665.0	1.0	0.0	7.57782	7.21879	-7.9972	20.053	22.69341	1.34707	0.74235	145.54971	139.36672	54.88552	0.32594	 	3.1920799999999996E10	 	1.43445E-10	 	23496.694	32.272	 
660.0	1.0	0.0	7.58021	7.21651	-8.02626	20.03871	22.62815	1.34375	0.74418	145.94854	139.57427	55.04494	0.32572	 	3.82783E10	 	1.18983E-10	 	23335.4	32.2588	 
655.0	1.0	0.0	7.58261	7.21423	-8.05528	20.02444	22.5629	1.34042	0.74603	146.3469	139.78086	55.20423	0.3255	 	4.59921E10	 	9.84967E-11	 	23174.16	32.248	 
650.0	1.0	0.0	7.585	7.21196	-8.08425	20.01018	22.49764	1.33707	0.74791	146.7448	139.9865	55.36341	0.32529	 	5.537049999999999E10	 	8.1373E-11	 	23012.96	32.24	 
645.0	1.0	0.0	7.58739	7.20969	-8.11319	19.99595	22.43238	1.33369	0.7498	147.14223	140.19118	55.52246	0.32507	 	6.679649999999999E10	 	6.70883E-11	 	22851.784	32.2352	 
640.0	1.0	0.0	7.58977	7.20742	-8.14209	19.98173	22.36712	1.3303	0.75171	147.5392	140.3949	55.68138	0.32485	 	8.07462E10	 	5.51959E-11	 	22690.615	32.2338	 
635.0	1.0	0.0	7.59216	7.20516	-8.17094	19.96753	22.30186	1.32689	0.75364	147.93569	140.59768	55.84018	0.32463	 	9.781349999999998E10	 	4.53154E-11	 	22529.433	32.2364	 
630.0	1.0	0.0	7.59454	7.2029	-8.19976	19.95335	22.23659	1.32346	0.7556	148.3317	140.7995	55.99885	0.32442	 	1.18741E11	 	3.71234E-11	 	22368.216	32.2434	 
625.0	1.0	0.0	7.59692	7.20064	-8.22853	19.93919	22.17133	1.32	0.75757	148.72724	141.00037	56.1574	0.3242	 	1.44457E11	 	3.03457E-11	 	22206.94	32.2552	 
620.0	1.0	0.0	7.5993	7.19839	-8.25726	19.92505	22.10606	1.31653	0.75957	149.1223	141.20029	56.31581	0.32398	 	1.7613E11	 	2.47502E-11	 	22045.579	32.2722	 
615.0	1.0	0.0	7.60168	7.19613	-8.28596	19.91092	22.04079	1.31304	0.76159	149.51688	141.39926	56.4741	0.32377	 	2.15227E11	 	2.01408E-11	 	21881.678	32.7802	 
610.0	1.0	0.0	7.60405	7.19389	-8.31461	19.89682	21.97552	1.30952	0.76364	149.91098	141.59729	56.63225	0.32355	 	2.63602E11	 	1.63521E-11	 	21718.251	32.6854	 
605.0	1.0	0.0	7.60643	7.19164	-8.34322	19.88273	21.91024	1.30599	0.7657	150.30459	141.79437	56.79028	0.32333	 	3.23597E11	 	1.3245E-11	 	21555.343	32.5816	 
600.0	1.0	0.0	7.6088	7.1894	-8.37179	19.86866	21.84497	1.30243	0.76779	150.69771	141.99051	56.94817	0.32311	 	3.98182E11	 	1.07027E-11	 	21392.944	32.4798	 
595.0	1.0	0.0	7.61117	7.18716	-8.40032	19.85461	21.77969	1.29886	0.76991	151.09034	142.1857	57.10592	0.3229	 	4.91131E11	 	8.62748E-12	 	21231.04	32.3808	 
590.0	1.0	0.0	7.61354	7.18493	-8.42881	19.84058	21.71441	1.29526	0.77205	151.48248	142.37996	57.26355	0.32268	 	6.07254E11	 	6.93749E-12	 	21069.622	32.2836	 
585.0	1.0	0.0	7.6159	7.18269	-8.45727	19.82657	21.64913	1.29164	0.77421	151.87413	142.57327	57.42104	0.32246	 	7.52695E11	 	5.56456E-12	 	20908.679	32.1886	 
580.0	1.0	0.0	7.61827	7.18046	-8.48568	19.81257	21.58385	1.288	0.7764	152.26528	142.76565	57.57839	0.32224	 	9.35322E11	 	4.45196E-12	 	20748.202	32.0954	 
575.0	1.0	0.0	7.62063	7.17824	-8.51405	19.79859	21.51856	1.28433	0.77862	152.65593	142.95709	57.7356	0.32203	 	1.16525E12	 	3.55256E-12	 	20588.18	32.0044	 
570.0	1.0	0.0	7.62299	7.17601	-8.54238	19.78464	21.45327	1.28065	0.78086	153.04608	143.1476	57.89268	0.32181	 	1.45548E12	 	2.82738E-12	 	20428.605	31.915	 
565.0	1.0	0.0	7.62535	7.1738	-8.57067	19.7707	21.38798	1.27694	0.78312	153.43573	143.33717	58.04962	0.32159	 	1.82285E12	 	2.24418E-12	 	20269.469	31.8272	 
560.0	1.0	0.0	7.62771	7.17158	-8.59892	19.75678	21.32269	1.27321	0.78542	153.82488	143.52581	58.20642	0.32137	 	2.28912E12	 	1.7764E-12	 	20110.764	31.741	 
555.0	1.0	0.0	7.63006	7.16936	-8.62714	19.74288	21.25739	1.26945	0.78774	154.21351	143.71352	58.36308	0.32116	 	2.88258E12	 	1.40221E-12	 	19952.482	31.6564	 
550.0	1.0	0.0	7.63242	7.16715	-8.65531	19.72899	21.1921	1.26568	0.79009	154.60164	143.9003	58.5196	0.32094	 	3.64009E12	 	1.10371E-12	 	19794.617	31.573	 
545.0	1.0	0.0	7.63477	7.16495	-8.68344	19.71513	21.1268	1.26188	0.79247	154.98925	144.08615	58.67598	0.32072	 	4.60981E12	 	8.66237E-13	 	19637.161	31.4912	 
540.0	1.0	0.0	7.63712	7.16274	-8.71154	19.70128	21.06149	1.25805	0.79488	155.37635	144.27108	58.83221	0.3205	 	5.85485E12	 	6.77862E-13	 	19480.108	31.4106	 
535.0	1.0	0.0	7.63947	7.16054	-8.73959	19.68745	20.99619	1.25421	0.79732	155.76294	144.45507	58.9883	0.32029	 	7.45822E12	 	5.28863E-13	 	19323.452	31.3312	 
530.0	1.0	0.0	7.64181	7.15834	-8.76761	19.67364	20.93088	1.25034	0.79978	156.14901	144.63815	59.14424	0.32007	 	9.52937E12	 	4.11357E-13	 	19167.187	31.253	 
525.0	1.0	0.0	7.64416	7.15615	-8.79559	19.65985	20.86558	1.24644	0.80228	156.53456	144.8203	59.30004	0.31985	 	1.22132E13	 	3.18965E-13	 	19011.307	31.176	 
520.0	1.0	0.0	7.6465	7.15396	-8.82352	19.64608	20.80027	1.24252	0.80481	156.91958	145.00154	59.4557	0.31963	 	1.57019E13	 	2.46542E-13	 	18855.808	31.0998	 
515.0	1.0	0.0	7.64884	7.15177	-8.85142	19.63232	20.73495	1.23858	0.80738	157.30408	145.18185	59.6112	0.31942	 	2.02517E13	 	1.89948E-13	 	18700.685	31.0246	 
510.0	1.0	0.0	7.65118	7.14958	-8.87928	19.61859	20.66964	1.23461	0.80997	157.68806	145.36124	59.76656	0.3192	 	2.62049E13	 	1.45864E-13	 	18545.932	30.9506	 
505.0	1.0	0.0	7.65351	7.1474	-8.9071	19.60487	20.60432	1.23062	0.8126	158.07151	145.53972	59.92177	0.31898	 	3.40207E13	 	1.11637E-13	 	18391.545	30.8774	 
500.0	1.0	0.0	7.65585	7.14522	-8.93488	19.59117	20.539	1.2266	0.81526	158.45442	145.71728	60.07682	0.31877	 	4.43171E13	 	8.51489E-14	 	18237.52	30.805	 
495.0	1.0	0.0	7.65818	7.14304	-8.96263	19.57749	20.47368	1.22255	0.81796	158.83681	145.89393	60.23173	0.31855	 	5.79289E13	 	6.47198E-14	 	18083.853	30.7334	 
490.0	1.0	0.0	7.66051	7.14087	-8.99033	19.56383	20.40836	1.21848	0.82069	159.21866	146.06966	60.38649	0.31833	 	7.59879E13	 	4.90176E-14	 	17930.54	30.6626	 
485.0	1.0	0.0	7.66284	7.1387	-9.018	19.55019	20.34303	1.21439	0.82346	159.59997	146.24449	60.54109	0.31811	 	1.00034E14	 	3.69907E-14	 	17777.577	30.5926	 
480.0	1.0	0.0	7.66517	7.13653	-9.04562	19.53656	20.27771	1.21026	0.82627	159.98075	146.4184	60.69554	0.3179	 	1.3217199999999998E14	 	2.78117E-14	 	17624.961	30.5232	 
475.0	1.0	0.0	7.6675	7.13436	-9.07321	19.52296	20.21238	1.20612	0.82911	160.36098	146.59141	60.84984	0.31768	 	1.75287E14	 	2.08317E-14	 	17472.688	30.4546	 
470.0	1.0	0.0	7.66982	7.1322	-9.10076	19.50937	20.14705	1.20194	0.83199	160.74068	146.76351	61.00398	0.31746	 	2.33352E14	 	1.55436E-14	 	17320.755	30.3866	 
465.0	1.0	0.0	7.67214	7.13004	-9.12828	19.4958	20.08172	1.19774	0.83491	161.11983	146.9347	61.15796	0.31724	 	3.11857E14	 	1.15525E-14	 	17169.16	30.319	 
460.0	1.0	0.0	7.67446	7.12789	-9.15575	19.48225	20.01638	1.19351	0.83787	161.49843	147.10499	61.31179	0.31703	 	4.18426E14	 	8.55186E-15	 	17017.898	30.2524	 
455.0	1.0	0.0	7.67678	7.12574	-9.18319	19.46872	19.95105	1.18925	0.84087	161.87648	147.27437	61.46546	0.31681	 	5.63685E14	 	6.30479E-15	 	16866.968	30.186	 
450.0	1.0	0.0	7.6791	7.12359	-9.21058	19.45521	19.88571	1.18496	0.84391	162.25399	147.44286	61.61897	0.31659	 	7.62509E14	 	4.62882E-15	 	16716.366	30.1204	 
445.0	1.0	0.0	7.68141	7.12144	-9.23794	19.44171	19.82037	1.18065	0.84699	162.63094	147.61045	61.77233	0.31637	 	1.03581E15	 	3.38392E-15	 	16566.091	30.055	 
440.0	1.0	0.0	7.68372	7.1193	-9.26527	19.42823	19.75503	1.17631	0.85012	163.00733	147.77713	61.92552	0.31616	 	1.41314E15	 	2.46311E-15	 	16416.139	29.9904	 
435.0	1.0	0.0	7.68604	7.11715	-9.29255	19.41478	19.68969	1.17194	0.85329	163.38318	147.94292	62.07855	0.31594	 	1.93639E15	 	1.78492E-15	 	16266.509	29.926	 
430.0	1.0	0.0	7.68835	7.11502	-9.3198	19.40134	19.62435	1.16754	0.8565	163.75846	148.10782	62.23143	0.31572	 	2.66531E15	 	1.28762E-15	 	16117.199	29.862	 
425.0	1.0	0.0	7.69065	7.11288	-9.34701	19.38792	19.559	1.16311	0.85977	164.13318	148.27182	62.38414	0.3155	 	3.68545E15	 	9.24581E-16	 	15968.205	29.7988	 
420.0	1.0	0.0	7.69296	7.11075	-9.37418	19.37451	19.49366	1.15865	0.86307	164.50735	148.43493	62.53668	0.31529	 	5.11995E15	 	6.60767E-16	 	15819.526	29.7358	 
415.0	1.0	0.0	7.69526	7.10862	-9.40131	19.36113	19.42831	1.15416	0.86643	164.88095	148.59715	62.68907	0.31507	 	7.14687E15	 	4.69953E-16	 	15671.161	29.673	 
410.0	1.0	0.0	7.69757	7.10649	-9.42841	19.34777	19.36296	1.14964	0.86984	165.25398	148.75848	62.84128	0.31485	 	1.00251E16	 	3.32595E-16	 	15523.107	29.6108	 
405.0	1.0	0.0	7.69987	7.10437	-9.45547	19.33442	19.29761	1.14509	0.87329	165.62645	148.91892	62.99334	0.31463	 	1.41327E16	 	2.342E-16	 	15375.363	29.5488	 
400.0	1.0	0.0	7.70216	7.10225	-9.48249	19.32109	19.23225	1.14051	0.8768	165.99834	149.07847	63.14522	0.31442	 	2.00254E16	 	1.64065E-16	 	15227.927	29.4872	 
395.0	1.0	0.0	7.70446	7.10013	-9.50947	19.30778	19.1669	1.1359	0.88036	166.36967	149.23715	63.29694	0.3142	 	2.85236E16	 	1.14329E-16	 	15080.798	29.4258	 
390.0	1.0	0.0	7.70676	7.09802	-9.53642	19.29449	19.10154	1.13126	0.88397	166.74043	149.39493	63.4485	0.31398	 	4.08454E16	 	7.92421E-17	 	14933.973	29.365	 
385.0	1.0	0.0	7.70905	7.09591	-9.56333	19.28122	19.03618	1.12658	0.88764	167.11061	149.55184	63.59988	0.31377	 	5.88101E16	 	5.4621E-17	 	14787.452	29.3042	 
380.0	1.0	0.0	7.71134	7.0938	-9.5902	19.26796	18.97082	1.12187	0.89136	167.48021	149.70786	63.75109	0.31355	 	8.51501E16	 	3.74382E-17	 	14641.234	29.2436	 
375.0	1.0	0.0	7.71363	7.09169	-9.61704	19.25473	18.90546	1.11714	0.89515	167.84924	149.86301	63.90214	0.31333	 	1.23994E17	 	2.55131E-17	 	14495.316	29.1836	 
370.0	1.0	0.0	7.71592	7.08959	-9.64384	19.24151	18.8401	1.11236	0.89899	168.21769	150.01728	64.05301	0.31311	 	1.81615E17	 	1.72841E-17	 	14349.698	29.1236	 
365.0	1.0	0.0	7.7182	7.08749	-9.6706	19.22831	18.77473	1.10756	0.90289	168.58556	150.17067	64.20372	0.3129	 	2.6761E17	 	1.16388E-17	 	14204.379	29.0638	 
360.0	1.0	0.0	7.72049	7.08539	-9.69732	19.21513	18.70937	1.10272	0.90685	168.95285	150.3232	64.35425	0.31268	 	3.96746E17	 	7.78899E-18	 	14059.357	29.0044	 
355.0	1.0	0.0	7.72277	7.0833	-9.72401	19.20197	18.644	1.09785	0.91087	169.31955	150.47484	64.50461	0.31246	 	5.91896E17	 	5.1797E-18	 	13914.632	28.945	 
350.0	1.0	0.0	7.72505	7.08121	-9.75067	19.18883	18.57863	1.09294	0.91496	169.68566	150.62562	64.65479	0.31224	 	8.88724E17	 	3.42225E-18	 	13770.202	28.886	 
345.0	1.0	0.0	7.72733	7.07912	-9.77728	19.1757	18.51325	1.088	0.91912	170.0512	150.77553	64.80481	0.31203	 	1.34321E18	 	2.24613E-18	 	13626.067	28.827	 
340.0	1.0	0.0	7.72961	7.07704	-9.80386	19.1626	18.44788	1.08302	0.92334	170.41614	150.92458	64.95464	0.31181	 	2.04385E18	 	1.46421E-18	 	13482.226	28.7682	 
335.0	1.0	0.0	7.73188	7.07495	-9.8304	19.14951	18.3825	1.07801	0.92763	170.78049	151.07275	65.10431	0.31159	 	3.13149E18	 	9.47865E-19	 	13338.679	28.7094	 
330.0	1.0	0.0	7.73416	7.07287	-9.85691	19.13644	18.31712	1.07297	0.932	171.14425	151.22007	65.25379	0.31137	 	4.83199E18	 	6.09237E-19	 	13195.423	28.6512	 
325.0	1.0	0.0	7.73643	7.0708	-9.88338	19.12339	18.25174	1.06788	0.93643	171.50742	151.36652	65.4031	0.31116	 	7.51019E18	 	3.88728E-19	 	13052.46	28.5926	 
320.0	1.0	0.0	7.7387	7.06872	-9.90982	19.11036	18.18635	1.06276	0.94094	171.86999	151.51211	65.55224	0.31094	 	1.17599E19	 	2.46176E-19	 	12909.787	28.5346	 
315.0	1.0	0.0	7.74097	7.06665	-9.93621	19.09734	18.12097	1.05761	0.94553	172.23197	151.65685	65.70119	0.31072	 	1.85554E19	 	1.54705E-19	 	12767.405	28.4764	 
310.0	1.0	0.0	7.74323	7.06458	-9.96258	19.08435	18.05558	1.05241	0.9502	172.59336	151.80073	65.84997	0.3105	 	2.95076E19	 	9.64569E-20	 	12625.314	28.4182	 
305.0	1.0	0.0	7.7455	7.06252	-9.9889	19.07137	17.99019	1.04718	0.95494	172.95414	151.94375	65.99857	0.31029	 	4.73023E19	 	5.96548E-20	 	12483.512	28.3604	 
300.0	1.0	0.0	7.74776	7.06045	-10.01519	19.05841	17.9248	1.04191	0.95977	173.31433	152.08593	66.14699	0.31007	 	7.6455E19	 	3.65889E-20	 	12342.0	28.3024	 
295.0	1.0	0.0	7.75002	7.05839	-10.04145	19.04547	17.8594	1.03661	0.96469	173.67392	152.22725	66.29523	0.30985	 	1.2462399999999998E20	 	2.2251E-20	 	12200.777	28.2446	 
290.0	1.0	0.0	7.75228	7.05634	-10.06767	19.03255	17.794	1.03126	0.96969	174.03291	152.36772	66.44329	0.30963	 	2.0491E20	 	1.34136E-20	 	12059.844	28.1866	 
285.0	1.0	0.0	7.75454	7.05428	-10.09385	19.01965	17.7286	1.02587	0.97478	174.39129	152.50735	66.59117	0.30942	 	3.39936E20	 	8.01384E-21	 	11919.199	28.129	 
280.0	1.0	0.0	7.75679	7.05223	-10.12	19.00677	17.6632	1.02045	0.97996	174.74907	152.64613	66.73886	0.3092	 	5.6912099999999997E20	 	4.74379E-21	 	11778.842	28.0714	 
275.0	1.0	0.0	7.75905	7.05018	-10.14611	18.9939	17.59779	1.01498	0.98524	175.10625	152.78407	66.88638	0.30898	 	9.618229999999999E20	 	2.78158E-21	 	11638.775	28.0134	 
270.0	1.0	0.0	7.7613	7.04814	-10.17219	18.98105	17.53239	1.00948	0.99061	175.46283	152.92117	67.03371	0.30877	 	1.64128E21	 	1.61519E-21	 	11498.996	27.9558	 
265.0	1.0	0.0	7.76355	7.04609	-10.19823	18.96823	17.46698	1.00393	0.99609	175.8188	153.05744	67.18087	0.30855	 	2.82867E21	 	9.28556E-22	 	11359.506	27.898	 
260.0	1.0	0.0	7.7658	7.04405	-10.22424	18.95542	17.40156	0.99834	1.00166	176.17416	153.19287	67.32784	0.30833	 	4.92511E21	 	5.28348E-22	 	11220.306	27.84	 
255.0	1.0	0.0	7.76805	7.04201	-10.25021	18.94262	17.33615	0.99271	1.00734	176.52892	153.32746	67.47462	0.30811	 	8.665840000000001E21	 	2.97463E-22	 	11081.394	27.7824	 
250.0	1.0	0.0	7.77029	7.03998	-10.27614	18.92985	17.27073	0.98704	1.01313	176.88307	153.46123	67.62123	0.3079	 	1.5413299999999999E22	 	1.6566E-22	 	10942.772	27.7244	 
245.0	1.0	0.0	7.77254	7.03795	-10.30205	18.9171	17.2053	0.98132	1.01904	177.23661	153.59416	67.76765	0.30768	 	2.7721E22	 	9.12292E-23	 	10804.44	27.6664	 
240.0	1.0	0.0	7.77478	7.03592	-10.32791	18.90436	17.13988	0.97556	1.02505	177.58955	153.72627	67.91388	0.30746	 	5.04299E22	 	4.96641E-23	 	10666.399	27.6082	 
235.0	1.0	0.0	7.77702	7.03389	-10.35374	18.89164	17.07445	0.96976	1.03119	177.94188	153.85756	68.05994	0.30724	 	9.28288E22	 	2.67175E-23	 	10528.649	27.55	 
230.0	1.0	0.0	7.77926	7.03187	-10.37954	18.87894	17.00902	0.96391	1.03744	178.2936	153.98803	68.2058	0.30703	 	1.7295899999999998E23	 	1.41984E-23	 	10391.19	27.4918	 
225.0	1.0	0.0	7.7815	7.02985	-10.4053	18.86626	16.94359	0.95802	1.04382	178.64471	154.11768	68.35149	0.30681	 	3.2631099999999996E23	 	7.45102E-24	 	10254.024	27.4332	 
220.0	1.0	0.0	7.78373	7.02783	-10.43103	18.8536	16.87815	0.95208	1.05034	178.99521	154.24651	68.49699	0.30659	 	6.23604E23	 	3.85973E-24	 	10117.151	27.3746	 
215.0	1.0	0.0	7.78596	7.02581	-10.45672	18.84096	16.81271	0.94609	1.05698	179.34511	154.37454	68.64231	0.30637	 	1.20767E24	 	1.97284E-24	 	9980.572	27.3158	 
210.0	1.0	0.0	7.7882	7.0238	-10.48238	18.82833	16.74727	0.94006	1.06376	179.6944	154.50175	68.78744	0.30616	 	2.37099E24	 	9.94578E-25	 	9844.288	27.2568	 
205.0	1.0	0.0	7.79043	7.02179	-10.508	18.81573	16.68182	0.93398	1.07068	180.04308	154.62816	68.93239	0.30594	 	4.72105E24	 	4.94325E-25	 	9708.301	27.1974	 
200.0	1.0	0.0	7.79265	7.01978	-10.53359	18.80314	16.61637	0.92786	1.07775	180.39116	154.75377	69.07715	0.30572	 	9.53825E24	 	2.42112E-25	 	9572.61	27.1382	 
195.0	1.0	0.0	7.79488	7.01777	-10.55915	18.79057	16.55092	0.92168	1.08497	180.73863	154.87858	69.22173	0.30551	 	1.95625E25	 	1.16801E-25	 	9437.219	27.0782	 
190.0	1.0	0.0	7.79711	7.01577	-10.58467	18.77802	16.48546	0.91546	1.09235	181.0855	155.00259	69.36613	0.30529	 	4.07487E25	 	5.54747E-26	 	9302.127	27.0184	 
185.0	1.0	0.0	7.79933	7.01377	-10.61015	18.76549	16.42	0.90918	1.09989	181.43177	155.12581	69.51034	0.30507	 	8.62502E25	 	2.59259E-26	 	9167.337	26.958	 
180.0	1.0	0.0	7.80155	7.01177	-10.63561	18.75298	16.35454	0.90286	1.10759	181.77743	155.24824	69.65437	0.30485	 	1.85607E26	 	1.19161E-26	 	9032.85	26.8974	 
175.0	1.0	0.0	7.80377	7.00978	-10.66103	18.74048	16.28907	0.89649	1.11546	182.12249	155.36989	69.79822	0.30464	 	4.0630600000000006E26	 	5.3834E-27	 	8898.668	26.8364	 
170.0	1.0	0.0	7.80599	7.00779	-10.68641	18.728	16.2236	0.89006	1.12351	182.46696	155.49076	69.94189	0.30442	 	9.052980000000001E26	 	2.38916E-27	 	8764.794	26.7748	 
165.0	1.0	0.0	7.8082	7.0058	-10.71176	18.71554	16.15813	0.88359	1.13175	182.81082	155.61085	70.08538	0.3042	 	2.0543299999999998E27	 	1.04097E-27	 	8631.228	26.7132	 
160.0	1.0	0.0	7.81042	7.00381	-10.73708	18.70311	16.09265	0.87706	1.14018	183.15409	155.73017	70.22869	0.30398	 	4.7508E27	 	4.44999E-28	 	8497.973	26.651	 
155.0	1.0	0.0	7.81263	7.00183	-10.76236	18.69068	16.02717	0.87048	1.1488	183.49677	155.84872	70.37181	0.30377	 	1.12038E28	 	1.86516E-28	 	8365.032	26.5882	 
150.0	1.0	0.0	7.81484	6.99985	-10.78761	18.67828	15.96169	0.86384	1.15762	183.83886	155.96651	70.51476	0.30355	 	2.69632E28	 	7.65967E-29	 	8232.407	26.525	 
145.0	1.0	0.0	7.81705	6.99787	-10.81283	18.6659	15.8962	0.85715	1.16666	184.18036	156.08354	70.65753	0.30333	 	6.6267000000000005E28	 	3.07979E-29	 	8100.101	26.4612	 
140.0	1.0	0.0	7.81926	6.99589	-10.83801	18.65353	15.8307	0.8504	1.17591	184.52128	156.19982	70.80013	0.30311	 	1.66447E29	 	1.21149E-29	 	7968.116	26.397	 
135.0	1.0	0.0	7.82147	6.99392	-10.86316	18.64118	15.76521	0.8436	1.18539	184.86162	156.31536	70.94254	0.3029	 	4.2761700000000005E29	 	4.65856E-30	 	7836.456	26.332	 
130.0	1.0	0.0	7.82367	6.99195	-10.88827	18.62886	15.69971	0.83674	1.19511	185.20138	156.43015	71.08479	0.30268	 	1.1245999999999999E30	 	1.74967E-30	 	7705.125	26.2662	 
125.0	1.0	0.0	7.82587	6.98998	-10.91336	18.61655	15.6342	0.82983	1.20507	185.54057	156.54421	71.22686	0.30246	 	3.03032E30	 	6.41276E-31	 	7574.124	26.2002	 
120.0	1.0	0.0	7.82807	6.98802	-10.93841	18.60425	15.56869	0.82286	1.21528	185.87919	156.65753	71.36877	0.30224	 	8.373919999999999E30	 	2.29148E-31	 	7443.459	26.133	 
115.0	1.0	0.0	7.83027	6.98605	-10.96342	18.59198	15.50318	0.81582	1.22575	186.21724	156.77014	71.5105	0.30203	 	2.37543E31	 	7.97524E-32	 	7313.133	26.0652	 
110.0	1.0	0.0	7.83247	6.98409	-10.98841	18.57973	15.43766	0.80873	1.2365	186.55474	156.88203	71.65206	0.30181	 	6.924269999999999E31	 	2.70073E-32	 	7183.151	25.9964	 
105.0	1.0	0.0	7.83467	6.98214	-11.01336	18.56749	15.37214	0.80158	1.24753	186.89169	156.99321	71.79347	0.30159	 	2.07631E32	 	8.88911E-33	 	7053.516	25.927	 
100.0	1.0	0.0	7.83686	6.98018	-11.03827	18.55527	15.30662	0.79437	1.25886	187.22809	157.10369	71.93471	0.30138	 	6.41198E32	 	2.84039E-33	 	6924.234	25.8564	 
95.0	1.0	0.0	7.83905	6.97823	-11.06316	18.54308	15.24109	0.78709	1.2705	187.56395	157.21348	72.07578	0.30116	 	2.04171E33	 	8.80072E-34	 	6795.31	25.7848	 
90.0	1.0	0.0	7.84125	6.97628	-11.08801	18.53089	15.17555	0.77976	1.28245	187.89928	157.32258	72.21671	0.30094	 	6.7119E33	 	2.64075E-34	 	6666.749	25.7122	 
85.0	1.0	0.0	7.84344	6.97433	-11.11283	18.51873	15.11001	0.77236	1.29474	188.23409	157.43101	72.35747	0.30072	 	2.28102E34	 	7.66342E-35	 	6538.557	25.6384	 
80.0	1.0	0.0	7.84562	6.97239	-11.13762	18.50659	15.04447	0.76489	1.30737	188.56838	157.53877	72.49809	0.30051	 	8.025210000000001E34	 	2.14778E-35	 	6410.741	25.5632	 
75.0	1.0	0.0	7.84781	6.97044	-11.16237	18.49446	14.97892	0.75736	1.32037	188.90216	157.64587	72.63856	0.30029	 	2.9273599999999998E35	 	5.80466E-36	 	6283.306	25.487	 
70.0	1.0	0.0	7.84999	6.9685	-11.18709	18.48236	14.91336	0.74977	1.33375	189.23545	157.75233	72.77888	0.30007	 	1.10885E36	 	1.51041E-36	 	6156.26	25.4092	 
65.0	1.0	0.0	7.85218	6.96657	-11.21178	18.47027	14.8478	0.7421	1.34752	189.56826	157.85816	72.91907	0.29985	 	4.3689599999999994E36	 	3.77762E-37	 	6029.61	25.33	 
60.0	1.0	0.0	7.85436	6.96463	-11.23644	18.4582	14.78224	0.73437	1.3617	189.90059	157.96336	73.05912	0.29964	 	1.79372E37	 	9.06507E-38	 	5903.365	25.249	 
55.0	1.0	0.0	7.85654	6.9627	-11.26106	18.44615	14.71667	0.72658	1.37632	190.23246	158.06795	73.19904	0.29942	 	7.6882099999999995E37	 	2.08321E-38	 	5777.532	25.1666	 
50.0	1.0	0.0	7.85871	6.96077	-11.28566	18.43412	14.6511	0.71871	1.39139	190.56388	158.17194	73.33883	0.2992	 	3.4471099999999996E38	 	4.57547E-39	 	5652.122	25.082	 
45.0	1.0	0.0	7.86089	6.95884	-11.31022	18.4221	14.58552	0.71077	1.40693	190.89487	158.27535	73.47851	0.29898	 	1.62019E39	 	9.58412E-40	 	5527.142	24.996	 
40.0	1.0	0.0	7.86307	6.95692	-11.33475	18.41011	14.51993	0.70276	1.42297	191.22544	158.37819	73.61807	0.29877	 	8.00093E39	 	1.91029E-40	 	5402.605	24.9074	 
35.0	1.0	0.0	7.86524	6.955	-11.35924	18.39813	14.45434	0.69467	1.43952	191.55561	158.48048	73.75752	0.29855	 	4.16124E40	 	3.61432E-41	 	5278.521	24.8168	 
30.0	1.0	0.0	7.86741	6.95308	-11.38371	18.38618	14.38874	0.68652	1.45662	191.8854	158.58223	73.89687	0.29833	 	2.2852100000000003E41	 	6.47468E-42	 	5154.902	24.7238	 
25.0	1.0	0.0	7.86958	6.95116	-11.40814	 	14.32314	0.67829	1.4743	192.21483	158.68347	74.03613	0.29812	 	1.32874E42	 	1.09517E-42	 	5031.761	 	 
