T (C)	Fraction solid (wt)-TOTAL	Fraction liquid (wt)-LIQUID	Density (g/(cm)^3)-TOTAL	Molar volume (cm^3)-TOTAL	Volume change (%)-  	Average expansion coeff. (10e-6 1/K)-  	Thermal conductivity (W/(m*K))-TOTAL	Electrical resistivity (10e-6 Ohm*m)-TOTAL	Electrical conductivity (10e6 1/(Ohm*m))-TOTAL	Young's modulus (GPa)-TOTAL	Bulk modulus (GPa)-TOTAL	Shear modulus(GPa)-TOTAL	Poisson's ratio-TOTAL	Liquid viscosity (mPa s)-  	Total viscosity (mPa s)-  	Liquid diffusivity (10e-9 (m^2)/s)-  	Total diffusivity (10e-9 (m^2)/s)-  	Surface Tension (mN/m)-  	Enthalpy (J/mole)-TOTAL	Specific heat (J/(mole K))-TOTAL	Latent heat (J/mole)-TOTAL
1500.0	0.0	1.0	6.88404	7.74222	0.0	27.24729	32.47719	1.77904	0.5621	0.0	100.04019	0.0	0.49975	6.10903	6.10903	1.41664	1.41664	1784.20373	65182.233	 	0.0
1495.0	0.0	1.0	6.88787	7.7379	-0.0557039	27.19842	32.40418	1.77802	0.56242	0.0	100.22332	0.0	0.49975	6.16014	6.16014	1.40093	1.40093	1786.18271	64963.061	43.8344	0.0
1490.0	0.0	1.0	6.8917	7.7336	-0.11125	27.14962	32.33118	1.77699	0.56275	0.0	100.40644	0.0	0.49975	6.21196	6.21196	1.38531	1.38531	1788.15911	64744.457	43.7208	0.0
1485.0	0.0	1.0	6.89553	7.72932	-0.16665	27.10088	32.25817	1.77596	0.56307	0.0	100.58957	0.0	0.49975	6.26453	6.26453	1.36979	1.36979	1790.13292	64526.417	43.608	0.0
1480.0	0.0	1.0	6.89935	7.72504	-0.22188	27.0522	32.18516	1.77493	0.5634	0.0	100.7727	0.0	0.49975	6.31784	6.31784	1.35437	1.35437	1792.10409	64308.937	43.496	0.0
1475.0	0.0	1.0	6.90316	7.72077	-0.27697	27.00359	32.11215	1.77389	0.56373	0.0	100.95583	0.0	0.49975	6.37191	6.37191	1.33905	1.33905	1794.07259	64092.013	43.3848	0.0
1470.0	0.0	1.0	6.90696	7.71652	-0.3319	26.95505	32.03914	1.77285	0.56406	0.0	101.13895	0.0	0.49975	6.42676	6.42676	1.32382	1.32382	1796.03838	63875.642	43.2742	0.0
1465.0	0.0	1.0	6.91076	7.71228	-0.38667	26.90656	31.96613	1.7718	0.5644	0.0	101.32208	0.0	0.49975	6.48241	6.48241	1.30869	1.30869	1798.00142	63659.818	43.1648	0.0
1460.0	0.0	1.0	6.91455	7.70805	-0.44129	26.85815	31.89312	1.77075	0.56473	0.0	101.50521	0.0	0.49975	6.53886	6.53886	1.29366	1.29366	1799.96168	63444.54	43.0556	0.0
1455.0	0.0	1.0	6.91833	7.70384	-0.49575	26.8098	31.82011	1.76969	0.56507	0.0	101.68834	0.0	0.49975	6.59613	6.59613	1.27873	1.27873	1801.91912	63229.802	42.9476	0.0
1450.0	0.0	1.0	6.92211	7.69963	-0.55006	26.76152	31.7471	1.76863	0.56541	0.0	101.87146	0.0	0.49975	6.65424	6.65424	1.2639	1.2639	1803.8737	63015.603	42.8398	0.0
1445.0	0.0	1.0	6.92588	7.69544	-0.60421	26.71331	31.67409	1.76756	0.56575	0.0	102.05459	0.0	0.49975	6.7132	6.7132	1.24916	1.24916	1805.82537	62801.941	42.7324	0.0
1440.0	0.0	1.0	6.92965	7.69126	-0.6582	26.66516	31.60108	1.76649	0.56609	0.0	102.23772	0.0	0.49975	6.77304	6.77304	1.23452	1.23452	1807.7741	62588.812	42.6258	0.0
1435.0	0.0	1.0	6.93341	7.68709	-0.71205	26.61709	31.52807	1.76541	0.56644	0.0	102.42085	0.0	0.49975	6.83377	6.83377	1.21998	1.21998	1809.71986	62376.214	42.5196	0.0
1430.0	0.0	1.0	6.93716	7.68293	-0.76573	26.56908	31.45506	1.76433	0.56679	0.0	102.60397	0.0	0.49975	6.8954	6.8954	1.20554	1.20554	1811.66258	62164.141	42.4146	0.0
1425.0	0.0	1.0	6.9409	7.67879	-0.81926	26.52115	31.38205	1.76324	0.56714	0.0	102.7871	0.0	0.49975	6.95795	6.95795	1.19119	1.19119	1813.60224	61952.59	42.3102	0.0
1423.95	0.0	1.0	6.94169	7.67792	-0.83049	26.51108	31.36672	1.76302	0.56721	0.0	102.82555	0.0	0.49975	6.9712	6.9712	1.18819	1.18819	1814.00915	61908.233	42.2488	0.0020
1420.0	0.0544301	0.94557	6.95254	7.66592	-0.98544	26.17125	31.4397	1.75483	0.56986	4.27595E-4	100.51722	1.43331E-4	0.49163	6.97443	7.51237	1.18488	1.10003	1813.97043	61239.735	169.236	501.822
1415.0	0.1162	0.8838	6.9651	7.65219	-1.16275	25.78892	31.51767	1.74532	0.57296	0.00901488	97.93822	0.0030407	0.48237	6.97898	8.80849	1.18061	0.9354	1813.97019	60461.659	155.615	1069.382
1410.0	0.17117	0.82883	6.97664	7.63956	-1.32597	25.44185	31.58112	1.73665	0.57582	0.0430548	95.68585	0.014604	0.47407	6.98342	12.19981	1.17636	0.67337	1814.0233	59748.607	142.61	1572.43
1405.0	0.22035	0.77965	6.98719	7.62818	-1.47296	25.13617	31.63299	1.72865	0.57848	0.11989	93.71539	0.0408717	0.46661	6.98832	19.37428	1.17205	0.42276	1814.11926	59090.657	131.59	2020.883
1400.0	0.26461	0.73539	6.99699	7.61765	-1.6089	24.85828	31.67445	1.72125	0.58097	0.25259	91.98535	0.0865139	0.45985	6.9931	31.8811	1.16776	0.25615	1814.25955	58479.779	122.176	2422.77
1395.0	0.30462	0.69538	7.0061	7.60786	-1.73543	24.60402	31.70663	1.71436	0.58331	0.44923	90.46303	0.15451	0.45371	6.99799	51.02482	1.16345	0.15957	1814.44153	57909.403	114.075	2784.654
1390.0	0.34092	0.65908	7.01455	7.59891	-1.85095	24.37805	31.73141	1.70789	0.58552	0.71353	89.12424	0.24637	0.44811	7.00331	77.88182	1.15908	0.10423	1814.65631	57374.111	107.058	3111.951
1385.0	0.37401	0.62599	7.02252	7.59048	-1.95989	24.16845	31.74911	1.70181	0.58761	1.04603	87.94379	0.36246	0.44297	7.00843	113.33328	1.15476	0.071409	1814.90863	56869.393	100.944	3409.169
1380.0	0.40427	0.59573	7.03002	7.58254	-2.06245	23.97492	31.7606	1.69606	0.5896	1.44464	86.90374	0.50222	0.43824	7.01363	158.09202	1.15042	0.0510375	1815.19489	56391.47	95.5846	3680.084
1375.0	0.43204	0.56796	7.03706	7.57521	-2.15714	23.80173	31.76703	1.69059	0.59151	1.90585	85.98974	0.66457	0.43389	7.01927	212.80126	1.14602	0.0378015	1815.50692	55937.155	90.863	3927.877
1370.0	0.45759	0.54241	7.04377	7.56817	-2.24798	23.63793	31.76834	1.68539	0.59333	2.42514	85.18581	0.84804	0.42986	7.02467	277.98952	1.14166	0.0288493	1815.85202	55503.741	86.6828	4155.257
1365.0	0.48117	0.51883	7.05013	7.56153	-2.33375	23.48705	31.76543	1.68042	0.59509	2.99761	84.48135	1.05097	0.42611	7.03015	354.20515	1.1373	0.0225728	1816.22358	55088.917	82.9648	4364.527
1360.0	0.50297	0.49703	7.05621	7.55523	-2.41519	23.34716	31.75864	1.67564	0.59679	3.61802	83.8663	1.27159	0.42263	7.03574	441.95069	1.13293	0.0180359	1816.62045	54690.698	79.6438	4557.671
1359.44	0.50538	0.49462	7.05687	7.55459	-2.42347	23.3338	31.7578	1.67511	0.59697	3.69192	83.80103	1.29792	0.42225	7.03652	452.73539	1.13241	0.0176002	1816.66399	54646.454	 	4578.889
1359.44	0.50538	0.49462	7.05687	7.55459	-2.42347	23.3338	31.7578	1.67511	0.59697	3.69192	83.80103	1.29792	0.42225	7.03652	452.73541	1.13241	0.0176002	1816.66399	54646.455	 	4578.888
1355.0	0.53463	0.46537	7.06429	7.5467	-2.52534	23.12557	31.77302	1.66976	0.59889	4.51343	83.64692	1.59142	0.41805	7.03057	604.37014	1.13029	0.0131486	1816.73163	54159.306	106.278	4884.464
1350.0	0.56473	0.43527	7.07214	7.53848	-2.63152	22.91351	31.78365	1.66407	0.60093	5.53989	83.55446	1.95938	0.41369	7.02366	806.31671	1.12793	0.00982516	1816.84769	53642.675	103.326	5196.968
1345.0	0.59214	0.40786	7.07948	7.53085	-2.73003	22.72156	31.78786	1.65873	0.60287	6.67057	83.53089	2.36599	0.40968	7.01677	1042.09596	1.12556	0.00757875	1817.00439	53156.581	97.2188	5479.405
1340.0	0.61715	0.38285	7.08642	7.52378	-2.82138	22.54848	31.78662	1.65367	0.60472	7.90072	83.56608	2.80966	0.40599	7.00953	1312.50293	1.12324	0.00599876	1817.19795	52697.589	91.7984	5735.207
1335.0	0.64	0.36	7.09301	7.51714	-2.90714	22.39	31.78024	1.64887	0.60647	9.22368	83.64975	3.2881	0.40259	7.00193	1618.30904	1.12097	0.00485011	1817.42997	52262.753	86.9672	5967.318
1330.0	0.66093	0.33907	7.09921	7.51096	-2.98703	22.24713	31.76931	1.64431	0.60816	10.62964	83.77569	3.79781	0.39944	6.99458	1960.15368	1.11866	0.00399182	1817.69408	51849.534	82.6438	6178.273
1325.0	0.68012	0.31988	7.10511	7.50517	-3.06181	22.11783	31.75434	1.63996	0.60977	12.10972	83.9379	4.33565	0.39653	6.98742	2339.27774	1.11632	0.00333444	1817.98908	51455.732	78.7604	6370.268
1320.0	0.69775	0.30225	7.11075	7.49966	-3.13297	21.99797	31.73546	1.6358	0.61132	13.65163	84.13099	4.89717	0.39383	6.98017	2756.40296	1.11398	0.00282098	1818.31943	51079.429	75.2606	6545.221
1315.0	0.71395	0.28605	7.11611	7.49453	-3.19916	21.89159	31.71339	1.6318	0.61282	15.24342	84.35242	5.47803	0.39132	6.97354	3212.92458	1.11154	0.00241256	1818.67232	50718.946	72.0966	6704.807
1310.0	0.72886	0.27114	7.12126	7.48965	-3.26224	21.79339	31.68815	1.62796	0.61427	16.8731	84.59768	6.07386	0.38899	6.96711	3710.05847	1.10906	0.00208271	1819.05565	50372.801	69.229	6850.505
1305.0	0.74259	0.25741	7.12618	7.48501	-3.32211	21.70383	31.66002	1.62426	0.61567	18.52884	84.86426	6.68031	0.38682	6.96155	4249.29112	1.10644	0.00181267	1819.46506	50039.683	66.6236	6983.623
1300.0	0.75526	0.24474	7.13093	7.48062	-3.37885	21.62272	31.6294	1.62068	0.61703	20.2005	85.15002	7.29363	0.3848	6.95655	4832.83485	1.10373	0.00158875	1819.898	49718.423	64.252	7105.328
1295.0	0.76695	0.23305	7.13549	7.47643	-3.43295	21.54873	31.59638	1.61722	0.61835	21.8765	85.45261	7.90954	0.38292	6.95272	5462.22522	1.10083	0.00140121	1820.3543	49407.971	62.0904	7216.667
1290.0	0.77774	0.22226	7.13991	7.47242	-3.48471	21.48106	31.56123	1.61385	0.61963	23.54927	85.77019	8.5252	0.38116	6.94975	6140.27912	1.09779	0.00124251	1820.83378	49107.38	60.1182	7318.585
1285.0	0.78772	0.21228	7.14416	7.46861	-3.53403	21.42011	31.52417	1.61058	0.62089	25.21015	86.10112	9.13735	0.37951	6.94817	6869.54768	1.09452	0.00110705	1821.332	48815.791	58.3178	7411.937
1280.0	0.79695	0.20305	7.14831	7.4649	-3.58191	21.36294	31.48514	1.60741	0.62212	26.8554	86.44357	9.74459	0.37796	6.9479	7653.55743	1.09105	9.9046E-4	1821.85622	48532.422	56.6738	7497.503
1275.0	0.8055	0.1945	7.15232	7.46137	-3.62746	21.31228	31.44468	1.60429	0.62333	28.47472	86.79708	10.34302	0.37652	6.94918	8494.85836	1.08734	8.89495E-4	1822.39429	48256.561	55.1722	7575.994
1272.0	0.80972	0.19028	7.15446	7.45923	-3.65506	21.28082	31.41957	1.60247	0.62404	29.32496	87.0135	10.65753	0.37579	6.95084	8999.04622	1.08498	8.38034E-4	1822.72529	48100.141	 	7614.324
1270.0	0.83103	0.16897	7.15936	7.4543	-3.71883	21.12373	31.4027	1.60125	0.62451	33.55442	87.32026	12.22922	0.3719	6.99009	10336.11115	1.07749	7.28681E-4	1821.41229	47719.234	107.465	7916.38
1269.88	0.83216	0.16784	7.15962	7.45404	-3.72219	21.11569	31.40166	1.60118	0.62454	33.79371	87.33769	12.31829	0.37169	6.99263	10413.55998	1.07701	7.23206E-4	1821.33276	47698.447	 	7932.434
1265.0	0.88623	0.11377	7.1741	7.43945	-3.91065	20.6311	31.35829	1.59832	0.62566	46.90516	88.12588	17.2214	0.36183	7.13202	14555.79281	1.05262	5.15762E-4	1821.90361	46723.067	199.233	8716.032
1260.0	0.9182	0.0818022	7.18364	7.42979	-4.03535	20.33746	31.30949	1.59561	0.62672	56.40872	88.79492	20.80147	0.35588	7.28521	18061.73443	1.02714	4.14297E-4	1822.18988	46068.718	130.87	9174.291
1255.0	0.93833	0.061668	7.19055	7.42273	-4.1266	20.14304	31.2585	1.593	0.62775	63.18909	89.38926	23.36793	0.35205	7.44626	21115.93549	1.00165	3.53218E-4	1822.25024	45587.52	96.2396	9459.82
1250.0	0.95193	0.0480722	7.19602	7.41707	-4.19972	20.00231	31.20625	1.59045	0.62875	68.20925	89.94025	25.27427	0.34938	7.61502	23924.49747	0.97624	3.10732E-4	1822.13202	45201.678	77.1684	9650.414
1245.0	0.9616	0.0384004	7.20065	7.41225	-4.26195	19.89375	31.15337	1.58792	0.62976	72.0732	90.4645	26.74487	0.34742	7.79062	26619.49239	0.95111	2.78357E-4	1821.85749	44873.098	65.716	9784.163
1240.0	0.96876	0.0312432	7.20474	7.40795	-4.31748	19.80491	31.09974	1.58542	0.63075	75.15269	90.97069	27.91887	0.34591	7.97281	29287.24648	0.92631	2.52168E-4	1821.46391	44581.17	58.3856	9881.678
1235.0	0.97422	0.0257772	7.20849	7.40398	-4.36869	19.72867	31.04602	1.58291	0.63175	77.68381	91.46442	28.88502	0.34471	8.16078	31988.06124	0.90199	2.30114E-4	1820.97944	44313.905	53.453	9954.948
1230.0	0.97851	0.0214932	7.21199	7.40026	-4.41673	19.6616	30.99213	1.58041	0.63275	79.81933	91.9495	29.70096	0.34372	8.35496	34766.60382	0.8781	2.11022E-4	1820.40464	44063.917	49.9976	10011.357
1225.0	0.98194	0.0180649	7.21533	7.39671	-4.46262	19.60068	30.93809	1.5779	0.63375	81.66351	92.42783	30.40613	0.34288	8.55453	37658.73094	0.85476	1.94167E-4	1819.76457	43826.444	47.4946	10055.665
1220.0	0.98473	0.0152693	7.21854	7.39328	-4.5069	19.54428	30.88395	1.57539	0.63476	83.28751	92.90137	31.02751	0.34216	8.75995	40694.44812	0.83193	1.79083E-4	1819.0664	43598.295	45.6298	10091.06
1217.57	0.9859	0.0141	7.22006	7.39165	-4.52795	19.51819	30.85759	1.57417	0.63526	84.01026	93.12999	31.30416	0.34184	8.86152	42229.07095	0.82106	1.72294E-4	1818.71017	43490.158	 	10105.623
1217.57	0.9859	0.0141	7.22006	7.39165	-4.52795	19.51819	30.85759	1.57417	0.63526	84.01026	93.12999	31.30416	0.34184	8.86152	42229.08757	0.82106	1.72294E-4	1818.71018	43490.157	 	10105.623
1215.0	0.98734	0.0126607	7.22175	7.38986	-4.55109	19.48772	30.82906	1.57291	0.63576	84.87675	93.37752	31.63636	0.34144	8.96512	43954.77527	0.81017	1.65245E-4	1817.87266	43370.708	45.5174	10126.302
1210.0	0.98972	0.0102818	7.22496	7.38644	-4.59523	19.43081	30.77382	1.57044	0.63676	86.40647	93.85445	32.22306	0.34076	9.17084	47446.88233	0.78934	1.52568E-4	1816.23511	43145.049	45.1318	10160.023
1205.0	0.99165	0.00835285	7.2281	7.38311	-4.63831	19.37678	30.71889	1.56794	0.63778	87.7671	94.3264	32.74511	0.34016	9.38228	51139.60807	0.76895	1.41074E-4	1814.57627	42926.754	43.659	10186.784
1200.0	0.99324	0.00676103	7.23118	7.37984	-4.68056	19.32491	30.66409	1.56543	0.6388	88.99974	94.79469	33.21821	0.33962	9.59903	55064.60222	0.74904	1.30575E-4	1812.90366	42714.02	42.5468	10208.387
1195.0	0.99457	0.00542755	7.23422	7.37662	-4.72217	19.27465	30.60938	1.56291	0.63983	90.13439	95.26019	33.65381	0.33914	9.82101	59252.81499	0.72963	1.20934E-4	1811.22575	42505.596	41.6848	10226.081
1190.0	0.99571	0.00429435	7.23722	7.37344	-4.76325	19.22566	30.55475	1.56037	0.64087	91.19187	95.72334	34.05989	0.3387	10.04821	63734.49215	0.7107	1.12047E-4	1809.5431	42300.585	41.0022	10240.759
1185.0	0.99668	0.00332204	7.24019	7.37029	-4.8039	19.17765	30.50006	1.55783	0.64192	92.18818	96.18449	34.44258	0.33829	10.28064	68541.08845	0.69226	1.03834E-4	1807.86213	42098.33	40.451	10253.077
1180.0	0.99752	0.00247949	7.24314	7.36717	-4.84413	19.13057	30.44545	1.55527	0.64298	93.13461	96.6443	34.8062	0.3379	10.5192	73705.25434	0.67424	9.62274E-5	1806.17462	41898.34	39.998	10263.524
1175.0	0.99826	0.0017418	7.24606	7.36409	-4.88403	19.08414	30.39092	1.5527	0.64404	94.04047	97.10266	35.15431	0.33754	10.76268	79261.65663	0.65672	8.91738E-5	1804.49577	41700.241	39.6198	10272.472
1170.0	0.99891	0.00109238	7.24897	7.36102	-4.92361	19.03835	30.33648	1.55012	0.64511	94.91268	97.56003	35.48956	0.33719	11.01195	85247.72438	0.63964	8.26257E-5	1802.82307	41503.742	39.2998	10280.21
1165.0	0.99948	5.15656E-4	7.25186	7.35798	-4.96292	18.99306	30.28216	1.54752	0.6462	95.75678	98.01627	35.81408	0.33686	11.26722	91703.40484	0.62298	7.6543E-5	1801.15562	41308.614	39.0256	10286.964
1160.0	1.0	0.0	7.25474	7.35495	-5.00198	18.9482	30.22792	1.5449	0.64729	96.57764	98.47168	36.12975	0.33654	 	98672.84402	 	7.08893E-5	 	41114.676	38.7876	10292.914
1155.0	1.0	0.0	7.25703	7.35263	-5.03201	18.93278	30.17162	1.54239	0.64835	97.13853	98.92027	36.34512	0.33634	 	105989.5904	 	6.57654E-5	 	40903.543	42.2266	 
1150.0	1.0	0.0	7.25932	7.35031	-5.06199	18.91738	30.11533	1.53986	0.64941	97.70019	99.36854	36.56084	0.33613	 	113908.4236	 	6.09792E-5	 	40718.051	37.0984	 
1145.0	1.0	0.0	7.26161	7.34799	-5.09193	18.90199	30.05903	1.53732	0.65048	98.26261	99.81646	36.77692	0.33593	 	122483.6184	 	5.65107E-5	 	40532.737	37.0628	 
1140.0	1.0	0.0	7.2639	7.34567	-5.12182	18.8866	30.00274	1.53478	0.65156	98.82576	100.26402	36.99333	0.33572	 	131774.7572	 	5.23411E-5	 	40347.623	37.0228	 
1135.0	1.0	0.0	7.26619	7.34336	-5.15167	18.87123	29.94645	1.53222	0.65265	99.38961	100.71118	37.21007	0.33552	 	141847.2894	 	4.84523E-5	 	40162.716	36.9814	 
1130.0	1.0	0.0	7.26847	7.34106	-5.18148	18.85587	29.89015	1.52966	0.65374	99.95414	101.15792	37.42713	0.33532	 	152773.1534	 	4.48274E-5	 	39978.017	36.9398	 
1125.0	1.0	0.0	7.27075	7.33875	-5.21124	18.84052	29.83386	1.52708	0.65484	100.51932	101.60422	37.6445	0.33511	 	164631.4692	 	4.14503E-5	 	39793.524	36.8986	 
1120.0	1.0	0.0	7.27303	7.33645	-5.24095	18.82519	29.77756	1.5245	0.65595	101.08513	102.05006	37.86217	0.33491	 	177509.3098	 	3.83057E-5	 	39609.235	36.8578	 
1115.0	1.0	0.0	7.27531	7.33415	-5.27062	18.80986	29.72127	1.5219	0.65707	101.65155	102.49542	38.08014	0.33471	 	191502.5615	 	3.53792E-5	 	39425.149	36.8172	 
1110.0	1.0	0.0	7.27759	7.33186	-5.30025	18.79454	29.66497	1.5193	0.6582	102.21855	102.94026	38.29839	0.3345	 	206716.8839	 	3.26573E-5	 	39241.262	36.7774	 
1105.0	1.0	0.0	7.27986	7.32957	-5.32984	18.77924	29.60868	1.51668	0.65933	102.78611	103.38458	38.51692	0.3343	 	223268.7818	 	3.0127E-5	 	39057.574	36.7376	 
1100.0	1.0	0.0	7.28213	7.32728	-5.35938	18.76394	29.55238	1.51406	0.66048	103.3542	103.82834	38.73571	0.33409	 	241286.802	 	2.77761E-5	 	38874.081	36.6986	 
1095.0	1.0	0.0	7.2844	7.325	-5.38887	18.74866	29.49609	1.51143	0.66163	103.9228	104.27152	38.95476	0.33389	 	260912.8724	 	2.55932E-5	 	38690.782	36.6598	 
1090.0	1.0	0.0	7.28667	7.32272	-5.41832	18.73339	29.43979	1.50878	0.66279	104.49188	104.71412	39.17406	0.33369	 	282303.7998	 	2.35675E-5	 	38507.675	36.6214	 
1085.0	1.0	0.0	7.28894	7.32044	-5.44773	18.71812	29.3835	1.50613	0.66395	105.06143	105.15609	39.39361	0.33348	 	305632.9472	 	2.16887E-5	 	38324.758	36.5834	 
1080.0	1.0	0.0	7.2912	7.31817	-5.4771	18.70287	29.32721	1.50346	0.66513	105.63142	105.59743	39.61338	0.33328	 	331092.1126	 	1.99473E-5	 	38142.027	36.5462	 
1075.0	1.0	0.0	7.29347	7.3159	-5.50642	18.68763	29.27091	1.50079	0.66632	106.20183	106.03811	39.83337	0.33308	 	358893.6362	 	1.83341E-5	 	37959.481	36.5092	 
1070.0	1.0	0.0	7.29573	7.31363	-5.53569	18.6724	29.21462	1.4981	0.66751	106.77263	106.47811	40.05359	0.33287	 	389272.7652	 	1.68406E-5	 	37777.117	36.4728	 
1065.0	1.0	0.0	7.29799	7.31137	-5.56492	18.65718	29.15833	1.49541	0.66871	107.34381	106.91741	40.274	0.33267	 	422490.3093	 	1.54588E-5	 	37594.933	36.4368	 
1060.0	1.0	0.0	7.30024	7.30911	-5.59411	18.64198	29.10204	1.4927	0.66993	107.91533	107.356	40.49462	0.33246	 	458835.6245	 	1.41811E-5	 	37412.925	36.4016	 
1055.0	1.0	0.0	7.3025	7.30685	-5.62326	18.62678	29.04575	1.48999	0.67115	108.48718	107.79384	40.71543	0.33226	 	498629.9699	 	1.30004E-5	 	37231.093	36.3664	 
1050.0	1.0	0.0	7.30475	7.3046	-5.65236	18.61159	28.98946	1.48726	0.67238	109.05933	108.23093	40.93641	0.33206	 	542230.2858	 	1.191E-5	 	37049.432	36.3322	 
1045.0	1.0	0.0	7.307	7.30235	-5.68142	18.59642	28.93318	1.48452	0.67362	109.63176	108.66724	41.15757	0.33185	 	590033.4493	 	1.09037E-5	 	36867.941	36.2982	 
1040.0	1.0	0.0	7.30925	7.3001	-5.71043	18.58125	28.87689	1.48177	0.67487	110.20446	109.10276	41.3789	0.33165	 	642481.0728	 	9.97564E-6	 	36686.615	36.2652	 
1035.0	1.0	0.0	7.31149	7.29786	-5.7394	18.5661	28.82061	1.47901	0.67613	110.77739	109.53746	41.60038	0.33145	 	700064.9169	 	9.12023E-6	 	36505.453	36.2324	 
1030.0	1.0	0.0	7.31374	7.29562	-5.76833	18.55096	28.76433	1.47624	0.6774	111.35053	109.97132	41.82201	0.33124	 	763333.0038	 	8.33234E-6	 	36324.452	36.2002	 
1025.0	1.0	0.0	7.31598	7.29338	-5.79721	18.53583	28.70805	1.47346	0.67867	111.92388	110.40434	42.04379	0.33104	 	832896.5257	 	7.60712E-6	 	36143.607	36.169	 
1020.0	1.0	0.0	7.31822	7.29115	-5.82605	18.52071	28.65177	1.47067	0.67996	112.49739	110.83648	42.26569	0.33084	 	909437.6584	 	6.94005E-6	 	35962.917	36.138	 
1015.0	1.0	0.0	7.32046	7.28892	-5.85485	18.5056	28.5955	1.46787	0.68126	113.07105	111.26774	42.48772	0.33063	 	993718.4067	 	6.32688E-6	 	35782.378	36.1078	 
1010.0	1.0	0.0	7.3227	7.2867	-5.8836	18.4905	28.53923	1.46505	0.68257	113.64485	111.69809	42.70987	0.33043	 	1086590.627	 	5.76366E-6	 	35601.986	36.0784	 
1005.0	1.0	0.0	7.32493	7.28447	-5.91231	18.47541	28.48297	1.46223	0.68389	114.21875	112.12752	42.93212	0.33022	 	1189007.389	 	5.24667E-6	 	35421.738	36.0496	 
1000.0	1.0	0.0	7.32716	7.28225	-5.94098	18.46033	28.42671	1.45939	0.68522	114.79274	112.556	43.15447	0.33002	 	1302035.876	 	4.77247E-6	 	35241.631	36.0214	 
995.0	1.0	0.0	7.32939	7.28004	-5.9696	18.44527	28.37045	1.45654	0.68656	115.36679	112.98353	43.37692	0.32982	 	1426872.034	 	4.33783E-6	 	35061.66	35.9942	 
990.0	1.0	0.0	7.33162	7.27783	-5.99818	18.43021	28.3142	1.45368	0.68791	115.94089	113.41008	43.59945	0.32961	 	1564857.231	 	3.93973E-6	 	34881.823	35.9674	 
985.0	1.0	0.0	7.33385	7.27562	-6.02672	18.41517	28.25796	1.45081	0.68927	116.51502	113.83564	43.82206	0.32941	 	1717497.205	 	3.57539E-6	 	34702.114	35.9418	 
980.0	1.0	0.0	7.33607	7.27341	-6.05521	18.40013	28.20173	1.44792	0.69065	117.08915	114.26019	44.04474	0.32921	 	1886483.662	 	3.24218E-6	 	34522.531	35.9166	 
975.0	1.0	0.0	7.33829	7.27121	-6.08366	18.38511	28.1455	1.44503	0.69203	117.66325	114.68372	44.26748	0.329	 	2073718.883	 	2.93767E-6	 	34343.069	35.8924	 
970.0	1.0	0.0	7.34052	7.26901	-6.11207	18.3701	28.08928	1.44212	0.69342	118.23733	115.1062	44.49028	0.3288	 	2281343.814	 	2.65962E-6	 	34163.724	35.869	 
965.0	1.0	0.0	7.34273	7.26681	-6.14044	18.3551	28.03308	1.4392	0.69483	118.81134	115.52763	44.71311	0.3286	 	2511770.138	 	2.40591E-6	 	33984.491	35.8466	 
960.0	1.0	0.0	7.34495	7.26462	-6.16876	18.34011	27.97688	1.43626	0.69625	119.38527	115.94798	44.93599	0.32839	 	2767716.954	 	2.17461E-6	 	33805.366	35.825	 
955.0	1.0	0.0	7.34716	7.26243	-6.19704	18.32513	27.9207	1.43332	0.69768	119.9591	116.36724	45.1589	0.32819	 	3052252.745	 	1.96389E-6	 	33626.344	35.8044	 
950.0	1.0	0.0	7.34938	7.26024	-6.22528	18.31016	27.86452	1.43036	0.69912	120.53282	116.78539	45.38183	0.32799	 	3368843.446	 	1.77209E-6	 	33447.421	35.7846	 
945.0	1.0	0.0	7.35159	7.25806	-6.25347	18.2952	27.80837	1.42739	0.70058	121.10639	117.20243	45.60478	0.32778	 	3721407.566	 	1.59764E-6	 	33268.59	35.7662	 
940.0	1.0	0.0	7.3538	7.25588	-6.28162	18.28025	27.75222	1.42441	0.70205	121.6798	117.61832	45.82774	0.32758	 	4114379.45	 	1.43912E-6	 	33089.847	35.7486	 
935.0	1.0	0.0	7.356	7.2537	-6.30973	18.26532	27.6961	1.42141	0.70353	122.25303	118.03307	46.05069	0.32737	 	4552781.962	 	1.29518E-6	 	32911.187	35.732	 
930.0	1.0	0.0	7.35821	7.25153	-6.3378	18.25039	27.63999	1.4184	0.70502	122.82607	118.44664	46.27364	0.32717	 	5042310.069	 	1.1646E-6	 	32732.603	35.7168	 
925.0	1.0	0.0	7.36041	7.24936	-6.36582	18.23548	27.5839	1.41538	0.70652	123.39888	118.85903	46.49657	0.32697	 	5589427.072	 	1.04624E-6	 	32554.09	35.7026	 
920.0	1.0	0.0	7.36261	7.2472	-6.3938	18.22058	27.52784	1.41234	0.70804	123.97145	119.27023	46.71948	0.32676	 	6201475.506	 	9.39046E-7	 	32375.642	35.6896	 
915.0	1.0	0.0	7.36481	7.24503	-6.42174	18.20568	27.4718	1.4093	0.70957	124.54376	119.68021	46.94237	0.32656	 	6886805.08	 	8.42054E-7	 	32197.253	35.6778	 
910.0	1.0	0.0	7.367	7.24287	-6.44964	18.1908	27.41578	1.40623	0.71112	125.1158	120.08897	47.16521	0.32636	 	7654920.431	 	7.54372E-7	 	32018.915	35.6676	 
905.0	1.0	0.0	7.3692	7.24072	-6.47749	18.17593	27.35979	1.40315	0.71268	125.68753	120.49649	47.38801	0.32615	 	8516651.953	 	6.75178E-7	 	31840.623	35.6584	 
900.0	1.0	0.0	7.37139	7.23856	-6.5053	18.16107	27.30383	1.40006	0.71425	126.25894	120.90275	47.61076	0.32595	 	9484353.515	 	6.03716E-7	 	31662.369	35.6508	 
895.0	1.0	0.0	7.37358	7.23641	-6.53307	18.14622	27.24789	1.39696	0.71584	126.83002	121.30774	47.83345	0.32575	 	1.057213155E7	 	5.3929E-7	 	31484.145	35.6448	 
890.0	1.0	0.0	7.37577	7.23427	-6.5608	18.13139	27.192	1.39384	0.71744	127.40074	121.71144	48.05607	0.32554	 	1.17961108E7	 	4.81264E-7	 	31305.943	35.6404	 
885.0	1.0	0.0	7.37795	7.23212	-6.58848	18.11656	27.13613	1.3907	0.71906	127.97108	122.11385	48.27862	0.32534	 	1.317474291E7	 	4.29051E-7	 	31127.757	35.6372	 
880.0	1.0	0.0	7.38014	7.22998	-6.61613	18.10174	27.08031	1.38755	0.72069	128.54103	122.51495	48.50109	0.32514	 	1.472916525E7	 	3.82115E-7	 	30949.576	35.6362	 
875.0	1.0	0.0	7.38232	7.22785	-6.64373	18.08694	27.02452	1.38439	0.72234	129.11056	122.91472	48.72346	0.32493	 	1.648361855E7	 	3.39964E-7	 	30771.393	35.6366	 
870.0	1.0	0.0	7.3845	7.22571	-6.67128	18.07214	26.96877	1.38121	0.724	129.67965	123.31315	48.94575	0.32473	 	1.846593353E7	 	3.02147E-7	 	30593.197	35.6392	 
865.0	1.0	0.0	7.38668	7.22358	-6.6988	18.05736	26.91307	1.37802	0.72568	130.2483	123.71023	49.16793	0.32453	 	2.070809886E7	 	2.68254E-7	 	30414.98	35.6434	 
860.0	1.0	0.0	7.38885	7.22145	-6.72627	18.04259	26.85741	1.3748	0.72738	130.81647	124.10594	49.39	0.32432	 	2.32469244E7	 	2.37908E-7	 	30236.73	35.65	 
855.0	1.0	0.0	7.39103	7.21933	-6.75371	18.02782	26.8018	1.37158	0.72909	131.38414	124.50028	49.61195	0.32412	 	2.612481706E7	 	2.10766E-7	 	30058.437	35.6586	 
850.0	1.0	0.0	7.3932	7.21721	-6.7811	18.01307	26.74625	1.36834	0.73081	131.95131	124.89322	49.83377	0.32391	 	2.93906893E7	 	1.86515E-7	 	29880.091	35.6692	 
845.0	1.0	0.0	7.39537	7.21509	-6.80844	17.99833	26.69074	1.36508	0.73256	132.51794	125.28475	50.05547	0.32371	 	3.310102438E7	 	1.64871E-7	 	29701.678	35.6826	 
840.0	1.0	0.0	7.39753	7.21298	-6.83575	17.9836	26.63529	1.3618	0.73432	133.08403	125.67486	50.27702	0.32351	 	3.732112687E7	 	1.45575E-7	 	29523.186	35.6984	 
835.0	1.0	0.0	7.3997	7.21087	-6.86302	17.96889	26.5799	1.35851	0.7361	133.64954	126.06354	50.49843	0.3233	 	4.212659272E7	 	1.28389E-7	 	29344.602	35.7168	 
830.0	1.0	0.0	7.40186	7.20876	-6.89024	17.95418	26.52457	1.3552	0.7379	134.21446	126.45078	50.71968	0.3231	 	4.760503944E7	 	1.13101E-7	 	29165.912	35.738	 
825.0	1.0	0.0	7.40403	7.20666	-6.91742	17.93948	26.4693	1.35188	0.73971	134.77878	126.83655	50.94077	0.3229	 	5.385814539E7	 	9.95169E-8	 	28987.102	35.762	 
820.0	1.0	0.0	7.40618	7.20455	-6.94456	17.9248	26.41409	1.34853	0.74155	135.34247	127.22085	51.16169	0.32269	 	6.100405632E7	 	8.74597E-8	 	28808.154	35.7896	 
815.0	1.0	0.0	7.40834	7.20246	-6.97166	17.91012	26.35895	1.34517	0.7434	135.90551	127.60367	51.38243	0.32249	 	6.918022932E7	 	7.67703E-8	 	28629.053	35.8202	 
810.0	1.0	0.0	7.4105	7.20036	-6.99871	17.89546	26.30388	1.3418	0.74527	136.46788	127.98499	51.60299	0.32229	 	7.854679834E7	 	6.73049E-8	 	28449.781	35.8544	 
805.0	1.0	0.0	7.41265	7.19827	-7.02573	17.8808	26.24887	1.3384	0.74716	137.02958	128.36479	51.82336	0.32208	 	8.92905622E7	 	5.89332E-8	 	28270.318	35.8926	 
800.0	1.0	0.0	7.4148	7.19618	-7.0527	17.86616	26.19394	1.33499	0.74907	137.59057	128.74308	52.04353	0.32188	 	1.016297172E8	 	5.15379E-8	 	28090.645	35.9346	 
795.0	1.0	0.0	7.41695	7.1941	-7.07963	17.85153	26.13907	1.33156	0.751	138.15084	129.11983	52.2635	0.32168	 	1.158194813E8	 	4.50129E-8	 	27910.74	35.981	 
790.0	1.0	0.0	7.4191	7.19201	-7.10652	17.83691	26.08428	1.32811	0.75295	138.71036	129.49503	52.48325	0.32147	 	1.321587868E8	 	3.92632E-8	 	27730.58	36.032	 
785.0	1.0	0.0	7.42124	7.18994	-7.13337	17.8223	26.02956	1.32464	0.75492	139.26913	129.86868	52.70278	0.32127	 	1.509982577E8	 	3.42028E-8	 	27550.141	36.0878	 
780.0	1.0	0.0	7.42339	7.18786	-7.16018	17.8077	25.97492	1.32115	0.75691	139.82712	130.24075	52.92209	0.32107	 	1.727497312E8	 	2.9755E-8	 	27369.395	36.1492	 
775.0	1.0	0.0	7.42553	7.18579	-7.18695	17.79311	25.92035	1.31765	0.75893	140.38432	130.61124	53.14116	0.32086	 	1.978976389E8	 	2.58505E-8	 	27188.314	36.2162	 
770.0	1.0	0.0	7.42767	7.18372	-7.21367	17.77854	25.86586	1.31413	0.76096	140.9407	130.98014	53.35999	0.32066	 	2.270126333E8	 	2.24276E-8	 	27006.869	36.289	 
765.0	1.0	0.0	7.4298	7.18165	-7.24036	17.76397	25.81143	1.31059	0.76302	141.49625	131.34743	53.57858	0.32046	 	2.607679272E8	 	1.94309E-8	 	26825.024	36.369	 
760.0	1.0	0.0	7.43194	7.17959	-7.267	17.74942	25.75709	1.30703	0.7651	142.05095	131.7131	53.79691	0.32025	 	2.999589148E8	 	1.68108E-8	 	26642.746	36.4556	 
755.0	1.0	0.0	7.43407	7.17753	-7.2936	17.73487	25.70281	1.30345	0.7672	142.60478	132.07715	54.01497	0.32005	 	3.455267749E8	 	1.45232E-8	 	26459.995	36.5502	 
750.0	1.0	0.0	7.4362	7.17547	-7.32016	17.72034	25.6486	1.29985	0.76932	143.15773	132.43955	54.23277	0.31985	 	3.985869064E8	 	1.25286E-8	 	26276.729	36.6532	 
745.0	1.0	0.0	7.43833	7.17342	-7.34668	17.70582	25.59446	1.29623	0.77147	143.70976	132.8003	54.45029	0.31964	 	4.60463243E8	 	1.0792E-8	 	26092.902	36.7654	 
740.0	1.0	0.0	7.44045	7.17137	-7.37316	17.6913	25.54039	1.2926	0.77363	144.26088	133.1594	54.66753	0.31944	 	5.327297322E8	 	9.28226E-9	 	25908.466	36.8872	 
735.0	1.0	0.0	7.44258	7.16932	-7.3996	17.6768	25.48639	1.28895	0.77583	144.81105	133.51681	54.88448	0.31923	 	6.172605555E8	 	7.97156E-9	 	25723.365	37.0202	 
730.0	1.0	0.0	7.4447	7.16728	-7.426	17.66231	25.43244	1.28527	0.77804	145.36026	133.87255	55.10113	0.31903	 	7.162910393E8	 	6.83539E-9	 	25537.541	37.1648	 
725.0	1.0	0.0	7.44682	7.16524	-7.45235	17.64783	25.37855	1.28158	0.78029	145.9085	134.22658	55.31748	0.31883	 	8.324916562E8	 	5.85198E-9	 	25350.929	37.3224	 
720.0	1.0	0.0	7.44894	7.1632	-7.47867	17.63337	25.32472	1.27787	0.78255	146.45574	134.57892	55.53352	0.31862	 	9.690580903E8	 	5.00209E-9	 	25163.458	37.4942	 
715.0	1.0	0.0	7.45106	7.16117	-7.50494	17.61891	25.27094	1.27415	0.78484	147.00197	134.92953	55.74924	0.31842	 	1.129821047E9	 	4.26874E-9	 	24975.049	37.6818	 
710.0	1.0	0.0	7.45317	7.15914	-7.53118	17.60446	25.2172	1.2704	0.78715	147.54717	135.27842	55.96464	0.31822	 	1.319380374E9	 	3.63694E-9	 	24785.617	37.8864	 
705.0	1.0	0.0	7.45528	7.15711	-7.55737	17.59003	25.1635	1.26664	0.78949	148.09132	135.62558	56.1797	0.31801	 	1.543269187E9	 	3.0935E-9	 	24595.067	38.11	 
700.0	1.0	0.0	7.45739	7.15508	-7.58352	17.5756	25.10984	1.26286	0.79186	148.6344	135.97098	56.39443	0.31781	 	1.808155062E9	 	2.62682E-9	 	24403.294	38.3546	 
695.0	1.0	0.0	7.4595	7.15306	-7.60964	17.56119	25.05621	1.25906	0.79425	149.17641	136.31463	56.60881	0.31761	 	2.122087162E9	 	2.22672E-9	 	24210.181	38.6226	 
690.0	1.0	0.0	7.4616	7.15104	-7.63571	17.54679	25.0026	1.25524	0.79666	149.71731	136.65651	56.82284	0.3174	 	2.494800331E9	 	1.88428E-9	 	24015.599	38.9164	 
685.0	1.0	0.0	7.46371	7.14903	-7.66174	17.53239	24.94901	1.25141	0.7991	150.25709	136.99662	57.03651	0.3172	 	2.938090035E9	 	1.59168E-9	 	23819.116	39.2966	 
680.0	1.0	0.0	7.46581	7.14702	-7.68773	17.51801	24.89543	1.24755	0.80157	150.79573	137.33493	57.24981	0.317	 	3.466275564E9	 	1.3421E-9	 	23606.095	42.6042	 
675.0	1.0	0.0	7.46791	7.14501	-7.71368	17.50364	24.84185	1.24369	0.80406	151.33323	137.67145	57.46275	0.31679	 	4.096773395E9	 	1.12959E-9	 	23394.981	42.2228	 
670.0	1.0	0.0	7.47001	7.143	-7.73959	17.48928	24.78827	1.2398	0.80658	151.86955	138.00616	57.6753	0.31659	 	4.850808378E9	 	9.48972E-10	 	23185.708	41.8546	 
665.0	1.0	0.0	7.4721	7.141	-7.76546	17.47493	24.73468	1.2359	0.80913	152.40468	138.33906	57.88747	0.31639	 	5.754297669E9	 	7.95732E-10	 	22978.211	41.4994	 
660.0	1.0	0.0	7.47419	7.139	-7.79129	17.4606	24.68107	1.23198	0.8117	152.93861	138.67013	58.09925	0.31618	 	6.838951676E9	 	6.65961E-10	 	22772.432	41.1558	 
655.0	1.0	0.0	7.47628	7.137	-7.81708	17.44627	24.62743	1.22805	0.8143	153.47132	138.99936	58.31062	0.31598	 	8.143648194E9	 	5.5627E-10	 	22568.311	40.8242	 
650.0	1.0	0.0	7.47837	7.13501	-7.84283	17.43195	24.57376	1.2241	0.81692	154.00279	139.32675	58.5216	0.31578	 	9.716151214E9	 	4.63729E-10	 	22365.795	40.5032	 
645.0	1.0	0.0	7.48046	7.13302	-7.86854	17.41765	24.52005	1.22014	0.81958	154.533	139.65228	58.73216	0.31557	 	1.16153E10	 	3.85808E-10	 	22164.832	40.1926	 
640.0	1.0	0.0	7.48255	7.13103	-7.89421	17.40335	24.46629	1.21616	0.82226	155.06194	139.97595	58.9423	0.31537	 	1.3913499999999998E10	 	3.20325E-10	 	21965.373	39.8918	 
635.0	1.0	0.0	7.48463	7.12905	-7.91984	17.38907	24.41247	1.21217	0.82497	155.58959	140.29775	59.15201	0.31517	 	1.6700699999999998E10	 	2.65405E-10	 	21767.37	39.6006	 
630.0	1.0	0.0	7.48671	7.12707	-7.94542	17.3748	24.35858	1.20816	0.8277	156.11593	140.61766	59.36129	0.31496	 	2.00879E10	 	2.19438E-10	 	21570.78	39.318	 
625.0	1.0	0.0	7.48879	7.12509	-7.97097	17.36054	24.30462	1.20414	0.83047	156.64095	140.93569	59.57014	0.31476	 	2.4213199999999996E10	 	1.81044E-10	 	21375.56	39.044	 
620.0	1.0	0.0	7.49086	7.12311	-7.99648	17.34629	24.25057	1.20011	0.83326	157.16463	141.25181	59.77853	0.31456	 	2.9248499999999996E10	 	1.49042E-10	 	21181.669	38.7782	 
615.0	1.0	0.0	7.49294	7.12114	-8.02195	17.33205	24.19644	1.19606	0.83608	157.68694	141.56603	59.98648	0.31435	 	3.54081E10	 	1.22425E-10	 	20989.07	38.5198	 
610.0	1.0	0.0	7.49501	7.11917	-8.04738	17.31782	24.1422	1.192	0.83893	158.20789	141.87833	60.19397	0.31415	 	4.29604E10	 	1.00335E-10	 	20797.726	38.2688	 
605.0	1.0	0.0	7.49708	7.11721	-8.07277	17.3036	24.08786	1.18792	0.84181	158.72744	142.1887	60.40099	0.31395	 	5.224149999999999E10	 	8.20427E-11	 	20607.601	38.025	 
600.0	1.0	0.0	7.49915	7.11524	-8.09812	17.28939	24.03341	1.18383	0.84471	159.24559	142.49714	60.60754	0.31374	 	6.367379999999999E10	 	6.6929E-11	 	20418.664	37.7874	 
595.0	1.0	0.0	7.50121	7.11328	-8.12343	17.2752	23.97884	1.17973	0.84765	159.76231	142.80363	60.81361	0.31354	 	7.77897E10	 	5.44702E-11	 	20230.883	37.5562	 
590.0	1.0	0.0	7.50328	7.11133	-8.1487	17.26101	23.92415	1.17562	0.85061	160.27759	143.10818	61.01919	0.31334	 	9.526129999999998E10	 	4.42238E-11	 	20044.227	37.3312	 
585.0	1.0	0.0	7.50534	7.10937	-8.17393	17.24684	23.86932	1.1715	0.85361	160.79141	143.41076	61.22429	0.31313	 	1.1694E11	 	3.58169E-11	 	19858.668	37.1118	 
580.0	1.0	0.0	7.5074	7.10742	-8.19912	17.23267	23.81436	1.16736	0.85663	161.30376	143.71138	61.42889	0.31293	 	1.43906E11	 	2.89357E-11	 	19674.178	36.898	 
575.0	1.0	0.0	7.50946	7.10548	-8.22427	17.21852	23.75926	1.16321	0.85969	161.81462	144.01002	61.63298	0.31273	 	1.77534E11	 	2.33173E-11	 	19490.732	36.6892	 
570.0	1.0	0.0	7.51151	7.10353	-8.24939	17.20438	23.70401	1.15905	0.86278	162.32397	144.30668	61.83656	0.31252	 	2.1958E11	 	1.87412E-11	 	19308.305	36.4854	 
565.0	1.0	0.0	7.51356	7.10159	-8.27446	17.19025	23.64861	1.15487	0.8659	162.8318	144.60135	62.03962	0.31232	 	2.72291E11	 	1.50237E-11	 	19126.872	36.2866	 
560.0	1.0	0.0	7.51562	7.09965	-8.29949	17.17613	23.59305	1.15069	0.86905	163.3381	144.89401	62.24216	0.31212	 	3.38548E11	 	1.20113E-11	 	18946.412	36.092	 
555.0	1.0	0.0	7.51766	7.09772	-8.32449	17.16202	23.53734	1.14649	0.87223	163.84283	145.18467	62.44418	0.31191	 	4.22061E11	 	9.57679E-12	 	18766.902	35.902	 
550.0	1.0	0.0	7.51971	7.09579	-8.34944	17.14792	23.48147	1.14228	0.87544	164.346	145.47332	62.64565	0.31171	 	5.27619E11	 	7.61456E-12	 	18588.322	35.716	 
545.0	1.0	0.0	7.52176	7.09386	-8.37436	17.13383	23.42544	1.13805	0.87869	164.84758	145.75994	62.84658	0.31151	 	6.6142E11	 	6.03729E-12	 	18410.652	35.534	 
540.0	1.0	0.0	7.5238	7.09193	-8.39923	17.11975	23.36925	1.13382	0.88198	165.34755	146.04453	63.04696	0.3113	 	8.3151E11	 	4.77298E-12	 	18233.872	35.356	 
535.0	1.0	0.0	7.52584	7.09001	-8.42407	17.10569	23.3129	1.12957	0.88529	165.84591	146.32708	63.24679	0.3111	 	1.04837E12	 	3.7624E-12	 	18057.966	35.1812	 
530.0	1.0	0.0	7.52788	7.08809	-8.44887	17.09163	23.25638	1.12531	0.88864	166.34263	146.60759	63.44606	0.3109	 	1.32568E12	 	2.95695E-12	 	17882.915	35.0102	 
525.0	1.0	0.0	7.52991	7.08617	-8.47363	17.07759	23.19971	1.12104	0.89203	166.8377	146.88604	63.64475	0.31069	 	1.68139E12	 	2.31687E-12	 	17708.702	34.8426	 
520.0	1.0	0.0	7.53195	7.08426	-8.49835	17.06356	23.14287	1.11675	0.89546	167.33111	147.16244	63.84288	0.31049	 	2.13908E12	 	1.80974E-12	 	17535.312	34.678	 
515.0	1.0	0.0	7.53398	7.08235	-8.52303	17.04953	23.08588	1.11245	0.89892	167.82283	147.43677	64.04042	0.31029	 	2.72984E12	 	1.40915E-12	 	17362.73	34.5164	 
510.0	1.0	0.0	7.53601	7.08044	-8.54767	17.03552	23.02873	1.10814	0.90242	168.31286	147.70902	64.23737	0.31009	 	3.49483E12	 	1.09372E-12	 	17190.94	34.358	 
505.0	1.0	0.0	7.53804	7.07853	-8.57227	17.02152	22.97143	1.10381	0.90596	168.80117	147.97919	64.43374	0.30988	 	4.48871E12	 	8.46114E-13	 	17019.928	34.2024	 
500.0	1.0	0.0	7.54006	7.07663	-8.59684	17.00753	22.91398	1.09946	0.90953	169.28775	148.24728	64.6295	0.30968	 	5.78427E12	 	6.52382E-13	 	16849.682	34.0492	 
495.0	1.0	0.0	7.54209	7.07473	-8.62136	16.99355	22.85639	1.09511	0.91315	169.77259	148.51327	64.82466	0.30948	 	7.47886E12	 	5.01299E-13	 	16680.187	33.899	 
490.0	1.0	0.0	7.54411	7.07284	-8.64585	16.97959	22.79866	1.09073	0.91681	170.25568	148.77716	65.01921	0.30927	 	9.70312E12	 	3.83871E-13	 	16511.432	33.751	 
485.0	1.0	0.0	7.54613	7.07094	-8.6703	16.96563	22.7408	1.08634	0.92052	170.73698	149.03895	65.21314	0.30907	 	1.2633E13	 	2.92912E-13	 	16343.404	33.6056	 
480.0	1.0	0.0	7.54815	7.06905	-8.69471	16.95168	22.6828	1.08194	0.92427	171.2165	149.29862	65.40644	0.30887	 	1.65062E13	 	2.22701E-13	 	16176.092	33.4624	 
475.0	1.0	0.0	7.55016	7.06717	-8.71908	16.93775	22.62469	1.07752	0.92806	171.69422	149.55617	65.59912	0.30866	 	2.16454E13	 	1.68698E-13	 	16009.484	33.3216	 
470.0	1.0	0.0	7.55218	7.06528	-8.74341	16.92382	22.56646	1.07308	0.9319	172.17011	149.81159	65.79116	0.30846	 	2.84903E13	 	1.27311E-13	 	15843.57	33.1828	 
465.0	1.0	0.0	7.55419	7.0634	-8.7677	16.90991	22.50812	1.06862	0.93579	172.64417	150.06488	65.98256	0.30826	 	3.76417E13	 	9.57111E-14	 	15678.34	33.046	 
460.0	1.0	0.0	7.5562	7.06153	-8.79196	16.89601	22.44967	1.06414	0.93972	173.11639	150.31604	66.17331	0.30805	 	4.9925E13	 	7.1674E-14	 	15513.782	32.9116	 
455.0	1.0	0.0	7.5582	7.05965	-8.81617	16.88212	22.39114	1.05965	0.94371	173.58674	150.56504	66.36341	0.30785	 	6.64779E13	 	5.34602E-14	 	15349.889	32.7786	 
450.0	1.0	0.0	7.56021	7.05778	-8.84035	16.86823	22.33251	1.05514	0.94774	174.05521	150.8119	66.55285	0.30765	 	8.88755E13	 	3.9713E-14	 	15186.65	32.6478	 
445.0	1.0	0.0	7.56221	7.05591	-8.86449	16.85436	22.27381	1.0506	0.95183	174.52179	151.0566	66.74163	0.30744	 	1.19308E14	 	2.93788E-14	 	15024.056	32.5188	 
440.0	1.0	0.0	7.56421	7.05404	-8.88859	16.84051	22.21503	1.04605	0.95598	174.98646	151.29915	66.92973	0.30724	 	1.60832E14	 	2.16418E-14	 	14862.099	32.3914	 
435.0	1.0	0.0	7.56621	7.05218	-8.91265	16.82666	22.15619	1.04147	0.96018	175.44921	151.53952	67.11716	0.30704	 	2.17739E14	 	1.58736E-14	 	14700.77	32.2658	 
430.0	1.0	0.0	7.5682	7.05032	-8.93668	16.81282	22.09729	1.03688	0.96444	175.91003	151.77772	67.30391	0.30683	 	2.9607E14	 	1.15915E-14	 	14540.062	32.1416	 
425.0	1.0	0.0	7.5702	7.04846	-8.96066	16.79899	22.03835	1.03226	0.96875	176.36889	152.01375	67.48996	0.30663	 	4.04379E14	 	8.42648E-15	 	14379.965	32.0194	 
420.0	1.0	0.0	7.57219	7.04661	-8.98461	16.78518	21.97936	1.02761	0.97313	176.8258	152.24759	67.67533	0.30643	 	5.5483299999999994E14	 	6.0975E-15	 	14220.474	31.8982	 
415.0	1.0	0.0	7.57418	7.04476	-9.00852	16.77137	21.92034	1.02295	0.97757	177.28073	152.47924	67.85999	0.30622	 	7.64816E14	 	4.3915E-15	 	14061.58	31.7788	 
410.0	1.0	0.0	7.57617	7.04291	-9.03239	16.75758	21.8613	1.01826	0.98207	177.73367	152.70871	68.04395	0.30602	 	1.05929E15	 	3.14765E-15	 	13903.276	31.6608	 
405.0	1.0	0.0	7.57815	7.04106	-9.05623	16.7438	21.80224	1.01354	0.98664	178.1846	152.93597	68.2272	0.30582	 	1.4743E15	 	2.24505E-15	 	13745.555	31.5442	 
400.0	1.0	0.0	7.58014	7.03922	-9.08002	16.73002	21.74316	1.0088	0.99127	178.63352	153.16104	68.40974	0.30561	 	2.06212E15	 	1.59325E-15	 	13588.412	31.4286	 
395.0	1.0	0.0	7.58212	7.03738	-9.10378	16.71626	21.68409	1.00404	0.99598	179.08041	153.3839	68.59155	0.30541	 	2.89898E15	 	1.1249E-15	 	13431.838	31.3148	 
390.0	1.0	0.0	7.5841	7.03555	-9.1275	16.70251	21.62501	0.99925	1.00075	179.52525	153.60455	68.77264	0.30521	 	4.09668E15	 	7.90072E-16	 	13275.828	31.202	 
385.0	1.0	0.0	7.58607	7.03371	-9.15119	16.68877	21.56595	0.99443	1.0056	179.96804	153.82299	68.95299	0.30501	 	5.82002E15	 	5.51934E-16	 	13120.376	31.0904	 
380.0	1.0	0.0	7.58805	7.03188	-9.17483	16.67504	21.5069	0.98958	1.01053	180.40876	154.03921	69.13261	0.3048	 	8.31332E15	 	3.83465E-16	 	12965.476	30.98	 
375.0	1.0	0.0	7.59002	7.03005	-9.19844	16.66133	21.44788	0.98471	1.01553	180.84741	154.25321	69.31149	0.3046	 	1.19409E16	 	2.64927E-16	 	12811.123	30.8706	 
370.0	1.0	0.0	7.59199	7.02823	-9.22201	16.64762	21.38888	0.97981	1.02061	181.28395	154.46498	69.48962	0.3044	 	1.7249100000000002E16	 	1.81983E-16	 	12657.309	30.7628	 
365.0	1.0	0.0	7.59396	7.02641	-9.24554	16.63392	21.32992	0.97488	1.02577	181.7184	154.67453	69.667	0.30419	 	2.50624E16	 	1.24276E-16	 	12504.032	30.6554	 
360.0	1.0	0.0	7.59593	7.02459	-9.26903	16.62024	21.27099	0.96992	1.03101	182.15073	154.88184	69.84363	0.30399	 	3.66323E16	 	8.43586E-17	 	12351.284	30.5496	 
355.0	1.0	0.0	7.59789	7.02277	-9.29249	16.60656	21.21211	0.96493	1.03634	182.58093	155.08693	70.01949	0.30379	 	5.38705E16	 	5.69113E-17	 	12199.061	30.4446	 
350.0	1.0	0.0	7.59985	7.02096	-9.3159	16.5929	21.15327	0.95992	1.04176	183.00899	155.28977	70.19459	0.30358	 	7.97165E16	 	3.81532E-17	 	12047.358	30.3406	 
345.0	1.0	0.0	7.60181	7.01915	-9.33929	16.57925	21.09448	0.95487	1.04727	183.4349	155.49038	70.36891	0.30338	 	1.18719E17	 	2.54133E-17	 	11896.17	30.2376	 
340.0	1.0	0.0	7.60377	7.01734	-9.36263	16.56561	21.03575	0.94979	1.05287	183.85864	155.68875	70.54246	0.30318	 	1.77965E17	 	1.68159E-17	 	11745.494	30.1352	 
335.0	1.0	0.0	7.60573	7.01554	-9.38594	16.55197	20.97708	0.94468	1.05856	184.28022	155.88487	70.71523	0.30297	 	2.68571E17	 	1.10519E-17	 	11595.323	30.0342	 
330.0	1.0	0.0	7.60768	7.01374	-9.4092	16.53835	20.91846	0.93954	1.06436	184.69961	156.07875	70.88722	0.30277	 	4.08101E17	 	7.21346E-18	 	11445.654	29.9338	 
325.0	1.0	0.0	7.60963	7.01194	-9.43244	16.52475	20.85991	0.93436	1.07025	185.11682	156.27038	71.05842	0.30257	 	6.24504E17	 	4.67478E-18	 	11296.482	29.8344	 
320.0	1.0	0.0	7.61158	7.01014	-9.45563	16.51115	20.80142	0.92916	1.07624	185.53182	156.45977	71.22883	0.30236	 	9.62582E17	 	3.00756E-18	 	11147.804	29.7356	 
315.0	1.0	0.0	7.61353	7.00835	-9.47879	16.49756	20.74299	0.92392	1.08234	185.94461	156.6469	71.39844	0.30216	 	1.4947E18	 	1.92053E-18	 	10999.615	29.6378	 
310.0	1.0	0.0	7.61547	7.00656	-9.50191	16.48398	20.68463	0.91865	1.08855	186.35518	156.83179	71.56725	0.30196	 	2.33866E18	 	1.21703E-18	 	10851.913	29.5404	 
305.0	1.0	0.0	7.61742	7.00477	-9.52499	16.47042	20.62634	0.91335	1.09487	186.76352	157.01443	71.73525	0.30176	 	3.68775E18	 	7.65184E-19	 	10704.692	29.4442	 
300.0	1.0	0.0	7.61936	7.00299	-9.54803	16.45686	20.56812	0.90801	1.10131	187.16962	157.19482	71.90245	0.30155	 	5.86172E18	 	4.77232E-19	 	10557.949	29.3486	 
295.0	1.0	0.0	7.6213	7.00121	-9.57104	16.44332	20.50997	0.90264	1.10786	187.57348	157.37296	72.06884	0.30135	 	9.39398E18	 	2.95189E-19	 	10411.681	29.2536	 
290.0	1.0	0.0	7.62323	6.99943	-9.59401	16.42979	20.45189	0.89724	1.11453	187.97509	157.54885	72.23442	0.30115	 	1.5182E19	 	1.81043E-19	 	10265.885	29.1592	 
285.0	1.0	0.0	7.62517	6.99765	-9.61695	16.41627	20.39387	0.8918	1.12132	188.37444	157.7225	72.39918	0.30094	 	2.47492E19	 	1.10072E-19	 	10120.557	29.0656	 
280.0	1.0	0.0	7.6271	6.99588	-9.63984	16.40275	20.33592	0.88633	1.12824	188.77152	157.8939	72.56312	0.30074	 	4.07048E19	 	6.6326E-20	 	9975.694	28.9726	 
275.0	1.0	0.0	7.62903	6.99411	-9.6627	16.38925	20.27805	0.88083	1.1353	189.16633	158.06305	72.72624	0.30054	 	6.756E19	 	3.96001E-20	 	9831.293	28.8802	 
270.0	1.0	0.0	7.63096	6.99234	-9.68553	16.37576	20.22023	0.87529	1.14248	189.55886	158.22997	72.88853	0.30033	 	1.1318799999999998E20	 	2.3421E-20	 	9687.351	28.7884	 
265.0	1.0	0.0	7.63288	6.99058	-9.70832	16.36229	20.16248	0.86972	1.1498	189.94911	158.39464	73.04999	0.30013	 	1.91467E20	 	1.37182E-20	 	9543.866	28.697	 
260.0	1.0	0.0	7.63481	6.98882	-9.73107	16.34882	20.1048	0.86411	1.15726	190.33708	158.55708	73.21063	0.29993	 	3.2710099999999997E20	 	7.95526E-21	 	9400.835	28.6062	 
255.0	1.0	0.0	7.63673	6.98706	-9.75378	16.33536	20.04718	0.85846	1.16487	190.72275	158.71728	73.37043	0.29972	 	5.6453299999999997E20	 	4.56619E-21	 	9258.255	28.516	 
250.0	1.0	0.0	7.63865	6.9853	-9.77645	16.32192	19.98962	0.85278	1.17263	191.10613	158.87526	73.5294	0.29952	 	9.845599999999999E20	 	2.59341E-21	 	9116.124	28.4262	 
245.0	1.0	0.0	7.64056	6.98355	-9.79909	16.30848	19.93212	0.84707	1.18054	191.48721	159.03102	73.68754	0.29932	 	1.73569E21	 	1.45704E-21	 	8974.44	28.3368	 
240.0	1.0	0.0	7.64248	6.9818	-9.8217	16.29506	19.87467	0.84132	1.18861	191.866	159.18455	73.84484	0.29912	 	3.09394E21	 	8.09505E-22	 	8833.2	28.248	 
235.0	1.0	0.0	7.64439	6.98005	-9.84426	16.28164	19.81729	0.83554	1.19684	192.24248	159.33588	74.00131	0.29891	 	5.57835E21	 	4.44603E-22	 	8692.402	28.1596	 
230.0	1.0	0.0	7.6463	6.97831	-9.8668	16.26824	19.75995	0.82972	1.20523	192.61667	159.48499	74.15694	0.29871	 	1.01766E22	 	2.41314E-22	 	8552.045	28.0714	 
225.0	1.0	0.0	7.64821	6.97657	-9.88929	16.25485	19.70267	0.82386	1.2138	192.98855	159.63191	74.31173	0.29851	 	1.8790999999999998E22	 	1.29389E-22	 	8412.127	27.9836	 
220.0	1.0	0.0	7.65012	6.97483	-9.91175	16.24147	19.64543	0.81797	1.22255	193.35814	159.77664	74.46568	0.2983	 	3.5132699999999996E22	 	6.851E-23	 	8272.645	27.8964	 
215.0	1.0	0.0	7.65202	6.97309	-9.93417	16.2281	19.58825	0.81204	1.23147	193.72543	159.91918	74.6188	0.2981	 	6.653529999999999E22	 	3.58086E-23	 	8133.6	27.809	 
210.0	1.0	0.0	7.65392	6.97136	-9.95655	16.21474	19.53111	0.80607	1.24059	194.09043	160.05955	74.77108	0.2979	 	1.27686E23	 	1.84682E-23	 	7994.988	27.7224	 
205.0	1.0	0.0	7.65582	6.96963	-9.9789	16.20139	19.47401	0.80007	1.24989	194.45314	160.19776	74.92253	0.29769	 	2.4840899999999997E23	 	9.39471E-24	 	7856.808	27.636	 
200.0	1.0	0.0	7.65772	6.9679	-10.00121	16.18805	19.41695	0.79403	1.2594	194.81357	160.33381	75.07315	0.29749	 	4.9012899999999994E23	 	4.71168E-24	 	7719.061	27.5494	 
195.0	1.0	0.0	7.65962	6.96618	-10.02349	16.17473	19.35993	0.78795	1.26912	195.17172	160.46772	75.22293	0.29729	 	9.812209999999999E23	 	2.32865E-24	 	7581.744	27.4634	 
190.0	1.0	0.0	7.66151	6.96446	-10.04573	16.16141	19.30295	0.78184	1.27904	195.5276	160.5995	75.37189	0.29709	 	1.99408E24	 	1.13362E-24	 	7444.857	27.3774	 
185.0	1.0	0.0	7.6634	6.96274	-10.06793	16.14811	19.246	0.77568	1.28918	195.88121	160.72917	75.52002	0.29688	 	4.1157500000000003E24	 	5.43308E-25	 	7308.399	27.2916	 
180.0	1.0	0.0	7.66529	6.96102	-10.0901	16.13481	19.18908	0.76949	1.29955	196.23258	160.85674	75.66733	0.29668	 	8.63195E24	 	2.56224E-25	 	7172.37	27.2058	 
175.0	1.0	0.0	7.66718	6.95931	-10.11223	16.12153	19.1322	0.76327	1.31016	196.58171	160.98222	75.81382	0.29648	 	1.8405800000000002E25	 	1.18838E-25	 	7036.769	27.1202	 
170.0	1.0	0.0	7.66907	6.9576	-10.13433	16.10826	19.07534	0.757	1.321	196.92861	161.10563	75.9595	0.29627	 	3.99236E25	 	5.41761E-26	 	6901.596	27.0346	 
165.0	1.0	0.0	7.67095	6.95589	-10.15639	16.095	19.01851	0.7507	1.3321	197.27331	161.227	76.10437	0.29607	 	8.81428E25	 	2.42618E-26	 	6766.85	26.9492	 
160.0	1.0	0.0	7.67283	6.95418	-10.17841	16.08175	18.9617	0.74435	1.34345	197.6158	161.34633	76.24844	0.29587	 	1.9819500000000002E26	 	1.06668E-26	 	6632.533	26.8634	 
155.0	1.0	0.0	7.67471	6.95248	-10.2004	16.06851	18.90491	0.73797	1.35507	197.95612	161.46366	76.39171	0.29566	 	4.5417600000000005E26	 	4.60107E-27	 	6498.645	26.7776	 
150.0	1.0	0.0	7.67659	6.95078	-10.22235	16.05528	18.84815	0.73155	1.36696	198.29429	161.579	76.5342	0.29546	 	1.0613799999999999E27	 	1.94585E-27	 	6365.185	26.692	 
145.0	1.0	0.0	7.67846	6.94908	-10.24427	16.04206	18.79141	0.72509	1.37914	198.63032	161.69238	76.6759	0.29526	 	2.5313E27	 	8.0626E-28	 	6232.155	26.606	 
140.0	1.0	0.0	7.68033	6.94739	-10.26615	16.02886	18.73468	0.71859	1.39162	198.96424	161.80382	76.81684	0.29506	 	6.16534E27	 	3.27068E-28	 	6099.556	26.5198	 
135.0	1.0	0.0	7.6822	6.9457	-10.28799	16.01566	18.67797	0.71205	1.4044	199.29607	161.91335	76.95702	0.29485	 	1.53479E28	 	1.29795E-28	 	5967.389	26.4334	 
130.0	1.0	0.0	7.68407	6.94401	-10.3098	16.00248	18.62127	0.70546	1.41751	199.62585	162.02099	77.09644	0.29465	 	3.90813E28	 	5.03482E-29	 	5835.655	26.3468	 
125.0	1.0	0.0	7.68594	6.94232	-10.33157	15.9893	18.56459	0.69884	1.43094	199.95361	162.12679	77.23513	0.29445	 	1.0188E29	 	1.90741E-29	 	5704.355	26.26	 
120.0	1.0	0.0	7.6878	6.94064	-10.35331	15.97614	18.50791	0.69218	1.44471	200.27938	162.23078	77.37309	0.29424	 	2.72145E29	 	7.05091E-30	 	5573.493	26.1724	 
115.0	1.0	0.0	7.68966	6.93896	-10.37502	15.96299	18.45125	0.68547	1.45884	200.6032	162.33298	77.51034	0.29404	 	7.45603E29	 	2.54085E-30	 	5443.069	26.0848	 
110.0	1.0	0.0	7.69152	6.93728	-10.39668	15.94985	18.3946	0.67873	1.47334	200.9251	162.43344	77.6469	0.29384	 	2.0972199999999998E30	 	8.91687E-31	 	5313.086	25.9966	 
105.0	1.0	0.0	7.69338	6.93561	-10.41831	15.93671	18.33796	0.67194	1.48823	201.24514	162.5322	77.78278	0.29364	 	6.06261E30	 	3.04433E-31	 	5183.548	25.9076	 
100.0	1.0	0.0	7.69523	6.93394	-10.43991	15.9236	18.28132	0.66511	1.50351	201.56336	162.6293	77.91799	0.29343	 	1.80316E31	 	1.01003E-31	 	5054.457	25.8182	 
95.0	1.0	0.0	7.69709	6.93227	-10.46147	15.91049	18.22469	0.65824	1.51921	201.87982	162.72478	78.05257	0.29323	 	5.5242E31	 	3.25268E-32	 	4925.816	25.7282	 
90.0	1.0	0.0	7.69894	6.9306	-10.483	15.89739	18.16806	0.65132	1.53534	202.19456	162.81871	78.18652	0.29303	 	1.74541E32	 	1.01549E-32	 	4797.629	25.6374	 
85.0	1.0	0.0	7.70079	6.92894	-10.50449	15.8843	18.11144	0.64436	1.55192	202.50764	162.91112	78.31988	0.29282	 	5.6948E32	 	3.06954E-33	 	4669.901	25.5456	 
80.0	1.0	0.0	7.70263	6.92728	-10.52594	15.87123	18.05482	0.63736	1.56898	202.81914	163.00209	78.45266	0.29262	 	1.92134E33	 	8.97101E-34	 	4542.635	25.4532	 
75.0	1.0	0.0	7.70448	6.92562	-10.54736	15.85816	17.9982	0.63031	1.58652	203.12912	163.09165	78.5849	0.29242	 	6.71278E33	 	2.53134E-34	 	4415.837	25.3596	 
70.0	1.0	0.0	7.70632	6.92396	-10.56875	15.84511	17.94159	0.62322	1.60457	203.43766	163.17989	78.71662	0.29222	 	2.4324E34	 	6.88551E-35	 	4289.512	25.265	 
65.0	1.0	0.0	7.70816	6.92231	-10.5901	15.83206	17.88497	0.61608	1.62316	203.74484	163.26687	78.84786	0.29201	 	9.15597E34	 	1.80257E-35	 	4163.666	25.1692	 
60.0	1.0	0.0	7.71	6.92066	-10.61141	15.81903	17.82836	0.6089	1.6423	204.05074	163.35267	78.97864	0.29181	 	3.58637E35	 	4.5339E-36	 	4038.305	25.0722	 
55.0	1.0	0.0	7.71183	6.91901	-10.63269	15.80601	17.77174	0.60167	1.66203	204.35546	163.43735	79.10901	0.29161	 	1.4644599999999998E36	 	1.09366E-36	 	3913.436	24.9738	 
50.0	1.0	0.0	7.71367	6.91737	-10.65394	15.793	17.71512	0.5944	1.68237	204.65911	163.52102	79.239	0.2914	 	6.24608E36	 	2.52513E-37	 	3789.066	24.874	 
45.0	1.0	0.0	7.7155	6.91572	-10.67515	15.78	17.6585	0.58708	1.70335	204.96178	163.60375	79.36866	0.2912	 	2.7883E37	 	5.56902E-38	 	3665.204	24.7724	 
40.0	1.0	0.0	7.71733	6.91408	-10.69632	15.76701	17.60188	0.57971	1.725	205.26361	163.68564	79.49803	0.291	 	1.30563E38	 	1.17063E-38	 	3541.859	24.669	 
35.0	1.0	0.0	7.71916	6.91245	-10.71747	15.75403	17.54526	0.5723	1.74735	205.56471	163.76681	79.62715	0.2908	 	6.4278E38	 	2.33984E-39	 	3419.039	24.564	 
30.0	1.0	0.0	7.72098	6.91081	-10.73857	15.74106	17.48863	0.56483	1.77044	205.86523	163.84735	79.75609	0.29059	 	3.33533E39	 	4.43615E-40	 	3296.755	24.4568	 
25.0	1.0	0.0	7.7228	6.90918	-10.75964	 	17.432	0.55732	1.7943	206.1653	163.9274	79.88491	0.29039	 	1.82894E40	 	7.9565E-41	 	3175.018	 	 
