T (C)	Fraction solid (wt)-TOTAL	Fraction liquid (wt)-LIQUID	Density (g/(cm)^3)-TOTAL	Molar volume (cm^3)-TOTAL	Volume change (%)-  	Average expansion coeff. (10e-6 1/K)-  	Thermal conductivity (W/(m*K))-TOTAL	Electrical resistivity (10e-6 Ohm*m)-TOTAL	Electrical conductivity (10e6 1/(Ohm*m))-TOTAL	Young's modulus (GPa)-TOTAL	Bulk modulus (GPa)-TOTAL	Shear modulus(GPa)-TOTAL	Poisson's ratio-TOTAL	Liquid viscosity (mPa s)-  	Total viscosity (mPa s)-  	Liquid diffusivity (10e-9 (m^2)/s)-  	Total diffusivity (10e-9 (m^2)/s)-  	Surface Tension (mN/m)-  	Enthalpy (J/mole)-TOTAL	Specific heat (J/(mole K))-TOTAL	Latent heat (J/mole)-TOTAL
1500.0	0.0	1.0	7.00771	7.88555	0.0	29.34188	30.93184	1.86792	0.53536	0.0	107.02541	0.0	0.49777	6.71982	6.71982	1.28788	1.28788	1768.01525	64534.344	 	0.0
1495.0	0.0	1.0	7.01162	7.88116	-0.0557037	29.29897	30.8552	1.86728	0.53554	0.0	107.20963	0.0	0.49777	6.77888	6.77888	1.27306	1.27306	1769.82358	64314.511	43.9666	0.0
1490.0	0.0	1.0	7.01551	7.87678	-0.11125	29.25616	30.77856	1.86663	0.53572	0.0	107.39385	0.0	0.49777	6.8388	6.8388	1.25833	1.25833	1771.62893	64095.163	43.8696	0.0
1485.0	0.0	1.0	7.01941	7.87241	-0.16665	29.21346	30.70192	1.86598	0.53591	0.0	107.57806	0.0	0.49777	6.89959	6.89959	1.24371	1.24371	1773.43128	63876.298	43.773	0.0
1480.0	0.0	1.0	7.02329	7.86806	-0.22189	29.17087	30.62528	1.86533	0.5361	0.0	107.76228	0.0	0.49777	6.96128	6.96128	1.22918	1.22918	1775.23057	63657.912	43.6772	0.0
1475.0	0.0	1.0	7.02717	7.86371	-0.27698	29.12838	30.54865	1.86468	0.53628	0.0	107.9465	0.0	0.49777	7.02387	7.02387	1.21475	1.21475	1777.02678	63440.002	43.582	0.0
1470.0	0.0	1.0	7.03105	7.85938	-0.33191	29.086	30.47201	1.86402	0.53647	0.0	108.13071	0.0	0.49777	7.0874	7.0874	1.20042	1.20042	1778.81987	63222.566	43.4872	0.0
1465.0	0.0	1.0	7.03491	7.85506	-0.38669	29.04373	30.39537	1.86336	0.53666	0.0	108.31493	0.0	0.49777	7.15186	7.15186	1.18619	1.18619	1780.6098	63005.599	43.3934	0.0
1460.0	0.0	1.0	7.03877	7.85076	-0.44131	29.00157	30.31873	1.8627	0.53686	0.0	108.49915	0.0	0.49777	7.21729	7.21729	1.17206	1.17206	1782.39654	62789.099	43.3	0.0
1455.0	0.0	1.0	7.04263	7.84646	-0.49578	28.95952	30.24209	1.86203	0.53705	0.0	108.68336	0.0	0.49777	7.2837	7.2837	1.15802	1.15802	1784.18003	62573.063	43.2072	0.0
1450.0	0.0	1.0	7.04647	7.84218	-0.55009	28.91758	30.16545	1.86136	0.53724	0.0	108.86758	0.0	0.49777	7.35112	7.35112	1.14408	1.14408	1785.96024	62357.52	43.1086	0.0
1445.0	0.0	1.0	7.05031	7.83791	-0.60425	28.87576	30.08881	1.86069	0.53744	0.0	109.0518	0.0	0.49777	7.41955	7.41955	1.13024	1.13024	1787.73714	62142.521	42.9998	0.0
1440.0	0.0	1.0	7.05414	7.83365	-0.65826	28.83405	30.01218	1.86001	0.53763	0.0	109.23601	0.0	0.49777	7.48903	7.48903	1.11649	1.11649	1789.51067	61928.055	42.8932	0.0
1435.0	0.0	1.0	7.05797	7.8294	-0.71211	28.79246	29.93554	1.85933	0.53783	0.0	109.42023	0.0	0.49777	7.55957	7.55957	1.10285	1.10285	1791.28079	61714.121	42.7868	0.0
1430.0	0.0	1.0	7.06179	7.82517	-0.76581	28.75099	29.8589	1.85865	0.53803	0.0	109.60445	0.0	0.49777	7.6312	7.6312	1.0893	1.0893	1793.04748	61500.714	42.6814	0.0
1425.0	0.0	1.0	7.0656	7.82094	-0.81935	28.70964	29.78226	1.85796	0.53823	0.0	109.78866	0.0	0.49777	7.70393	7.70393	1.07585	1.07585	1794.81066	61287.83	42.5768	0.0
1420.0	0.0	1.0	7.06941	7.81673	-0.87274	28.6684	29.70562	1.85727	0.53843	0.0	109.97288	0.0	0.49777	7.77779	7.77779	1.06249	1.06249	1796.57032	61075.466	42.4728	0.0
1415.0	0.0	1.0	7.07321	7.81254	-0.92598	28.62729	29.62898	1.85657	0.53863	0.0	110.15709	0.0	0.49777	7.85281	7.85281	1.04924	1.04924	1798.32639	60863.619	42.3694	0.0
1414.96	0.0	1.0	7.07323	7.81251	-0.92636	28.62699	29.62842	1.85657	0.53863	0.0	110.15844	0.0	0.49777	7.85336	7.85336	1.04914	1.04914	1798.3392	60862.083	42.0822	0.0
1410.0	0.1725	0.8275	7.10286	7.77994	-1.33937	27.60654	29.8881	1.83503	0.54495	0.0688088	108.87519	0.0233327	0.47451	7.91762	19.21173	1.03756	0.42761	1796.6154	58676.036	440.424	1976.246
1405.0	0.30677	0.69323	7.12665	7.75394	-1.66912	26.80663	30.08507	1.8176	0.55018	0.70108	107.94415	0.24073	0.45617	7.98269	110.00215	1.02605	0.0744589	1795.0153	56934.768	348.254	3506.689
1400.0	0.41243	0.58757	7.14599	7.73299	-1.93472	26.17662	30.23445	1.80323	0.55456	2.32672	107.27955	0.80702	0.44155	8.0484	352.2257	1.01464	0.0231846	1793.53726	55527.121	281.529	4704.015
1396.59	0.47156	0.52844	7.15723	7.72085	-2.08872	25.81882	30.31356	1.79486	0.55715	4.01425	106.94754	1.40035	0.4333	8.09336	615.61555	1.00695	0.0132381	1792.58639	54717.344	 	5370.715
1395.0	0.5003	0.4997	7.16275	7.71488	-2.16435	25.64092	30.3784	1.78932	0.55887	4.82306	106.59826	1.68735	0.42918	8.10916	783.68772	1.00403	0.0103891	1791.9705	54346.186	236.187	5675.131
1390.0	0.57982	0.42018	7.17844	7.69814	-2.37664	25.14912	30.55315	1.77375	0.56378	7.78515	105.71969	2.74561	0.41775	8.15885	1455.69999	0.99492	0.0055763	1790.16816	53295.709	210.095	6516.289
1385.0	0.64328	0.35672	7.19165	7.6841	-2.55468	24.74854	30.6798	1.76112	0.56782	11.11779	105.12669	3.94659	0.40853	8.20943	2299.5047	0.98582	0.00351946	1788.50381	52416.62	175.818	7186.553
1380.0	0.69478	0.30522	7.20302	7.67209	-2.70701	24.41647	30.77031	1.75064	0.57122	14.67704	104.74096	5.23813	0.40098	8.26089	3282.1191	0.97672	0.00245836	1786.96279	51665.449	150.234	7729.39
1375.0	0.73718	0.26282	7.21302	7.6616	-2.84001	24.13589	30.83302	1.7418	0.57412	18.38107	104.50816	6.58958	0.39471	8.31327	4378.43842	0.96763	0.00183723	1785.53306	51011.749	130.74	8175.246
1370.0	0.77252	0.22748	7.22197	7.65228	-2.95828	23.89443	30.87398	1.73421	0.57663	22.19074	104.39058	7.98558	0.38943	8.36623	5570.6179	0.95859	0.00143966	1784.20516	50433.699	115.61	8545.938
1365.0	0.8023	0.1977	7.23007	7.64389	-3.0646	23.68477	30.89778	1.7276	0.57884	26.10044	104.36074	9.42304	0.38493	8.42049	6847.68866	0.94952	0.00116761	1782.96659	49915.333	103.673	8857.43
1360.0	0.82764	0.17236	7.23752	7.63621	-3.16199	23.49874	30.90776	1.72177	0.5808	30.1214	104.39842	10.90522	0.38105	8.47568	8203.64003	0.94046	9.71642E-4	1781.81231	49444.751	94.1164	9121.618
1355.0	0.84944	0.15056	7.24447	7.6291	-3.25221	23.33162	30.90679	1.71656	0.58256	34.28433	104.48912	12.44275	0.37768	8.53146	9639.29139	0.93145	8.24396E-4	1780.73305	49012.361	86.478	9348.089
1350.0	0.86851	0.13149	7.25106	7.6224	-3.33716	23.1782	30.89728	1.71181	0.58418	38.64621	104.6203	14.05627	0.3747	8.58857	11164.97153	0.92241	7.09558E-4	1779.72102	48609.69	80.5342	9545.315
1345.0	0.88535	0.11465	7.25736	7.61603	-3.41795	23.03548	30.8807	1.70746	0.58567	43.21884	104.7841	15.74997	0.37203	8.64661	12785.25707	0.9134	6.17726E-4	1778.77073	48231.708	75.5964	9718.323
1340.0	0.9003	0.099697	7.26345	7.60991	-3.49562	22.90063	30.85816	1.70342	0.58705	47.99576	104.97397	17.52149	0.36963	8.70561	14507.39779	0.9044	5.42715E-4	1777.87906	47874.46	71.4496	9871.066
1335.0	0.91368	0.0863164	7.26936	7.60402	-3.57031	22.77331	30.83074	1.69965	0.58836	52.94062	105.18559	19.35746	0.36745	8.76596	16339.72948	0.89539	4.80362E-4	1777.03446	47534.793	67.9334	10006.693
1334.67	0.91448	0.0855166	7.26973	7.60364	-3.5751	22.76534	30.82864	1.69942	0.58844	53.259	105.20057	19.47576	0.36732	8.76993	16462.92741	0.8948	4.76668E-4	1776.9789	47513.101	 	10014.815
1330.0	0.92886	0.0711403	7.2764	7.59703	-3.65892	22.60485	30.80962	1.69553	0.58979	59.39436	105.38074	21.7564	0.36499	8.83779	18528.42607	0.88535	4.22301E-4	1777.31423	47169.936	72.9714	10167.972
1325.0	0.94252	0.0574813	7.28315	7.59037	-3.74333	22.44725	30.78333	1.69169	0.59113	65.9271	105.59774	24.18921	0.36274	8.91129	20865.85077	0.87531	3.73825E-4	1777.68712	46822.805	69.4262	10311.983
1320.0	0.95467	0.0453349	7.28957	7.58409	-3.82298	22.30229	30.75189	1.68812	0.59238	72.14397	105.83486	26.50977	0.36071	8.98616	23344.23099	0.86531	3.33092E-4	1778.06857	46493.507	65.8596	10438.619
1315.0	0.96555	0.0344474	7.29573	7.57812	-3.89877	22.16745	30.71606	1.68478	0.59355	77.83228	106.08816	28.63897	0.35885	9.06201	25978.7225	0.85537	2.98374E-4	1778.45745	46179.146	62.8722	10550.772
1310.0	0.97538	0.0246166	7.30167	7.57239	-3.9714	22.04084	30.67641	1.68165	0.59465	82.8856	106.3545	30.53664	0.35715	9.13894	28786.08517	0.8455	2.68427E-4	1778.85219	45877.422	60.3448	10650.739
1305.0	0.98432	0.0156827	7.30743	7.56687	-4.04143	21.92089	30.63334	1.67869	0.5957	87.30951	106.63145	32.20387	0.35557	9.21736	31783.83711	0.83566	2.42342E-4	1779.25049	45586.488	58.1868	10740.364
1300.0	0.99249	0.00751296	7.31305	7.56151	-4.10933	21.8063	30.58717	1.6759	0.59669	91.20308	106.91703	33.67644	0.35411	9.29729	34991.03233	0.82585	2.19432E-4	1779.65246	45304.841	56.3294	10821.145
1295.0	1.0	0.0	7.31856	7.5563	-4.17547	21.69601	30.53819	1.67325	0.59764	94.73002	107.20981	35.01427	0.35273	 	38428.66573	 	1.99168E-4	 	45031.247	54.7188	10894.32
1290.0	1.0	0.0	7.3212	7.55358	-4.20994	21.67913	30.4721	1.67154	0.59825	95.16164	107.54227	35.17937	0.35252	 	40987.41022	 	1.86139E-4	 	44754.089	55.4316	 
1285.0	1.0	0.0	7.32383	7.55086	-4.24436	21.66228	30.40601	1.66981	0.59887	95.59317	107.87366	35.34448	0.35231	 	43734.75131	 	1.73888E-4	 	44563.905	38.0368	 
1280.0	1.0	0.0	7.32646	7.54815	-4.27873	21.64544	30.33992	1.66808	0.59949	96.02461	108.204	35.50961	0.35209	 	46685.8858	 	1.62373E-4	 	44374.022	37.9766	 
1275.0	1.0	0.0	7.32909	7.54545	-4.31305	21.62862	30.27383	1.66634	0.60012	96.45596	108.53328	35.67476	0.35188	 	49857.33677	 	1.51555E-4	 	44184.435	37.9174	 
1270.0	1.0	0.0	7.33171	7.54274	-4.34732	21.61181	30.20774	1.66459	0.60075	96.8872	108.8615	35.83992	0.35167	 	53267.07799	 	1.41396E-4	 	43995.139	37.8592	 
1265.0	1.0	0.0	7.33434	7.54005	-4.38154	21.59503	30.14165	1.66284	0.60138	97.31834	109.18865	36.0051	0.35145	 	56934.67086	 	1.31859E-4	 	43806.134	37.801	 
1260.0	1.0	0.0	7.33696	7.53735	-4.41571	21.57826	30.07556	1.66107	0.60202	97.74938	109.51475	36.17029	0.35124	 	60881.41517	 	1.2291E-4	 	43617.419	37.743	 
1255.0	1.0	0.0	7.33958	7.53466	-4.44983	21.56152	30.00947	1.6593	0.60266	98.1803	109.83979	36.33549	0.35102	 	65130.51511	 	1.14517E-4	 	43428.995	37.6848	 
1250.0	1.0	0.0	7.3422	7.53198	-4.48389	21.54479	29.94338	1.65752	0.60331	98.61111	110.16377	36.5007	0.35081	 	69707.26228	 	1.06648E-4	 	43240.861	37.6268	 
1245.0	1.0	0.0	7.34481	7.52929	-4.51791	21.52808	29.87729	1.65574	0.60396	99.0418	110.48669	36.66592	0.3506	 	74639.23743	 	9.92737E-5	 	43053.018	37.5686	 
1240.0	1.0	0.0	7.34743	7.52661	-4.55188	21.51139	29.81119	1.65394	0.60462	99.47237	110.80855	36.83114	0.35038	 	79956.53311	 	9.23666E-5	 	42865.459	37.5118	 
1235.0	1.0	0.0	7.35004	7.52394	-4.58579	21.49472	29.7451	1.65214	0.60528	99.90281	111.12935	36.99637	0.35017	 	85691.99936	 	8.58996E-5	 	42678.18	37.4558	 
1230.0	1.0	0.0	7.35265	7.52127	-4.61966	21.47806	29.679	1.65033	0.60594	100.33312	111.4491	37.16161	0.34996	 	91881.51512	 	7.98474E-5	 	42491.181	37.3998	 
1225.0	1.0	0.0	7.35525	7.5186	-4.65347	21.46143	29.6129	1.64851	0.60661	100.7633	111.76778	37.32684	0.34974	 	98564.28817	 	7.41861E-5	 	42304.462	37.3438	 
1220.0	1.0	0.0	7.35786	7.51594	-4.68724	21.44481	29.54681	1.64669	0.60728	101.19334	112.08541	37.49208	0.34953	 	105783.1868	 	6.88927E-5	 	42118.022	37.288	 
1215.0	1.0	0.0	7.36046	7.51328	-4.72095	21.42821	29.48071	1.64485	0.60796	101.62324	112.40198	37.65732	0.34932	 	113585.1067	 	6.39458E-5	 	41931.86	37.2324	 
1210.0	1.0	0.0	7.36307	7.51063	-4.75462	21.41163	29.41461	1.64301	0.60864	102.05299	112.7175	37.82256	0.3491	 	122021.3772	 	5.93247E-5	 	41745.975	37.177	 
1205.0	1.0	0.0	7.36567	7.50798	-4.78823	21.39507	29.34851	1.64116	0.60933	102.48259	113.03196	37.98779	0.34889	 	131148.2111	 	5.50102E-5	 	41560.368	37.1214	 
1200.0	1.0	0.0	7.36826	7.50533	-4.8218	21.37853	29.28241	1.6393	0.61002	102.91204	113.34536	38.15302	0.34867	 	141027.2037	 	5.09836E-5	 	41375.038	37.066	 
1195.0	1.0	0.0	7.37086	7.50269	-4.85532	21.362	29.21631	1.63743	0.61071	103.34133	113.65771	38.31825	0.34846	 	151725.8853	 	4.72278E-5	 	41189.984	37.0108	 
1190.0	1.0	0.0	7.37345	7.50005	-4.88878	21.3455	29.15021	1.63555	0.61141	103.77046	113.969	38.48346	0.34825	 	163318.3353	 	4.37261E-5	 	41005.205	36.9558	 
1185.0	1.0	0.0	7.37604	7.49741	-4.9222	21.32901	29.08411	1.63367	0.61212	104.19943	114.27924	38.64867	0.34803	 	175885.8634	 	4.0463E-5	 	40820.701	36.9008	 
1180.0	1.0	0.0	7.37863	7.49478	-4.95557	21.31254	29.01801	1.63178	0.61283	104.62824	114.58842	38.81387	0.34782	 	189517.7665	 	3.74237E-5	 	40636.472	36.8458	 
1175.0	1.0	0.0	7.38122	7.49215	-4.98888	21.29609	28.9519	1.62987	0.61354	105.05687	114.89655	38.97906	0.34761	 	204312.1706	 	3.45944E-5	 	40452.517	36.791	 
1170.0	1.0	0.0	7.38381	7.48953	-5.02215	21.27966	28.8858	1.62796	0.61426	105.48533	115.20363	39.14423	0.34739	 	220376.9668	 	3.19619E-5	 	40268.835	36.7364	 
1165.0	1.0	0.0	7.38639	7.48691	-5.05537	21.26325	28.81969	1.62604	0.61499	105.91361	115.50965	39.3094	0.34718	 	237830.8534	 	2.95136E-5	 	40085.426	36.6818	 
1160.0	1.0	0.0	7.38897	7.4843	-5.08854	21.24685	28.75359	1.62412	0.61572	106.3417	115.81463	39.47454	0.34697	 	256804.4963	 	2.7238E-5	 	39902.289	36.6274	 
1155.0	1.0	0.0	7.39155	7.48168	-5.12167	21.23047	28.68748	1.62218	0.61645	106.76962	116.11855	39.63967	0.34675	 	277441.8232	 	2.5124E-5	 	39719.424	36.573	 
1150.0	1.0	0.0	7.39413	7.47908	-5.15474	21.21412	28.62137	1.62023	0.61719	107.19734	116.42142	39.80479	0.34654	 	299901.4655	 	2.31611E-5	 	39536.83	36.5188	 
1145.0	1.0	0.0	7.3967	7.47647	-5.18776	21.19778	28.55527	1.61828	0.61794	107.62488	116.72325	39.96988	0.34632	 	324358.3691	 	2.13395E-5	 	39354.506	36.4648	 
1140.0	1.0	0.0	7.39928	7.47387	-5.22074	21.18146	28.48916	1.61632	0.61869	108.05222	117.02402	40.13496	0.34611	 	351005.5918	 	1.96499E-5	 	39172.452	36.4108	 
1135.0	1.0	0.0	7.40185	7.47127	-5.25366	21.16516	28.42305	1.61434	0.61945	108.47936	117.32375	40.30001	0.3459	 	380056.3127	 	1.80837E-5	 	38990.668	36.3568	 
1130.0	1.0	0.0	7.40442	7.46868	-5.28654	21.14887	28.35694	1.61236	0.62021	108.9063	117.62243	40.46504	0.34568	 	411746.079	 	1.66326E-5	 	38809.152	36.3032	 
1125.0	1.0	0.0	7.40698	7.46609	-5.31937	21.13261	28.29082	1.61037	0.62097	109.33303	117.92006	40.63005	0.34547	 	446335.3202	 	1.5289E-5	 	38627.905	36.2494	 
1120.0	1.0	0.0	7.40955	7.46351	-5.35215	21.11636	28.22471	1.60837	0.62175	109.75956	118.21664	40.79503	0.34526	 	484112.163	 	1.40455E-5	 	38446.925	36.196	 
1115.0	1.0	0.0	7.41211	7.46093	-5.38488	21.10013	28.1586	1.60636	0.62253	110.18587	118.51218	40.95999	0.34504	 	525395.5863	 	1.28955E-5	 	38266.212	36.1426	 
1110.0	1.0	0.0	7.41467	7.45835	-5.41756	21.08392	28.09248	1.60434	0.62331	110.61197	118.80668	41.12491	0.34483	 	570538.9584	 	1.18323E-5	 	38085.765	36.0894	 
1105.0	1.0	0.0	7.41723	7.45578	-5.4502	21.06773	28.02637	1.60231	0.6241	111.03785	119.10013	41.28981	0.34462	 	619934.007	 	1.08502E-5	 	37905.585	36.036	 
1100.0	1.0	0.0	7.41979	7.45321	-5.48278	21.05156	27.96025	1.60027	0.62489	111.46351	119.39254	41.45468	0.3444	 	674015.2759	 	9.9434E-6	 	37725.669	35.9832	 
1095.0	1.0	0.0	7.42235	7.45064	-5.51532	21.03541	27.89414	1.59823	0.62569	111.88895	119.68391	41.61952	0.34419	 	733265.1354	 	9.10667E-6	 	37546.018	35.9302	 
1090.0	1.0	0.0	7.4249	7.44808	-5.54781	21.01927	27.82802	1.59617	0.6265	112.31415	119.97424	41.78433	0.34397	 	798219.4149	 	8.33505E-6	 	37366.631	35.8774	 
1085.0	1.0	0.0	7.42745	7.44552	-5.58025	21.00315	27.7619	1.5941	0.62731	112.73913	120.26352	41.9491	0.34376	 	869473.7434	 	7.62391E-6	 	37187.507	35.8248	 
1080.0	1.0	0.0	7.43	7.44297	-5.61265	20.98706	27.69578	1.59203	0.62813	113.16387	120.55177	42.11384	0.34355	 	947690.69	 	6.96893E-6	 	37008.646	35.7722	 
1075.0	1.0	0.0	7.43255	7.44042	-5.64499	20.97098	27.62966	1.58994	0.62896	113.58838	120.83898	42.27854	0.34333	 	1033607.812	 	6.36604E-6	 	36830.047	35.7198	 
1070.0	1.0	0.0	7.43509	7.43787	-5.67729	20.95492	27.56354	1.58784	0.62979	114.01264	121.12515	42.4432	0.34312	 	1128046.734	 	5.81144E-6	 	36651.709	35.6676	 
1065.0	1.0	0.0	7.43763	7.43533	-5.70954	20.93887	27.49742	1.58573	0.63062	114.43666	121.41028	42.60783	0.34291	 	1231923.394	 	5.30161E-6	 	36473.633	35.6152	 
1060.0	1.0	0.0	7.44018	7.43279	-5.74174	20.92285	27.4313	1.58362	0.63147	114.86043	121.69438	42.77242	0.34269	 	1346259.627	 	4.83322E-6	 	36295.816	35.5634	 
1055.0	1.0	0.0	7.44271	7.43025	-5.7739	20.90684	27.36517	1.58149	0.63231	115.28396	121.97745	42.93696	0.34248	 	1472196.247	 	4.4032E-6	 	36118.259	35.5114	 
1050.0	1.0	0.0	7.44525	7.42772	-5.806	20.89086	27.29905	1.57935	0.63317	115.70723	122.25948	43.10147	0.34227	 	1611007.866	 	4.00865E-6	 	35940.961	35.4596	 
1045.0	1.0	0.0	7.44779	7.42519	-5.83806	20.87489	27.23292	1.57721	0.63403	116.13024	122.54047	43.26593	0.34205	 	1764119.665	 	3.6469E-6	 	35763.921	35.408	 
1040.0	1.0	0.0	7.45032	7.42267	-5.87008	20.85894	27.1668	1.57505	0.6349	116.553	122.82044	43.43035	0.34184	 	1933126.407	 	3.31544E-6	 	35587.138	35.3566	 
1035.0	1.0	0.0	7.45285	7.42015	-5.90204	20.84301	27.10067	1.57288	0.63578	116.97549	123.09937	43.59472	0.34162	 	2119814.0	 	3.01194E-6	 	35410.612	35.3052	 
1030.0	1.0	0.0	7.45538	7.41763	-5.93396	20.82709	27.03454	1.5707	0.63666	117.39772	123.37728	43.75904	0.34141	 	2326183.978	 	2.73424E-6	 	35234.343	35.2538	 
1025.0	1.0	0.0	7.45791	7.41512	-5.96583	20.8112	26.96841	1.56851	0.63755	117.81968	123.65415	43.92332	0.3412	 	2554481.32	 	2.48033E-6	 	35058.329	35.2028	 
1020.0	1.0	0.0	7.46043	7.41261	-5.99766	20.79532	26.90228	1.56631	0.63844	118.24137	123.93	44.08755	0.34098	 	2807226.077	 	2.24832E-6	 	34882.57	35.1518	 
1015.0	1.0	0.0	7.46295	7.4101	-6.02943	20.77947	26.83615	1.5641	0.63935	118.66278	124.20482	44.25173	0.34077	 	3087249.375	 	2.03649E-6	 	34707.065	35.101	 
1010.0	1.0	0.0	7.46547	7.4076	-6.06116	20.76363	26.77002	1.56188	0.64026	119.08392	124.47862	44.41586	0.34056	 	3397734.427	 	1.84321E-6	 	34531.813	35.0504	 
1005.0	1.0	0.0	7.46799	7.4051	-6.09285	20.74781	26.70389	1.55964	0.64117	119.50478	124.75139	44.57993	0.34034	 	3742263.288	 	1.66699E-6	 	34356.814	34.9998	 
1000.0	1.0	0.0	7.47051	7.40261	-6.12448	20.732	26.63775	1.5574	0.6421	119.92536	125.02314	44.74396	0.34013	 	4124870.215	 	1.50645E-6	 	34182.067	34.9494	 
995.0	1.0	0.0	7.47302	7.40011	-6.15607	20.71622	26.57162	1.55514	0.64303	120.34565	125.29387	44.90793	0.33992	 	4550102.61	 	1.3603E-6	 	34007.571	34.8992	 
990.0	1.0	0.0	7.47554	7.39763	-6.18761	20.70046	26.50548	1.55288	0.64397	120.76565	125.56357	45.07184	0.3397	 	5023090.691	 	1.22736E-6	 	33833.325	34.8492	 
985.0	1.0	0.0	7.47805	7.39514	-6.21911	20.68471	26.43935	1.5506	0.64491	121.18536	125.83225	45.2357	0.33949	 	5549627.223	 	1.10651E-6	 	33659.33	34.799	 
980.0	1.0	0.0	7.48056	7.39266	-6.25056	20.66898	26.37321	1.54831	0.64587	121.60478	126.09992	45.39949	0.33927	 	6136258.821	 	9.9675E-7	 	33485.583	34.7494	 
975.0	1.0	0.0	7.48306	7.39019	-6.28196	20.65327	26.30707	1.54601	0.64683	122.0239	126.36657	45.56324	0.33906	 	6790390.633	 	8.97137E-7	 	33312.085	34.6996	 
970.0	1.0	0.0	7.48557	7.38771	-6.31332	20.63758	26.24093	1.5437	0.6478	122.44272	126.6322	45.72692	0.33885	 	7520406.463	 	8.06806E-7	 	33138.833	34.6504	 
965.0	1.0	0.0	7.48807	7.38525	-6.34463	20.62191	26.17479	1.54137	0.64877	122.86123	126.89681	45.89054	0.33863	 	8335806.734	 	7.24957E-7	 	32965.829	34.6008	 
960.0	1.0	0.0	7.49057	7.38278	-6.37589	20.60626	26.10865	1.53904	0.64976	123.27945	127.16041	46.05409	0.33842	 	9247367.122	 	6.50855E-7	 	32793.07	34.5518	 
955.0	1.0	0.0	7.49307	7.38032	-6.40711	20.59062	26.0425	1.53669	0.65075	123.69735	127.423	46.21759	0.33821	 	1.026732111E7	 	5.83823E-7	 	32620.557	34.5026	 
950.0	1.0	0.0	7.49557	7.37786	-6.43829	20.57501	25.97636	1.53433	0.65175	124.11494	127.68457	46.38102	0.33799	 	1.140957027E7	 	5.23235E-7	 	32448.287	34.454	 
945.0	1.0	0.0	7.49806	7.37541	-6.46941	20.55941	25.91022	1.53196	0.65276	124.53221	127.94513	46.54439	0.33778	 	1.268992682E7	 	4.6852E-7	 	32276.261	34.4052	 
940.0	1.0	0.0	7.50055	7.37296	-6.50049	20.54383	25.84407	1.52958	0.65378	124.94917	128.20468	46.70768	0.33757	 	1.412639351E7	 	4.1915E-7	 	32104.478	34.3566	 
935.0	1.0	0.0	7.50304	7.37051	-6.53153	20.52827	25.77792	1.52718	0.6548	125.36581	128.46322	46.87092	0.33735	 	1.573948712E7	 	3.74642E-7	 	31932.936	34.3084	 
930.0	1.0	0.0	7.50553	7.36806	-6.56251	20.51273	25.71178	1.52477	0.65583	125.78213	128.72075	47.03408	0.33714	 	1.755261262E7	 	3.34553E-7	 	31761.635	34.2602	 
925.0	1.0	0.0	7.50802	7.36562	-6.59346	20.4972	25.64563	1.52235	0.65688	126.19812	128.97728	47.19717	0.33692	 	1.959249641E7	 	2.98475E-7	 	31590.573	34.2124	 
920.0	1.0	0.0	7.5105	7.36319	-6.62435	20.4817	25.57948	1.51992	0.65793	126.61378	129.2328	47.36019	0.33671	 	2.188968857E7	 	2.66037E-7	 	31419.751	34.1644	 
915.0	1.0	0.0	7.51298	7.36075	-6.65521	20.46621	25.51333	1.51748	0.65899	127.02912	129.48731	47.52315	0.3365	 	2.447914562E7	 	2.36898E-7	 	31249.167	34.1168	 
910.0	1.0	0.0	7.51546	7.35833	-6.68601	20.45074	25.44717	1.51502	0.66006	127.44411	129.74082	47.68602	0.33628	 	2.740090754E7	 	2.10747E-7	 	31078.82	34.0694	 
905.0	1.0	0.0	7.51794	7.3559	-6.71677	20.43529	25.38102	1.51255	0.66114	127.85877	129.99333	47.84883	0.33607	 	3.070088516E7	 	1.87299E-7	 	30908.708	34.0224	 
900.0	1.0	0.0	7.52042	7.35348	-6.74749	20.41986	25.31487	1.51007	0.66222	128.2731	130.24484	48.01156	0.33586	 	3.443177678E7	 	1.66296E-7	 	30738.833	33.975	 
895.0	1.0	0.0	7.52289	7.35106	-6.77816	20.40445	25.24871	1.50757	0.66332	128.68708	130.49534	48.17421	0.33564	 	3.865413673E7	 	1.47499E-7	 	30569.191	33.9284	 
890.0	1.0	0.0	7.52537	7.34864	-6.80878	20.38905	25.18255	1.50506	0.66443	129.10071	130.74485	48.33679	0.33543	 	4.343762217E7	 	1.30694E-7	 	30399.782	33.8818	 
885.0	1.0	0.0	7.52784	7.34623	-6.83936	20.37368	25.1164	1.50254	0.66554	129.514	130.99336	48.49928	0.33522	 	4.886244975E7	 	1.15685E-7	 	30230.605	33.8354	 
880.0	1.0	0.0	7.5303	7.34383	-6.8699	20.35832	25.05024	1.5	0.66667	129.92693	131.24087	48.6617	0.335	 	5.502109944E7	 	1.02292E-7	 	30061.66	33.789	 
875.0	1.0	0.0	7.53277	7.34142	-6.90039	20.34298	24.98408	1.49745	0.6678	130.33952	131.48739	48.82404	0.33479	 	6.202030966E7	 	9.03548E-8	 	29892.944	33.7432	 
870.0	1.0	0.0	7.53523	7.33902	-6.93084	20.32766	24.91792	1.49489	0.66895	130.75175	131.73291	48.9863	0.33457	 	6.998341658E7	 	7.9725E-8	 	29724.457	33.6974	 
865.0	1.0	0.0	7.5377	7.33662	-6.96124	20.31236	24.85175	1.49231	0.6701	131.16362	131.97744	49.14847	0.33436	 	7.905310011E7	 	7.02696E-8	 	29556.198	33.6518	 
860.0	1.0	0.0	7.54016	7.33423	-6.99159	20.29708	24.78559	1.48972	0.67127	131.57513	132.22097	49.31057	0.33415	 	8.939461129E7	 	6.18675E-8	 	29388.165	33.6066	 
855.0	1.0	0.0	7.54262	7.33184	-7.0219	20.28181	24.71943	1.48712	0.67244	131.98628	132.46352	49.47257	0.33393	 	1.011995703E8	 	5.44095E-8	 	29220.358	33.5614	 
850.0	1.0	0.0	7.54507	7.32945	-7.05217	20.26657	24.65326	1.4845	0.67363	132.39706	132.70507	49.6345	0.33372	 	1.146904417E8	 	4.77966E-8	 	29052.775	33.5166	 
845.0	1.0	0.0	7.54753	7.32707	-7.08239	20.25134	24.58709	1.48187	0.67482	132.80747	132.94564	49.79633	0.33351	 	1.301258136E8	 	4.19395E-8	 	28885.414	33.4722	 
840.0	1.0	0.0	7.54998	7.32469	-7.11257	20.23613	24.52093	1.47923	0.67603	133.21751	133.18522	49.95808	0.33329	 	1.47806635E8	 	3.67575E-8	 	28718.275	33.4278	 
835.0	1.0	0.0	7.55243	7.32231	-7.1427	20.22094	24.45476	1.47657	0.67725	133.62718	133.42381	50.11974	0.33308	 	1.68083593E8	 	3.21781E-8	 	28551.356	33.3838	 
830.0	1.0	0.0	7.55488	7.31994	-7.17279	20.20577	24.38859	1.47389	0.67848	134.03647	133.66142	50.28131	0.33287	 	1.913658506E8	 	2.81356E-8	 	28384.655	33.3402	 
825.0	1.0	0.0	7.55732	7.31757	-7.20283	20.19062	24.32242	1.4712	0.67972	134.44538	133.89804	50.44279	0.33265	 	2.181314104E8	 	2.45714E-8	 	28218.172	33.2966	 
820.0	1.0	0.0	7.55977	7.31521	-7.23283	20.17548	24.25625	1.4685	0.68097	134.85392	134.13368	50.60418	0.33244	 	2.489394229E8	 	2.14325E-8	 	28051.905	33.2534	 
815.0	1.0	0.0	7.56221	7.31284	-7.26279	20.16037	24.19007	1.46578	0.68223	135.26206	134.36834	50.76548	0.33222	 	2.844448241E8	 	1.86714E-8	 	27885.852	33.2106	 
810.0	1.0	0.0	7.56465	7.31048	-7.2927	20.14527	24.1239	1.46305	0.6835	135.66982	134.60203	50.92668	0.33201	 	3.254157686E8	 	1.62456E-8	 	27720.012	33.168	 
805.0	1.0	0.0	7.56709	7.30813	-7.32257	20.13019	24.05772	1.4603	0.68479	136.0772	134.83473	51.08779	0.3318	 	3.727544213E8	 	1.4117E-8	 	27554.383	33.1258	 
800.0	1.0	0.0	7.56952	7.30578	-7.3524	20.11513	23.99155	1.45754	0.68609	136.48418	135.06645	51.24881	0.33158	 	4.275217893E8	 	1.22515E-8	 	27388.963	33.084	 
795.0	1.0	0.0	7.57196	7.30343	-7.38218	20.10009	23.92537	1.45476	0.6874	136.89076	135.2972	51.40973	0.33137	 	4.909674238E8	 	1.06186E-8	 	27223.751	33.0424	 
790.0	1.0	0.0	7.57439	7.30108	-7.41191	20.08506	23.85919	1.45197	0.68872	137.29695	135.52697	51.57055	0.33116	 	5.645649978E8	 	9.1911E-9	 	27058.745	33.0012	 
785.0	1.0	0.0	7.57682	7.29874	-7.44161	20.07006	23.79301	1.44916	0.69006	137.70274	135.75577	51.73127	0.33094	 	6.500549878E8	 	7.94482E-9	 	26893.943	32.9604	 
780.0	1.0	0.0	7.57924	7.2964	-7.47126	20.05507	23.72683	1.44633	0.6914	138.10813	135.9836	51.89189	0.33073	 	7.494959535E8	 	6.85816E-9	 	26729.343	32.92	 
775.0	1.0	0.0	7.58167	7.29407	-7.50086	20.0401	23.66064	1.44349	0.69276	138.51312	136.21046	52.05241	0.33052	 	8.653262432E8	 	5.91194E-9	 	26564.943	32.88	 
770.0	1.0	0.0	7.58409	7.29174	-7.53043	20.02515	23.59446	1.44064	0.69414	138.9177	136.43634	52.21284	0.3303	 	1.00043836E9	 	5.08913E-9	 	26400.74	32.8406	 
765.0	1.0	0.0	7.58652	7.28941	-7.55995	20.01022	23.52828	1.43776	0.69552	139.32187	136.66126	52.37316	0.33009	 	1.158268728E9	 	4.37459E-9	 	26236.733	32.8014	 
760.0	1.0	0.0	7.58894	7.28709	-7.58942	19.99531	23.46209	1.43488	0.69692	139.72563	136.88521	52.53337	0.32987	 	1.342906218E9	 	3.75495E-9	 	26072.919	32.7628	 
755.0	1.0	0.0	7.59135	7.28477	-7.61886	19.98042	23.3959	1.43197	0.69834	140.12898	137.1082	52.69348	0.32966	 	1.559223574E9	 	3.21836E-9	 	25909.296	32.7246	 
750.0	1.0	0.0	7.59377	7.28245	-7.64825	19.96554	23.32972	1.42905	0.69977	140.53191	137.33022	52.85349	0.32945	 	1.813036825E9	 	2.75435E-9	 	25745.861	32.687	 
745.0	1.0	0.0	7.59618	7.28013	-7.67759	19.95068	23.26353	1.42611	0.70121	140.93442	137.55127	53.01339	0.32923	 	2.111298962E9	 	2.35369E-9	 	25582.611	32.65	 
740.0	1.0	0.0	7.5986	7.27782	-7.7069	19.93585	23.19734	1.42316	0.70266	141.33651	137.77136	53.17319	0.32902	 	2.462335661E9	 	2.00823E-9	 	25419.544	32.6134	 
735.0	1.0	0.0	7.60101	7.27552	-7.73616	19.92103	23.13115	1.42019	0.70413	141.73818	137.9905	53.33288	0.32881	 	2.876132649E9	 	1.71081E-9	 	25256.657	32.5774	 
730.0	1.0	0.0	7.60341	7.27321	-7.76538	19.90622	23.06495	1.4172	0.70562	142.13942	138.20867	53.49245	0.32859	 	3.364686641E9	 	1.45515E-9	 	25093.945	32.5424	 
725.0	1.0	0.0	7.60582	7.27091	-7.79455	19.89144	22.99876	1.41419	0.70712	142.54024	138.42588	53.65192	0.32838	 	3.942434688E9	 	1.23571E-9	 	24931.407	32.5076	 
720.0	1.0	0.0	7.60822	7.26861	-7.82368	19.87668	22.93256	1.41117	0.70863	142.94062	138.64214	53.81128	0.32817	 	4.626780354E9	 	1.04767E-9	 	24769.037	32.474	 
715.0	1.0	0.0	7.61063	7.26632	-7.85277	19.86193	22.86637	1.40813	0.71016	143.34057	138.85744	53.97052	0.32795	 	5.438739773E9	 	8.86771E-10	 	24606.833	32.4408	 
710.0	1.0	0.0	7.61303	7.26403	-7.88182	19.84721	22.80017	1.40507	0.71171	143.74009	139.07179	54.12966	0.32774	 	6.403736318E9	 	7.4933E-10	 	24444.79	32.4086	 
705.0	1.0	0.0	7.61542	7.26174	-7.91083	19.8325	22.73397	1.402	0.71327	144.13917	139.28518	54.28868	0.32753	 	7.552579921E9	 	6.32116E-10	 	24282.904	32.3772	 
700.0	1.0	0.0	7.61782	7.25946	-7.93979	19.81781	22.66777	1.39891	0.71484	144.53781	139.49762	54.44758	0.32731	 	8.922676215E9	 	5.32318E-10	 	24121.171	32.3466	 
695.0	1.0	0.0	7.62021	7.25718	-7.96871	19.80313	22.60157	1.3958	0.71644	144.93601	139.70912	54.60637	0.3271	 	1.05595E10	 	4.47492E-10	 	23959.584	32.3174	 
690.0	1.0	0.0	7.6226	7.2549	-7.99759	19.78848	22.53537	1.39267	0.71805	145.33376	139.91966	54.76505	0.32688	 	1.2518599999999998E10	 	3.75514E-10	 	23798.139	32.289	 
685.0	1.0	0.0	7.62499	7.25263	-8.02643	19.77385	22.46916	1.38952	0.71967	145.73107	140.12925	54.9236	0.32667	 	1.4867499999999998E10	 	3.14545E-10	 	23636.83	32.2618	 
680.0	1.0	0.0	7.62738	7.25036	-8.05522	19.75923	22.40296	1.38635	0.72132	146.12792	140.3379	55.08204	0.32646	 	1.76891E10	 	2.62992E-10	 	23475.651	32.2358	 
675.0	1.0	0.0	7.62977	7.24809	-8.08397	19.74463	22.33675	1.38317	0.72298	146.52433	140.5456	55.24036	0.32624	 	2.10849E10	 	2.19479E-10	 	23314.594	32.2114	 
670.0	1.0	0.0	7.63215	7.24582	-8.11268	19.73006	22.27054	1.37996	0.72466	146.92029	140.75235	55.39856	0.32603	 	2.5179499999999996E10	 	1.82819E-10	 	23153.653	32.1882	 
665.0	1.0	0.0	7.63453	7.24356	-8.14135	19.7155	22.20433	1.37674	0.72635	147.31578	140.95817	55.55664	0.32582	 	3.0126299999999996E10	 	1.5199E-10	 	22992.819	32.1668	 
660.0	1.0	0.0	7.63691	7.24131	-8.16998	19.70095	22.13812	1.3735	0.72807	147.71082	141.16304	55.7146	0.3256	 	3.61144E10	 	1.26112E-10	 	22832.083	32.1472	 
655.0	1.0	0.0	7.63929	7.23905	-8.19856	19.68643	22.07191	1.37024	0.7298	148.1054	141.36697	55.87243	0.32539	 	4.33775E10	 	1.04434E-10	 	22671.436	32.1294	 
650.0	1.0	0.0	7.64167	7.2368	-8.22711	19.67193	22.00569	1.36696	0.73155	148.49952	141.56997	56.03014	0.32518	 	5.220509999999999E10	 	8.6307E-11	 	22510.867	32.1138	 
645.0	1.0	0.0	7.64404	7.23455	-8.25561	19.65744	21.93948	1.36366	0.73332	148.89317	141.77202	56.18773	0.32496	 	6.295629999999999E10	 	7.11806E-11	 	22350.364	32.1006	 
640.0	1.0	0.0	7.64641	7.23231	-8.28407	19.64297	21.87326	1.36034	0.73511	149.28636	141.97314	56.34519	0.32475	 	7.60776E10	 	5.8583E-11	 	22189.916	32.0896	 
635.0	1.0	0.0	7.64878	7.23007	-8.31249	19.62852	21.80704	1.357	0.73692	149.67907	142.17332	56.50252	0.32453	 	9.21259E10	 	4.8113E-11	 	22029.507	32.0818	 
630.0	1.0	0.0	7.65115	7.22783	-8.34086	19.61409	21.74081	1.35364	0.73875	150.07132	142.37257	56.65973	0.32432	 	1.11796E11	 	3.94293E-11	 	21869.122	32.077	 
625.0	1.0	0.0	7.65352	7.2256	-8.3692	19.59968	21.67459	1.35025	0.7406	150.46309	142.57089	56.81681	0.32411	 	1.3596E11	 	3.22421E-11	 	21708.743	32.0758	 
620.0	1.0	0.0	7.65588	7.22337	-8.3975	19.58529	21.60836	1.34685	0.74247	150.85439	142.76828	56.97375	0.32389	 	1.6571E11	 	2.63065E-11	 	21548.352	32.0782	 
615.0	1.0	0.0	7.65824	7.22114	-8.42575	19.57091	21.54213	1.34343	0.74436	151.2452	142.96473	57.13057	0.32368	 	2.0242E11	 	2.14151E-11	 	21387.927	32.085	 
610.0	1.0	0.0	7.6606	7.21891	-8.45396	19.55655	21.4759	1.33999	0.74628	151.63554	143.16026	57.28726	0.32347	 	2.47825E11	 	1.73931E-11	 	21227.444	32.0966	 
605.0	1.0	0.0	7.66296	7.21669	-8.48213	19.54222	21.40967	1.33652	0.74821	152.0254	143.35486	57.44382	0.32325	 	3.04115E11	 	1.40935E-11	 	21066.875	32.1138	 
600.0	1.0	0.0	7.66532	7.21447	-8.51027	19.5279	21.34344	1.33304	0.75017	152.41477	143.54853	57.60024	0.32304	 	3.74068E11	 	1.13927E-11	 	20904.162	32.5426	 
595.0	1.0	0.0	7.66767	7.21226	-8.53836	19.5136	21.2772	1.32953	0.75215	152.80365	143.74128	57.75654	0.32283	 	4.61212E11	 	9.18716E-12	 	20741.459	32.5406	 
590.0	1.0	0.0	7.67003	7.21005	-8.56641	19.49931	21.21096	1.326	0.75415	153.19204	143.93311	57.91269	0.32261	 	5.7004E11	 	7.3904E-12	 	20579.274	32.437	 
585.0	1.0	0.0	7.67238	7.20784	-8.59441	19.48505	21.14472	1.32245	0.75617	153.57995	144.12402	58.06871	0.3224	 	7.0629E11	 	5.93016E-12	 	20417.596	32.3356	 
580.0	1.0	0.0	7.67472	7.20563	-8.62238	19.4708	21.07847	1.31888	0.75822	153.96736	144.314	58.2246	0.32218	 	8.77311E11	 	4.74633E-12	 	20256.413	32.2366	 
575.0	1.0	0.0	7.67707	7.20343	-8.65031	19.45658	21.01223	1.31528	0.76029	154.35427	144.50306	58.38035	0.32197	 	1.09254E12	 	3.78899E-12	 	20095.712	32.1402	 
570.0	1.0	0.0	7.67941	7.20123	-8.6782	19.44237	20.94598	1.31166	0.76239	154.74069	144.69121	58.53596	0.32176	 	1.36411E12	 	3.01677E-12	 	19935.485	32.0454	 
565.0	1.0	0.0	7.68176	7.19904	-8.70604	19.42818	20.87973	1.30802	0.76451	155.1266	144.87844	58.69143	0.32154	 	1.70771E12	 	2.39549E-12	 	19775.72	31.953	 
560.0	1.0	0.0	7.6841	7.19684	-8.73385	19.41401	20.81348	1.30436	0.76666	155.51202	145.06475	58.84676	0.32133	 	2.14364E12	 	1.89696E-12	 	19616.408	31.8624	 
555.0	1.0	0.0	7.68644	7.19465	-8.76162	19.39986	20.74722	1.30067	0.76884	155.89693	145.25015	59.00195	0.32112	 	2.69825E12	 	1.498E-12	 	19457.541	31.7734	 
550.0	1.0	0.0	7.68877	7.19247	-8.78934	19.38572	20.68096	1.29696	0.77103	156.28134	145.43464	59.157	0.3209	 	3.40588E12	 	1.17961E-12	 	19299.109	31.6864	 
545.0	1.0	0.0	7.69111	7.19028	-8.81703	19.37161	20.6147	1.29322	0.77326	156.66523	145.61821	59.31191	0.32069	 	4.31134E12	 	9.26205E-13	 	19141.105	31.6008	 
540.0	1.0	0.0	7.69344	7.1881	-8.84467	19.35751	20.54844	1.28946	0.77552	157.04862	145.80088	59.46667	0.32048	 	5.47339E12	 	7.25105E-13	 	18983.521	31.5168	 
535.0	1.0	0.0	7.69577	7.18593	-8.87228	19.34343	20.48217	1.28568	0.7778	157.43149	145.98263	59.62129	0.32026	 	6.96922E12	 	5.65971E-13	 	18826.35	31.4342	 
530.0	1.0	0.0	7.6981	7.18375	-8.89985	19.32937	20.41591	1.28188	0.78011	157.81385	146.16348	59.77577	0.32005	 	8.90061E12	 	4.40417E-13	 	18669.584	31.3532	 
525.0	1.0	0.0	7.70043	7.18158	-8.92737	19.31533	20.34964	1.27804	0.78245	158.1957	146.34342	59.9301	0.31984	 	1.14022E13	 	3.41652E-13	 	18513.218	31.2732	 
520.0	1.0	0.0	7.70275	7.17941	-8.95486	19.30131	20.28337	1.27419	0.78481	158.57702	146.52246	60.08428	0.31962	 	1.46525E13	 	2.64198E-13	 	18357.246	31.1944	 
515.0	1.0	0.0	7.70507	7.17725	-8.98231	19.2873	20.21709	1.2703	0.78721	158.95783	146.70059	60.23832	0.31941	 	1.88895E13	 	2.03646E-13	 	18201.66	31.1172	 
510.0	1.0	0.0	7.70739	7.17509	-9.00971	19.27331	20.15081	1.2664	0.78964	159.33811	146.87782	60.39221	0.31919	 	2.44308E13	 	1.56457E-13	 	18046.457	31.0406	 
505.0	1.0	0.0	7.70971	7.17293	-9.03708	19.25935	20.08454	1.26246	0.7921	159.71787	147.05415	60.54595	0.31898	 	3.17024E13	 	1.198E-13	 	17891.63	30.9654	 
500.0	1.0	0.0	7.71203	7.17078	-9.06441	19.2454	20.01825	1.25851	0.79459	160.0971	147.22958	60.69954	0.31877	 	4.12773E13	 	9.14195E-14	 	17737.175	30.891	 
495.0	1.0	0.0	7.71435	7.16862	-9.0917	19.23147	19.95197	1.25452	0.79712	160.4758	147.40411	60.85297	0.31855	 	5.39292E13	 	6.95198E-14	 	17583.086	30.8178	 
490.0	1.0	0.0	7.71666	7.16648	-9.11895	19.21756	19.88568	1.25051	0.79967	160.85397	147.57775	61.00626	0.31834	 	7.07065E13	 	5.2679E-14	 	17429.359	30.7454	 
485.0	1.0	0.0	7.71897	7.16433	-9.14616	19.20366	19.8194	1.24647	0.80226	161.23161	147.75049	61.1594	0.31813	 	9.30351E13	 	3.97736E-14	 	17275.991	30.6736	 
480.0	1.0	0.0	7.72128	7.16219	-9.17333	19.18979	19.75311	1.24241	0.80489	161.60872	147.92233	61.31238	0.31791	 	1.22862E14	 	2.99192E-14	 	17122.976	30.603	 
475.0	1.0	0.0	7.72359	7.16005	-9.20046	19.17593	19.68681	1.23831	0.80755	161.98528	148.09328	61.4652	0.3177	 	1.62856E14	 	2.24218E-14	 	16970.311	30.533	 
470.0	1.0	0.0	7.72589	7.15791	-9.22756	19.16209	19.62052	1.23419	0.81024	162.36131	148.26334	61.61788	0.31749	 	2.1669E14	 	1.67388E-14	 	16817.993	30.4636	 
465.0	1.0	0.0	7.72819	7.15578	-9.25461	19.14827	19.55422	1.23005	0.81298	162.7368	148.43251	61.77039	0.31727	 	2.89438E14	 	1.24473E-14	 	16666.017	30.3952	 
460.0	1.0	0.0	7.7305	7.15365	-9.28163	19.13447	19.48792	1.22587	0.81575	163.11175	148.60079	61.92275	0.31706	 	3.88138E14	 	9.21919E-15	 	16514.38	30.3274	 
455.0	1.0	0.0	7.7328	7.15152	-9.3086	19.12069	19.42162	1.22167	0.81855	163.48615	148.76819	62.07496	0.31684	 	5.2259999999999994E14	 	6.80046E-15	 	16363.08	30.26	 
450.0	1.0	0.0	7.73509	7.1494	-9.33554	19.10693	19.35532	1.21743	0.8214	163.86001	148.93469	62.227	0.31663	 	7.06544E14	 	4.99547E-15	 	16212.112	30.1936	 
445.0	1.0	0.0	7.73739	7.14727	-9.36244	19.09318	19.28901	1.21317	0.82428	164.23331	149.10031	62.37889	0.31642	 	9.59254E14	 	3.654E-15	 	16061.475	30.1274	 
440.0	1.0	0.0	7.73968	7.14516	-9.3893	19.07946	19.22271	1.20888	0.82721	164.60607	149.26505	62.53062	0.3162	 	1.30795E15	 	2.66119E-15	 	15911.165	30.062	 
435.0	1.0	0.0	7.74197	7.14304	-9.41613	19.06575	19.1564	1.20456	0.83018	164.97828	149.42891	62.68218	0.31599	 	1.79123E15	 	1.92957E-15	 	15761.18	29.997	 
430.0	1.0	0.0	7.74426	7.14093	-9.44291	19.05206	19.09009	1.20021	0.83319	165.34993	149.59188	62.83359	0.31578	 	2.46408E15	 	1.39277E-15	 	15611.517	29.9326	 
425.0	1.0	0.0	7.74655	7.13882	-9.46966	19.03839	19.02377	1.19583	0.83624	165.72102	149.75398	62.98483	0.31556	 	3.4052E15	 	1.00068E-15	 	15462.174	29.8686	 
420.0	1.0	0.0	7.74884	7.13671	-9.49636	19.02474	18.95746	1.19142	0.83933	166.09156	149.9152	63.13591	0.31535	 	4.72778E15	 	7.15577E-16	 	15313.149	29.805	 
415.0	1.0	0.0	7.75112	7.13461	-9.52303	19.0111	18.89114	1.18698	0.84248	166.46154	150.07554	63.28683	0.31514	 	6.59546E15	 	5.09243E-16	 	15164.439	29.742	 
410.0	1.0	0.0	7.7534	7.13251	-9.54966	18.99749	18.82482	1.18251	0.84566	166.83096	150.23501	63.43758	0.31492	 	9.24591E15	 	3.60623E-16	 	15016.042	29.6794	 
405.0	1.0	0.0	7.75568	7.13041	-9.57626	18.98389	18.7585	1.178	0.8489	167.19982	150.3936	63.58816	0.31471	 	1.30262E16	 	2.54094E-16	 	14867.957	29.617	 
400.0	1.0	0.0	7.75796	7.12832	-9.60281	18.97031	18.69217	1.17346	0.85218	167.56811	150.55133	63.73859	0.3145	 	1.84459E16	 	1.78115E-16	 	14720.181	29.5552	 
395.0	1.0	0.0	7.76024	7.12623	-9.62933	18.95675	18.62584	1.1689	0.85551	167.93583	150.70818	63.88884	0.31428	 	2.62568E16	 	1.24199E-16	 	14572.713	29.4936	 
390.0	1.0	0.0	7.76251	7.12414	-9.65581	18.94321	18.55952	1.16429	0.85889	168.30299	150.86416	64.03893	0.31407	 	3.75749E16	 	8.61391E-17	 	14425.551	29.4324	 
385.0	1.0	0.0	7.76479	7.12206	-9.68225	18.92969	18.49318	1.15966	0.86232	168.66958	151.01927	64.18885	0.31385	 	5.40655E16	 	5.94144E-17	 	14278.693	29.3716	 
380.0	1.0	0.0	7.76706	7.11997	-9.70866	18.91618	18.42685	1.15499	0.86581	169.0356	151.17352	64.3386	0.31364	 	7.8228E16	 	4.07509E-17	 	14132.138	29.311	 
375.0	1.0	0.0	7.76933	7.11789	-9.73502	18.9027	18.36051	1.15029	0.86934	169.40104	151.3269	64.48818	0.31343	 	1.13836E17	 	2.77896E-17	 	13985.884	29.2508	 
370.0	1.0	0.0	7.77159	7.11582	-9.76135	18.88923	18.29418	1.14556	0.87294	169.76591	151.47942	64.63759	0.31321	 	1.66622E17	 	1.88394E-17	 	13839.931	29.1906	 
365.0	1.0	0.0	7.77386	7.11374	-9.78765	18.87578	18.22784	1.14079	0.87659	170.1302	151.63108	64.78683	0.313	 	2.45345E17	 	1.2695E-17	 	13694.276	29.131	 
360.0	1.0	0.0	7.77612	7.11167	-9.8139	18.86235	18.16149	1.13599	0.88029	170.49391	151.78188	64.9359	0.31279	 	3.63477E17	 	8.5019E-18	 	13548.918	29.0716	 
355.0	1.0	0.0	7.77838	7.10961	-9.84012	18.84894	18.09515	1.13115	0.88406	170.85705	151.93182	65.0848	0.31257	 	5.4187E17	 	5.65789E-18	 	13403.857	29.0122	 
350.0	1.0	0.0	7.78064	7.10754	-9.8663	18.83555	18.0288	1.12627	0.88788	171.21961	152.0809	65.23352	0.31236	 	8.13012E17	 	3.74095E-18	 	13259.092	28.953	 
345.0	1.0	0.0	7.7829	7.10548	-9.89244	18.82217	17.96245	1.12136	0.89177	171.58158	152.22913	65.38207	0.31215	 	1.22786E18	 	2.45715E-18	 	13114.62	28.8944	 
340.0	1.0	0.0	7.78515	7.10342	-9.91855	18.80882	17.89609	1.11642	0.89572	171.94297	152.3765	65.53045	0.31193	 	1.86691E18	 	1.60299E-18	 	12970.442	28.8356	 
335.0	1.0	0.0	7.78741	7.10137	-9.94462	18.79548	17.82974	1.11143	0.89974	172.30377	152.52302	65.67865	0.31172	 	2.85818E18	 	1.0385E-18	 	12826.555	28.7774	 
330.0	1.0	0.0	7.78966	7.09931	-9.97065	18.78216	17.76338	1.10641	0.90382	172.66399	152.6687	65.82668	0.3115	 	4.4068E18	 	6.68019E-19	 	12682.961	28.7188	 
325.0	1.0	0.0	7.79191	7.09726	-9.99664	18.76886	17.69702	1.10136	0.90797	173.02362	152.81352	65.97453	0.31129	 	6.84385E18	 	4.26576E-19	 	12539.657	28.6608	 
320.0	1.0	0.0	7.79416	7.09522	-10.0226	18.75558	17.63065	1.09626	0.91219	173.38266	152.9575	66.1222	0.31108	 	1.07078E19	 	2.70364E-19	 	12396.643	28.6028	 
315.0	1.0	0.0	7.7964	7.09317	-10.04852	18.74231	17.56429	1.09113	0.91648	173.74111	153.10063	66.2697	0.31086	 	1.68814E19	 	1.70046E-19	 	12253.919	28.5448	 
310.0	1.0	0.0	7.79865	7.09113	-10.07441	18.72907	17.49792	1.08595	0.92085	174.09897	153.24291	66.41702	0.31065	 	2.6823E19	 	1.06111E-19	 	12111.484	28.487	 
305.0	1.0	0.0	7.80089	7.08909	-10.10026	18.71584	17.43155	1.08074	0.92529	174.45623	153.38436	66.56416	0.31044	 	4.29619E19	 	6.56816E-20	 	11969.337	28.4294	 
300.0	1.0	0.0	7.80313	7.08706	-10.12607	18.70264	17.36517	1.07549	0.92981	174.81291	153.52497	66.71112	0.31022	 	6.93793E19	 	4.03204E-20	 	11827.477	28.372	 
295.0	1.0	0.0	7.80537	7.08503	-10.15184	18.68945	17.29879	1.0702	0.9344	175.16898	153.66473	66.8579	0.31001	 	1.1298999999999998E20	 	2.4542E-20	 	11685.906	28.3142	 
290.0	1.0	0.0	7.80761	7.083	-10.17758	18.67628	17.23241	1.06487	0.93908	175.52446	153.80367	67.00451	0.3098	 	1.85615E20	 	1.48081E-20	 	11544.621	28.257	 
285.0	1.0	0.0	7.80984	7.08097	-10.20329	18.66312	17.16603	1.05949	0.94385	175.87935	153.94177	67.15093	0.30958	 	3.0764299999999997E20	 	8.85504E-21	 	11403.623	28.1996	 
280.0	1.0	0.0	7.81207	7.07895	-10.22895	18.64999	17.09964	1.05408	0.94869	176.23363	154.07903	67.29717	0.30937	 	5.1457499999999997E20	 	5.24663E-21	 	11262.913	28.142	 
275.0	1.0	0.0	7.8143	7.07692	-10.25458	18.63688	17.03325	1.04862	0.95363	176.58732	154.21547	67.44323	0.30916	 	8.688149999999999E20	 	3.07935E-21	 	11122.488	28.085	 
270.0	1.0	0.0	7.81653	7.07491	-10.28018	18.62378	16.96686	1.04312	0.95866	176.94041	154.35108	67.58911	0.30894	 	1.48113E21	 	1.78983E-21	 	10982.35	28.0276	 
265.0	1.0	0.0	7.81876	7.07289	-10.30574	18.6107	16.90046	1.03758	0.96378	177.2929	154.48586	67.73481	0.30873	 	2.55015E21	 	1.02997E-21	 	10842.499	27.9702	 
260.0	1.0	0.0	7.82099	7.07088	-10.33126	18.59764	16.83406	1.032	0.969	177.64478	154.61983	67.88033	0.30851	 	4.4357100000000003E21	 	5.86642E-22	 	10702.935	27.9128	 
255.0	1.0	0.0	7.82321	7.06887	-10.35675	18.5846	16.76766	1.02637	0.97431	177.99607	154.75296	68.02566	0.3083	 	7.79675E21	 	3.30621E-22	 	10563.657	27.8556	 
250.0	1.0	0.0	7.82543	7.06686	-10.3822	18.57158	16.70125	1.02069	0.97973	178.34675	154.88529	68.17082	0.30809	 	1.3853099999999998E22	 	1.84318E-22	 	10424.666	27.7982	 
245.0	1.0	0.0	7.82765	7.06486	-10.40761	18.55857	16.63484	1.01497	0.98525	178.69683	155.01679	68.31579	0.30787	 	2.48884E22	 	1.01612E-22	 	10285.962	27.7408	 
240.0	1.0	0.0	7.82987	7.06286	-10.43299	18.54559	16.56843	1.00921	0.99088	179.04631	155.14748	68.46057	0.30766	 	4.52278E22	 	5.53764E-23	 	10147.546	27.6832	 
235.0	1.0	0.0	7.83209	7.06086	-10.45834	18.53262	16.50202	1.0034	0.99661	179.39519	155.27736	68.60517	0.30745	 	8.316119999999999E22	 	2.98235E-23	 	10009.418	27.6256	 
230.0	1.0	0.0	7.8343	7.05886	-10.48365	18.51967	16.4356	0.99754	1.00247	179.74346	155.40643	68.74959	0.30723	 	1.54772E23	 	1.58669E-23	 	9871.579	27.5678	 
225.0	1.0	0.0	7.83651	7.05687	-10.50892	18.50674	16.36917	0.99163	1.00844	180.09113	155.53469	68.89383	0.30702	 	2.91662E23	 	8.33616E-24	 	9734.029	27.51	 
220.0	1.0	0.0	7.83872	7.05488	-10.53416	18.49383	16.30275	0.98568	1.01453	180.4382	155.66216	69.03788	0.30681	 	5.5673499999999994E23	 	4.32332E-24	 	9596.769	27.452	 
215.0	1.0	0.0	7.84093	7.05289	-10.55936	18.48094	16.23632	0.97968	1.02074	180.78466	155.78882	69.18175	0.30659	 	1.07688E24	 	2.21244E-24	 	9459.8	27.3938	 
210.0	1.0	0.0	7.84314	7.05091	-10.58453	18.46806	16.16989	0.97363	1.02709	181.13052	155.91468	69.32543	0.30638	 	2.11164E24	 	1.11673E-24	 	9323.122	27.3356	 
205.0	1.0	0.0	7.84534	7.04892	-10.60967	18.45521	16.10345	0.96753	1.03356	181.47578	156.03975	69.46894	0.30616	 	4.19939E24	 	5.5573E-25	 	9186.737	27.277	 
200.0	1.0	0.0	7.84755	7.04694	-10.63476	18.44237	16.03701	0.96138	1.04018	181.82044	156.16402	69.61225	0.30595	 	8.47352E24	 	2.72534E-25	 	9050.646	27.2182	 
195.0	1.0	0.0	7.84975	7.04497	-10.65983	18.42955	15.97057	0.95517	1.04693	182.1645	156.28751	69.75539	0.30574	 	1.7356200000000002E25	 	1.31649E-25	 	8914.849	27.1594	 
190.0	1.0	0.0	7.85195	7.04299	-10.68485	18.41675	15.90412	0.94892	1.05383	182.50796	156.41021	69.89834	0.30552	 	3.6105E25	 	6.26096E-26	 	8779.349	27.1	 
185.0	1.0	0.0	7.85415	7.04102	-10.70985	18.40397	15.83767	0.94261	1.06088	182.85082	156.53214	70.04111	0.30531	 	7.6317600000000005E25	 	2.93001E-26	 	8644.147	27.0404	 
180.0	1.0	0.0	7.85634	7.03906	-10.73481	18.39121	15.77121	0.93626	1.06808	183.19308	156.65328	70.1837	0.3051	 	1.6400400000000002E26	 	1.34857E-26	 	8509.243	26.9808	 
175.0	1.0	0.0	7.85854	7.03709	-10.75973	18.37846	15.70475	0.92984	1.07545	183.53475	156.77365	70.3261	0.30488	 	3.5850800000000005E26	 	6.10114E-27	 	8374.641	26.9204	 
170.0	1.0	0.0	7.86073	7.03513	-10.78462	18.36574	15.63829	0.92338	1.08298	183.87582	156.89325	70.46833	0.30467	 	7.976410000000001E26	 	2.71163E-27	 	8240.341	26.86	 
165.0	1.0	0.0	7.86292	7.03317	-10.80948	18.35303	15.57182	0.91686	1.09068	184.2163	157.01208	70.61037	0.30446	 	1.80735E27	 	1.18322E-27	 	8106.346	26.799	 
160.0	1.0	0.0	7.86511	7.03121	-10.8343	18.34034	15.50535	0.91028	1.09856	184.55619	157.13015	70.75224	0.30424	 	4.17329E27	 	5.06578E-28	 	7972.658	26.7376	 
155.0	1.0	0.0	7.8673	7.02926	-10.85908	18.32767	15.43888	0.90365	1.10663	184.89549	157.24747	70.89392	0.30403	 	9.82662E27	 	2.12656E-28	 	7839.278	26.676	 
150.0	1.0	0.0	7.86948	7.0273	-10.88384	18.31502	15.3724	0.89695	1.11488	185.2342	157.36403	71.03543	0.30382	 	2.36112E28	 	8.74706E-29	 	7706.21	26.6136	 
145.0	1.0	0.0	7.87166	7.02535	-10.90855	18.30239	15.30592	0.89021	1.12334	185.57233	157.47985	71.17676	0.3036	 	5.79346E28	 	3.52274E-29	 	7573.456	26.5508	 
140.0	1.0	0.0	7.87385	7.02341	-10.93324	18.28977	15.23943	0.8834	1.13199	185.90988	157.59492	71.31791	0.30339	 	1.4527600000000001E29	 	1.38804E-29	 	7441.018	26.4876	 
135.0	1.0	0.0	7.87603	7.02146	-10.95789	18.27717	15.17294	0.87653	1.14086	186.24686	157.70925	71.45889	0.30317	 	3.7258900000000004E29	 	5.34658E-30	 	7308.901	26.4234	 
130.0	1.0	0.0	7.8782	7.01952	-10.9825	18.2646	15.10645	0.86961	1.14995	186.58326	157.82285	71.59969	0.30296	 	9.781670000000001E29	 	2.01159E-30	 	7177.106	26.359	 
125.0	1.0	0.0	7.88038	7.01759	-11.00709	18.25204	15.03995	0.86262	1.15926	186.91909	157.93572	71.74033	0.30275	 	2.63102E30	 	7.38599E-31	 	7045.637	26.2938	 
120.0	1.0	0.0	7.88255	7.01565	-11.03163	18.2395	14.97344	0.85557	1.16881	187.25436	158.04788	71.88079	0.30253	 	7.25715E30	 	2.64411E-31	 	6914.498	26.2278	 
115.0	1.0	0.0	7.88473	7.01372	-11.05615	18.22697	14.90694	0.84846	1.17861	187.58907	158.15932	72.02108	0.30232	 	2.05475E31	 	9.21991E-32	 	6783.693	26.161	 
110.0	1.0	0.0	7.8869	7.01179	-11.08063	18.21447	14.84042	0.84128	1.18867	187.92322	158.27005	72.1612	0.30211	 	5.97792E31	 	3.12828E-32	 	6653.226	26.0934	 
105.0	1.0	0.0	7.88907	7.00986	-11.10508	18.20199	14.77391	0.83404	1.19898	188.25682	158.38008	72.30116	0.30189	 	1.78898E32	 	1.03168E-32	 	6523.1	26.0252	 
100.0	1.0	0.0	7.89123	7.00793	-11.12949	18.18952	14.70739	0.82673	1.20958	188.58988	158.48942	72.44096	0.30168	 	5.5133899999999994E32	 	3.30333E-33	 	6393.322	25.9556	 
95.0	1.0	0.0	7.8934	7.00601	-11.15387	18.17707	14.64086	0.81936	1.22046	188.9224	158.59807	72.5806	0.30147	 	1.7519E33	 	1.02566E-33	 	6263.895	25.8854	 
90.0	1.0	0.0	7.89556	7.00409	-11.17822	18.16464	14.57433	0.81192	1.23164	189.2544	158.70605	72.72008	0.30125	 	5.7468E33	 	3.08423E-34	 	6134.826	25.8138	 
85.0	1.0	0.0	7.89773	7.00217	-11.20253	18.15223	14.50779	0.80442	1.24314	189.58587	158.81336	72.8594	0.30104	 	1.9487100000000001E34	 	8.97023E-35	 	6006.119	25.7414	 
80.0	1.0	0.0	7.89989	7.00026	-11.22681	18.13984	14.44125	0.79684	1.25495	189.91683	158.92	72.99858	0.30083	 	6.840480000000001E34	 	2.51976E-35	 	5877.781	25.6676	 
75.0	1.0	0.0	7.90204	6.99835	-11.25106	18.12746	14.37471	0.7892	1.26711	190.24728	159.026	73.1376	0.30061	 	2.48937E35	 	6.82596E-36	 	5749.818	25.5926	 
70.0	1.0	0.0	7.9042	6.99644	-11.27527	18.11511	14.30816	0.78148	1.27962	190.57724	159.13136	73.27648	0.3004	 	9.406769999999999E35	 	1.78045E-36	 	5622.237	25.5162	 
65.0	1.0	0.0	7.90635	6.99453	-11.29945	18.10277	14.24161	0.77369	1.2925	190.90672	159.23609	73.41522	0.30018	 	3.6971399999999995E36	 	4.46406E-37	 	5495.046	25.4382	 
60.0	1.0	0.0	7.90851	6.99263	-11.3236	18.09045	14.17505	0.76583	1.30577	191.23572	159.3402	73.55382	0.29997	 	1.5140299999999998E37	 	1.07397E-37	 	5368.252	25.3588	 
55.0	1.0	0.0	7.91066	6.99072	-11.34772	18.07815	14.10848	0.7579	1.31944	191.56426	159.4437	73.6923	0.29976	 	6.472309999999999E37	 	2.47457E-38	 	5241.863	25.2778	 
50.0	1.0	0.0	7.91281	6.98883	-11.3718	18.06587	14.04191	0.74989	1.33353	191.89235	159.54662	73.83064	0.29954	 	2.8940699999999998E38	 	5.44981E-39	 	5115.889	25.1948	 
45.0	1.0	0.0	7.91496	6.98693	-11.39585	18.05361	13.97534	0.7418	1.34807	192.22001	159.64895	73.96886	0.29933	 	1.3564500000000001E39	 	1.14476E-39	 	4990.339	25.11	 
40.0	1.0	0.0	7.9171	6.98504	-11.41987	18.04137	13.90876	0.73364	1.36307	192.54724	159.75072	74.10697	0.29912	 	6.679180000000001E39	 	2.28832E-40	 	4865.224	25.023	 
35.0	1.0	0.0	7.91925	6.98314	-11.44385	18.02914	13.84218	0.7254	1.37856	192.87408	159.85194	74.24497	0.2989	 	3.46345E40	 	4.3425E-41	 	4740.554	24.934	 
30.0	1.0	0.0	7.92139	6.98126	-11.4678	18.01693	13.77559	0.71708	1.39455	193.20053	159.95263	74.38286	0.29869	 	1.89615E41	 	7.80316E-42	 	4616.34	24.8428	 
25.0	1.0	0.0	7.92353	6.97937	-11.49172	 	13.70899	0.70867	1.41108	193.52662	160.0528	74.52066	0.29848	 	1.0990099999999999E42	 	1.32409E-42	 	4492.597	 	 
