T (C)	Fraction solid (wt)-TOTAL	Fraction liquid (wt)-LIQUID	Density (g/(cm)^3)-TOTAL	Molar volume (cm^3)-TOTAL	Volume change (%)-  	Average expansion coeff. (10e-6 1/K)-  	Thermal conductivity (W/(m*K))-TOTAL	Electrical resistivity (10e-6 Ohm*m)-TOTAL	Electrical conductivity (10e6 1/(Ohm*m))-TOTAL	Young's modulus (GPa)-TOTAL	Bulk modulus (GPa)-TOTAL	Shear modulus(GPa)-TOTAL	Poisson's ratio-TOTAL	Liquid viscosity (mPa s)-  	Total viscosity (mPa s)-  	Liquid diffusivity (10e-9 (m^2)/s)-  	Total diffusivity (10e-9 (m^2)/s)-  	Surface Tension (mN/m)-  	Enthalpy (J/mole)-TOTAL	Specific heat (J/(mole K))-TOTAL	Latent heat (J/mole)-TOTAL
1500.0	0.0	1.0	6.87271	7.89697	0.0	24.44673	32.66623	1.76874	0.56537	0.0	101.56409	0.0	0.49574	6.532	6.532	1.32491	1.32491	1630.32588	65931.657	 	0.0
1495.0	0.0	1.0	6.87659	7.89251	-0.0564183	24.38811	32.5927	1.76773	0.5657	0.0	101.75914	0.0	0.49574	6.58783	6.58783	1.30998	1.30998	1631.24022	65709.355	44.4604	0.0
1490.0	0.0	1.0	6.88046	7.88807	-0.11268	24.32949	32.51916	1.76672	0.56602	0.0	101.95419	0.0	0.49574	6.64446	6.64446	1.29514	1.29514	1632.14357	65487.596	44.3518	0.0
1485.0	0.0	1.0	6.88433	7.88364	-0.16878	24.27086	32.44562	1.7657	0.56635	0.0	102.14924	0.0	0.49574	6.7019	6.7019	1.2804	1.2804	1633.03581	65266.379	44.2434	0.0
1480.0	0.0	1.0	6.88819	7.87922	-0.22473	24.21223	32.37207	1.76468	0.56667	0.0	102.34428	0.0	0.49574	6.76017	6.76017	1.26575	1.26575	1633.91681	65045.7	44.1358	0.0
1475.0	0.0	1.0	6.89205	7.87482	-0.28052	24.15359	32.29853	1.76366	0.567	0.0	102.53933	0.0	0.49574	6.81929	6.81929	1.2512	1.2512	1634.78646	64825.554	44.0292	0.0
1470.0	0.0	1.0	6.89589	7.87042	-0.33616	24.09495	32.22498	1.76262	0.56734	0.0	102.73438	0.0	0.49574	6.87926	6.87926	1.23674	1.23674	1635.64461	64605.939	43.923	0.0
1465.0	0.0	1.0	6.89973	7.86604	-0.39163	24.0363	32.15143	1.76159	0.56767	0.0	102.92943	0.0	0.49574	6.94011	6.94011	1.22238	1.22238	1636.49113	64386.851	43.8176	0.0
1460.26	0.0	1.0	6.90337	7.8619	-0.4441	23.98068	32.08167	1.7606	0.56799	0.0	103.1144	0.0	0.49574	6.99865	6.99865	1.20885	1.20885	1637.28305	64179.569	43.7157	0.0010
1460.0	0.01139	0.98861	6.90531	7.85967	-0.47237	23.91222	32.10347	1.75915	0.56846	8.78622E-7	102.67703	2.94037E-7	0.49407	6.99841	7.10376	1.20871	1.19079	1636.89888	64062.677	452.351	105.61
1455.0	0.2072	0.7928	6.93936	7.82112	-0.96045	22.73503	32.47477	1.73402	0.5767	0.0987711	95.19053	0.0337053	0.46521	6.99438	14.50602	1.20592	0.58146	1629.77404	62027.944	406.947	1922.3
1450.0	0.3559	0.6441	6.96642	7.79113	-1.34025	21.83029	32.7456	1.7147	0.58319	0.87939	89.58522	0.30469	0.44308	6.99075	59.87557	1.20306	0.14046	1623.05881	60433.337	318.921	3299.384
1445.0	0.47182	0.52818	6.98853	7.76711	-1.64446	21.11578	32.94472	1.69939	0.58845	2.76996	85.3052	0.97145	0.42569	6.98745	170.60863	1.20013	0.0491526	1616.70479	59146.466	257.374	4369.252
1440.0	0.56416	0.43584	7.00703	7.74753	-1.89231	20.54337	33.09103	1.68695	0.59278	5.76109	81.99008	2.04043	0.41174	6.98444	352.06586	1.19715	0.0237497	1610.66726	58081.852	212.923	5217.383
1435.0	0.63904	0.36096	7.0228	7.73122	-2.09886	20.07512	33.19686	1.67667	0.59642	9.63447	79.39431	3.44001	0.40035	6.98174	597.98758	1.19412	0.0139419	1604.91405	57182.2	179.93	5901.068
1430.0	0.70063	0.29937	7.03648	7.71744	-2.27339	19.68769	33.27127	1.66802	0.59951	14.12459	77.34941	5.07736	0.39094	6.97928	898.4273	1.19105	0.00925245	1599.41513	56407.885	154.863	6459.929
1425.0	0.75192	0.24808	7.0485	7.7057	-2.42204	19.36578	33.32118	1.66063	0.60218	18.99224	75.7352	6.86602	0.38306	6.97706	1243.66461	1.18793	0.00666438	1594.14142	55730.738	135.429	6922.129
1420.0	0.79507	0.20493	7.0592	7.69553	-2.55085	19.09411	33.35122	1.65425	0.6045	24.04552	74.46185	8.73494	0.3764	6.97505	1625.43737	1.18477	0.00508407	1589.07527	55130.299	120.088	7308.125
1415.0	0.83167	0.16833	7.06881	7.68664	-2.66343	18.86361	33.36527	1.64867	0.60655	29.13755	73.46386	10.62854	0.37072	6.9732	2037.1331	1.18159	0.00404463	1584.19663	54591.283	107.803	7633.203
1410.0	0.86301	0.13699	7.07754	7.67882	-2.76249	18.66753	33.36646	1.64373	0.60837	34.17622	72.68826	12.51106	0.36584	6.97156	2474.80053	1.17836	0.00331947	1579.4873	54101.726	97.9114	7909.32
1405.0	0.88996	0.11004	7.08551	7.6719	-2.85011	18.50062	33.35697	1.63931	0.61001	39.07679	72.09918	14.34933	0.36162	6.9701	2934.17537	1.17511	0.00279146	1574.93312	53653.312	89.6828	8144.79
1400.0	0.91323	0.0867652	7.09285	7.66571	-2.92843	18.35749	33.33859	1.63533	0.6115	43.79315	71.66495	16.12458	0.35796	6.9688	3413.00857	1.17183	0.00239268	1570.52359	53239.08	82.8464	8346.57
1395.0	0.93343	0.0665689	7.09964	7.66017	-2.99866	18.23512	33.31286	1.6317	0.61286	48.29296	71.36162	17.82329	0.35477	6.96766	3909.69335	1.16852	0.00208247	1566.24406	52853.522	77.1116	8520.164
1393.21	0.94125	0.0587465	7.10227	7.65815	-3.02417	18.19015	33.30346	1.63041	0.61334	50.12289	71.23786	18.51541	0.35354	6.96725	4113.76906	1.16733	0.00197704	1564.7337	52711.788	 	8586.011
1390.0	0.95331	0.0466891	7.10639	7.65416	-3.0747	18.09614	33.28885	1.62798	0.61426	53.20101	71.25463	19.67909	0.35171	6.98073	4470.12323	1.16283	0.00181593	1558.0218	52454.224	79.8596	8707.985
1385.0	0.96746	0.032545	7.11179	7.64886	-3.14178	17.98047	33.25705	1.62464	0.61552	57.11697	71.39695	21.16208	0.34951	7.00351	4984.42659	1.15557	0.00162366	1547.87533	52103.164	70.212	8848.05
1380.0	0.97549	0.0245069	7.11579	7.64465	-3.19512	17.90139	33.21518	1.62179	0.6166	59.65767	71.6991	22.12522	0.34818	7.02795	5415.90885	1.14807	0.0014898	1538.19898	51815.501	57.5326	8925.199
1375.0	0.98162	0.0183802	7.11938	7.64087	-3.24296	17.83681	33.1691	1.61913	0.61762	61.76738	72.04033	22.92572	0.34712	7.05395	5838.57844	1.14038	0.00137777	1528.99553	51549.957	53.1088	8980.705
1370.0	0.98631	0.0136863	7.12266	7.63742	-3.28668	17.78304	33.11986	1.61661	0.61858	63.53761	72.41075	23.59786	0.34626	7.0813	6258.27921	1.13253	0.00128147	1520.25982	51301.079	49.7756	9020.021
1365.0	0.98992	0.0100782	7.12571	7.63422	-3.32727	17.7375	33.06829	1.61421	0.6195	65.04016	72.8034	24.16865	0.34555	7.10979	6679.92939	1.12456	0.00119693	1511.97804	51064.914	47.233	9047.093
1360.0	0.9927	0.00730238	7.12857	7.6312	-3.36544	17.69833	33.01496	1.61188	0.62039	66.33076	73.21325	24.65907	0.34496	7.13938	7107.73565	1.11648	0.00112145	1504.12812	50838.549	45.273	9064.835
1355.0	0.99483	0.00517106	7.1313	7.62834	-3.40171	17.66412	32.96035	1.60961	0.62127	67.45321	73.63664	25.08568	0.34446	7.16984	7545.35347	1.10834	0.00105318	1496.68673	50619.815	43.7468	9075.412
1350.0	0.9965	0.00350442	7.13392	7.62558	-3.43661	17.63349	32.90481	1.60737	0.62213	68.4527	74.07045	25.46559	0.34402	7.2012	7997.22227	1.10012	9.90618E-4	1489.6293	50407.094	42.5442	9080.438
1345.0	0.99787	0.00212655	7.13647	7.62289	-3.47063	17.60507	32.84864	1.60516	0.62299	69.37817	74.51182	25.81742	0.34363	7.2333	8468.97034	1.09186	9.32556E-4	1482.93176	50197.506	41.9176	9082.792
1340.0	0.99903	9.73858E-4	7.13898	7.62026	-3.50396	17.57839	32.79197	1.60297	0.62384	70.24591	74.95959	26.14733	0.34327	7.2661	8963.296	1.08358	8.78403E-4	1476.56875	49990.329	41.4354	9083.192
1335.0	1.0	0.0	7.14144	7.61768	-3.53672	17.5531	32.73492	1.60078	0.62469	71.06757	75.41286	26.45976	0.34294	 	9482.69031	 	8.27717E-4	 	49785.032	41.0594	9082.167
1330.0	1.0	0.0	7.14369	7.61528	-3.56707	17.53445	32.67735	1.59862	0.62554	71.59501	75.88173	26.65987	0.34275	 	9995.88666	 	7.8278E-4	 	49512.351	54.5362	 
1325.0	1.0	0.0	7.14594	7.61289	-3.59737	17.5158	32.61978	1.59645	0.62639	72.12559	76.35279	26.8612	0.34256	 	10540.354	 	7.4003E-4	 	49312.488	39.9726	 
1320.0	1.0	0.0	7.14818	7.6105	-3.62762	17.49714	32.56221	1.59427	0.62725	72.65928	76.82602	27.06375	0.34237	 	11118.20198	 	6.99373E-4	 	49112.919	39.9138	 
1315.0	1.0	0.0	7.15042	7.60811	-3.65781	17.47849	32.50463	1.59208	0.62811	73.19602	77.30135	27.26749	0.34218	 	11731.69597	 	6.6072E-4	 	48913.64	39.8558	 
1310.0	1.0	0.0	7.15266	7.60573	-3.68796	17.45984	32.44706	1.58988	0.62898	73.7358	77.77875	27.47242	0.342	 	12383.26946	 	6.23984E-4	 	48714.651	39.7978	 
1305.0	1.0	0.0	7.15489	7.60336	-3.71806	17.44119	32.38948	1.58768	0.62985	74.27856	78.25816	27.67852	0.34181	 	13075.53763	 	5.89082E-4	 	48515.952	39.7398	 
1300.0	1.0	0.0	7.15713	7.60098	-3.7481	17.42254	32.3319	1.58547	0.63073	74.82428	78.73953	27.88578	0.34162	 	13811.31204	 	5.55932E-4	 	48317.54	39.6824	 
1295.0	1.0	0.0	7.15936	7.59861	-3.7781	17.40388	32.27432	1.58325	0.63161	75.37291	79.22284	28.09418	0.34143	 	14593.61659	 	5.24459E-4	 	48119.416	39.6248	 
1290.0	1.0	0.0	7.16159	7.59625	-3.80804	17.38523	32.21673	1.58102	0.6325	75.92442	79.70801	28.30372	0.34124	 	15425.70493	 	4.94587E-4	 	47921.578	39.5676	 
1285.0	1.0	0.0	7.16381	7.59389	-3.83794	17.36658	32.15915	1.57878	0.6334	76.47877	80.19502	28.51437	0.34106	 	16311.07931	 	4.66244E-4	 	47724.026	39.5104	 
1280.0	1.0	0.0	7.16604	7.59153	-3.86778	17.34792	32.10156	1.57654	0.6343	77.03592	80.68382	28.72612	0.34087	 	17253.51125	 	4.39362E-4	 	47526.759	39.4534	 
1275.0	1.0	0.0	7.16826	7.58918	-3.89758	17.32927	32.04397	1.57429	0.63521	77.59584	81.17436	28.93897	0.34068	 	18257.06386	 	4.13875E-4	 	47329.775	39.3968	 
1270.0	1.0	0.0	7.17048	7.58683	-3.92732	17.31062	31.98638	1.57203	0.63612	78.15849	81.66659	29.1529	0.34049	 	19326.11631	 	3.89718E-4	 	47133.075	39.34	 
1265.0	1.0	0.0	7.17269	7.58448	-3.95701	17.29196	31.92879	1.56976	0.63704	78.72384	82.16048	29.36789	0.3403	 	20465.39045	 	3.6683E-4	 	46936.656	39.2838	 
1260.0	1.0	0.0	7.17491	7.58214	-3.98666	17.27331	31.8712	1.56749	0.63796	79.29184	82.65597	29.58393	0.34012	 	21679.97982	 	3.45154E-4	 	46740.519	39.2274	 
1255.0	1.0	0.0	7.17712	7.57981	-4.01625	17.25465	31.8136	1.5652	0.63889	79.86245	83.15302	29.80101	0.33993	 	22975.38132	 	3.24631E-4	 	46544.663	39.1712	 
1250.0	1.0	0.0	7.17933	7.57747	-4.04579	17.236	31.756	1.56291	0.63983	80.43565	83.65159	30.01911	0.33974	 	24357.52979	 	3.05208E-4	 	46349.086	39.1154	 
1245.0	1.0	0.0	7.18154	7.57515	-4.07528	17.21734	31.6984	1.56061	0.64077	81.0114	84.15164	30.23823	0.33955	 	25832.83579	 	2.86833E-4	 	46153.788	39.0596	 
1240.0	1.0	0.0	7.18374	7.57282	-4.10472	17.19868	31.6408	1.5583	0.64172	81.58965	84.65312	30.45834	0.33936	 	27408.22682	 	2.69456E-4	 	45958.769	39.0038	 
1235.0	1.0	0.0	7.18594	7.5705	-4.13411	17.18003	31.5832	1.55599	0.64268	82.17037	85.15599	30.67943	0.33918	 	29091.19244	 	2.53029E-4	 	45764.029	38.948	 
1230.0	1.0	0.0	7.18814	7.56818	-4.16345	17.16137	31.5256	1.55366	0.64364	82.75353	85.6602	30.9015	0.33899	 	30889.8336	 	2.37505E-4	 	45569.566	38.8926	 
1225.0	1.0	0.0	7.19034	7.56587	-4.19274	17.14272	31.46799	1.55133	0.64461	83.33908	86.16571	31.12453	0.3388	 	32812.91664	 	2.22842E-4	 	45375.378	38.8376	 
1220.0	1.0	0.0	7.19254	7.56356	-4.22198	17.12406	31.41038	1.54899	0.64558	83.927	86.67249	31.3485	0.33861	 	34869.93237	 	2.08997E-4	 	45181.465	38.7826	 
1215.0	1.0	0.0	7.19473	7.56125	-4.25117	17.1054	31.35277	1.54664	0.64656	84.51723	87.18048	31.5734	0.33842	 	37071.1608	 	1.95928E-4	 	44987.825	38.728	 
1210.0	1.0	0.0	7.19692	7.55895	-4.28031	17.08675	31.29516	1.54428	0.64755	85.10976	87.68965	31.79921	0.33824	 	39427.74215	 	1.83599E-4	 	44794.457	38.6736	 
1205.0	1.0	0.0	7.19911	7.55666	-4.3094	17.06809	31.23755	1.54191	0.64855	85.70453	88.19995	32.02594	0.33805	 	41951.75462	 	1.71971E-4	 	44601.358	38.6198	 
1200.0	1.0	0.0	7.20129	7.55436	-4.33844	17.04943	31.17993	1.53953	0.64955	86.30152	88.71134	32.25355	0.33786	 	44656.29975	 	1.61009E-4	 	44408.527	38.5662	 
1195.0	1.0	0.0	7.20348	7.55207	-4.36742	17.03077	31.12232	1.53715	0.65055	86.90068	89.22378	32.48204	0.33767	 	47555.59617	 	1.5068E-4	 	44215.963	38.5128	 
1190.0	1.0	0.0	7.20566	7.54979	-4.39636	17.01211	31.0647	1.53476	0.65157	87.50199	89.73724	32.71139	0.33748	 	50665.08248	 	1.40951E-4	 	44023.664	38.4598	 
1185.0	1.0	0.0	7.20783	7.54751	-4.42525	16.99345	31.00708	1.53235	0.65259	88.10539	90.25166	32.9416	0.3373	 	54001.5304	 	1.3179E-4	 	43831.629	38.407	 
1180.0	1.0	0.0	7.21001	7.54523	-4.45408	16.9748	30.94945	1.52994	0.65362	88.71086	90.767	33.17264	0.33711	 	57583.16908	 	1.23169E-4	 	43639.856	38.3546	 
1175.0	1.0	0.0	7.21218	7.54296	-4.48287	16.95614	30.89183	1.52752	0.65465	89.31837	91.28324	33.40451	0.33692	 	61429.82197	 	1.15059E-4	 	43448.342	38.3028	 
1170.0	1.0	0.0	7.21435	7.54069	-4.51161	16.93748	30.8342	1.52509	0.6557	89.92786	91.80031	33.63719	0.33673	 	65563.05736	 	1.07433E-4	 	43257.088	38.2508	 
1165.0	1.0	0.0	7.21652	7.53842	-4.54029	16.91882	30.77658	1.52266	0.65675	90.53932	92.3182	33.87066	0.33654	 	70006.35425	 	1.00266E-4	 	43066.09	38.1996	 
1160.0	1.0	0.0	7.21869	7.53616	-4.56892	16.90016	30.71895	1.52021	0.6578	91.15269	92.83685	34.10492	0.33636	 	74785.28518	 	9.35324E-5	 	42875.347	38.1486	 
1155.0	1.0	0.0	7.22085	7.5339	-4.59751	16.8815	30.66132	1.51775	0.65887	91.76795	93.35623	34.33995	0.33617	 	79927.71768	 	8.72094E-5	 	42684.857	38.098	 
1150.0	1.0	0.0	7.22301	7.53165	-4.62604	16.86284	30.60368	1.51529	0.65994	92.38505	93.87629	34.57574	0.33598	 	85464.03669	 	8.12744E-5	 	42494.619	38.0476	 
1145.0	1.0	0.0	7.22517	7.5294	-4.65453	16.84418	30.54605	1.51281	0.66102	93.00396	94.397	34.81227	0.33579	 	91427.38994	 	7.57064E-5	 	42304.63	37.9978	 
1140.0	1.0	0.0	7.22732	7.52716	-4.68296	16.82551	30.48841	1.51033	0.66211	93.62465	94.91832	35.04953	0.3356	 	97853.95916	 	7.0485E-5	 	42114.889	37.9482	 
1135.0	1.0	0.0	7.22947	7.52492	-4.71134	16.80685	30.43077	1.50783	0.6632	94.24708	95.4402	35.28751	0.33542	 	104783.2596	 	6.55909E-5	 	41925.394	37.899	 
1130.0	1.0	0.0	7.23163	7.52268	-4.73967	16.78819	30.37313	1.50533	0.66431	94.87121	95.96262	35.5262	0.33523	 	112258.4717	 	6.10059E-5	 	41736.142	37.8504	 
1125.0	1.0	0.0	7.23377	7.52045	-4.76795	16.76953	30.31549	1.50282	0.66542	95.497	96.48553	35.76557	0.33504	 	120326.8072	 	5.67124E-5	 	41547.133	37.8018	 
1120.0	1.0	0.0	7.23592	7.51822	-4.79618	16.75087	30.25785	1.5003	0.66653	96.12442	97.00889	36.00562	0.33485	 	129039.916	 	5.26939E-5	 	41358.363	37.754	 
1115.0	1.0	0.0	7.23806	7.51599	-4.82436	16.73221	30.2002	1.49777	0.66766	96.75343	97.53267	36.24634	0.33466	 	138454.3354	 	4.89347E-5	 	41169.831	37.7064	 
1110.0	1.0	0.0	7.2402	7.51377	-4.85249	16.71354	30.14255	1.49523	0.6688	97.384	98.05682	36.48771	0.33448	 	148631.9891	 	4.54196E-5	 	40981.534	37.6594	 
1105.0	1.0	0.0	7.24234	7.51155	-4.88057	16.69488	30.0849	1.49268	0.66994	98.01609	98.58131	36.72971	0.33429	 	159640.7404	 	4.21347E-5	 	40793.471	37.6126	 
1100.0	1.0	0.0	7.24447	7.50934	-4.9086	16.67622	30.02725	1.49012	0.67109	98.64967	99.10611	36.97234	0.3341	 	171555.0067	 	3.90662E-5	 	40605.639	37.5664	 
1095.0	1.0	0.0	7.2466	7.50713	-4.93658	16.65755	29.9696	1.48755	0.67225	99.28469	99.63117	37.21558	0.33391	 	184456.4414	 	3.62015E-5	 	40418.036	37.5206	 
1090.0	1.0	0.0	7.24873	7.50492	-4.96451	16.63889	29.91195	1.48497	0.67342	99.92112	100.15645	37.45942	0.33372	 	198434.6925	 	3.35284E-5	 	40230.66	37.4752	 
1085.0	1.0	0.0	7.25086	7.50272	-4.99239	16.62023	29.85429	1.48238	0.67459	100.55893	100.68193	37.70384	0.33354	 	213588.2461	 	3.10354E-5	 	40043.509	37.4302	 
1080.0	1.0	0.0	7.25299	7.50052	-5.02021	16.60156	29.79663	1.47978	0.67578	101.19807	101.20756	37.94883	0.33335	 	230025.3651	 	2.87116E-5	 	39856.579	37.386	 
1075.0	1.0	0.0	7.25511	7.49833	-5.04799	16.5829	29.73897	1.47717	0.67697	101.83852	101.73331	38.19438	0.33316	 	247865.1351	 	2.65466E-5	 	39669.869	37.342	 
1070.0	1.0	0.0	7.25723	7.49614	-5.07572	16.56423	29.68131	1.47455	0.67817	102.48023	102.25913	38.44048	0.33297	 	267238.6295	 	2.45308E-5	 	39483.375	37.2988	 
1065.0	1.0	0.0	7.25934	7.49396	-5.10339	16.54557	29.62364	1.47192	0.67939	103.12318	102.785	38.6871	0.33278	 	288290.2096	 	2.26549E-5	 	39297.096	37.2558	 
1060.0	1.0	0.0	7.26146	7.49177	-5.13102	16.5269	29.56598	1.46928	0.68061	103.76731	103.31088	38.93424	0.3326	 	311178.9753	 	2.09101E-5	 	39111.028	37.2136	 
1055.0	1.0	0.0	7.26357	7.4896	-5.15859	16.50824	29.50831	1.46663	0.68184	104.41261	103.83673	39.18189	0.33241	 	336080.3853	 	1.92882E-5	 	38925.17	37.1716	 
1050.0	1.0	0.0	7.26568	7.48742	-5.18612	16.48957	29.45064	1.46397	0.68307	105.05903	104.36252	39.43003	0.33222	 	363188.0679	 	1.77813E-5	 	38739.517	37.1306	 
1045.0	1.0	0.0	7.26778	7.48525	-5.21359	16.4709	29.39297	1.4613	0.68432	105.70654	104.88821	39.67865	0.33203	 	392715.8467	 	1.63822E-5	 	38554.069	37.0896	 
1040.0	1.0	0.0	7.26989	7.48309	-5.24102	16.45224	29.3353	1.45862	0.68558	106.35509	105.41376	39.92773	0.33185	 	424900.008	 	1.50839E-5	 	38368.82	37.0498	 
1035.0	1.0	0.0	7.27199	7.48093	-5.26839	16.43357	29.27762	1.45593	0.68685	107.00466	105.93914	40.17726	0.33166	 	460001.8401	 	1.38798E-5	 	38183.77	37.01	 
1030.0	1.0	0.0	7.27408	7.47877	-5.29571	16.4149	29.21995	1.45322	0.68812	107.65521	106.46432	40.42723	0.33147	 	498310.48	 	1.27638E-5	 	37998.914	36.9712	 
1025.0	1.0	0.0	7.27618	7.47661	-5.32298	16.39624	29.16227	1.45051	0.68941	108.3067	106.98926	40.67762	0.33128	 	540146.1072	 	1.17301E-5	 	37814.25	36.9328	 
1020.0	1.0	0.0	7.27827	7.47446	-5.35021	16.37757	29.10459	1.44779	0.69071	108.95909	107.51393	40.92843	0.33109	 	585863.5293	 	1.07731E-5	 	37629.775	36.895	 
1015.0	1.0	0.0	7.28036	7.47232	-5.37738	16.3589	29.04691	1.44505	0.69202	109.61236	108.03829	41.17963	0.33091	 	635856.2098	 	9.88768E-6	 	37445.485	36.858	 
1010.0	1.0	0.0	7.28245	7.47018	-5.4045	16.34023	28.98922	1.44231	0.69333	110.26646	108.5623	41.43122	0.33072	 	690560.798	 	9.06906E-6	 	37261.377	36.8216	 
1005.0	1.0	0.0	7.28453	7.46804	-5.43157	16.32157	28.93154	1.43955	0.69466	110.92137	109.08594	41.68318	0.33053	 	750462.2261	 	8.31265E-6	 	37077.447	36.786	 
1000.0	1.0	0.0	7.28662	7.46591	-5.45859	16.3029	28.87385	1.43679	0.696	111.57703	109.60917	41.9355	0.33034	 	816099.4498	 	7.61418E-6	 	36893.694	36.7506	 
995.0	1.0	0.0	7.2887	7.46378	-5.48556	16.28423	28.81616	1.43401	0.69735	112.23342	110.13195	42.18816	0.33015	 	888071.9183	 	6.96962E-6	 	36710.112	36.7164	 
990.0	1.0	0.0	7.29077	7.46165	-5.51248	16.26556	28.75847	1.43122	0.6987	112.8905	110.65426	42.44115	0.32997	 	967046.8731	 	6.3752E-6	 	36526.698	36.6828	 
985.0	1.0	0.0	7.29285	7.45953	-5.53935	16.24689	28.70078	1.42842	0.70007	113.54824	111.17605	42.69446	0.32978	 	1053767.588	 	5.82739E-6	 	36343.448	36.65	 
980.0	1.0	0.0	7.29492	7.45741	-5.56616	16.22822	28.64309	1.42561	0.70145	114.2066	111.6973	42.94808	0.32959	 	1149062.68	 	5.32287E-6	 	36160.36	36.6176	 
975.0	1.0	0.0	7.29699	7.4553	-5.59293	16.20955	28.58539	1.42279	0.70285	114.86555	112.21797	43.20199	0.3294	 	1253856.638	 	4.85854E-6	 	35977.428	36.5864	 
970.0	1.0	0.0	7.29905	7.45319	-5.61965	16.19088	28.52769	1.41996	0.70425	115.52504	112.73803	43.45618	0.32921	 	1369181.739	 	4.43148E-6	 	35794.649	36.5558	 
965.0	1.0	0.0	7.30111	7.45108	-5.64632	16.17221	28.47	1.41711	0.70566	116.18505	113.25745	43.71063	0.32903	 	1496191.55	 	4.03899E-6	 	35612.018	36.5262	 
960.0	1.0	0.0	7.30317	7.44898	-5.67293	16.15354	28.4123	1.41425	0.70709	116.84553	113.77619	43.96533	0.32884	 	1636176.235	 	3.67851E-6	 	35429.532	36.4972	 
955.0	1.0	0.0	7.30523	7.44688	-5.6995	16.13487	28.3546	1.41139	0.70852	117.50646	114.29423	44.22027	0.32865	 	1790579.922	 	3.34768E-6	 	35247.186	36.4692	 
950.0	1.0	0.0	7.30729	7.44479	-5.72601	16.1162	28.2969	1.40851	0.70997	118.16779	114.81152	44.47544	0.32846	 	1961020.436	 	3.04428E-6	 	35064.976	36.442	 
945.0	1.0	0.0	7.30934	7.4427	-5.75248	16.09753	28.2392	1.40561	0.71143	118.8295	115.32804	44.73082	0.32827	 	2149311.727	 	2.76623E-6	 	34882.897	36.4158	 
940.0	1.0	0.0	7.31139	7.44061	-5.77889	16.07886	28.18149	1.40271	0.71291	119.49153	115.84376	44.9864	0.32809	 	2357489.394	 	2.51161E-6	 	34700.944	36.3906	 
935.0	1.0	0.0	7.31343	7.43853	-5.80526	16.06018	28.12379	1.3998	0.71439	120.15387	116.35864	45.24216	0.3279	 	2587839.753	 	2.27861E-6	 	34519.112	36.3664	 
930.0	1.0	0.0	7.31548	7.43645	-5.83157	16.04151	28.06609	1.39687	0.71589	120.81648	116.87265	45.49809	0.32771	 	2842932.981	 	2.06557E-6	 	34337.397	36.343	 
925.0	1.0	0.0	7.31752	7.43438	-5.85783	16.02284	28.00838	1.39393	0.7174	121.47931	117.38577	45.75419	0.32752	 	3125660.931	 	1.87092E-6	 	34155.793	36.3208	 
920.0	1.0	0.0	7.31956	7.43231	-5.88404	16.00417	27.95068	1.39098	0.71892	122.14234	117.89795	46.01043	0.32733	 	3439280.328	 	1.69322E-6	 	33974.295	36.2996	 
915.0	1.0	0.0	7.32159	7.43024	-5.91021	15.98549	27.89298	1.38801	0.72045	122.80552	118.40917	46.2668	0.32715	 	3787462.16	 	1.53112E-6	 	33792.898	36.2794	 
910.0	1.0	0.0	7.32362	7.42818	-5.93632	15.96682	27.83527	1.38504	0.722	123.46883	118.9194	46.52329	0.32696	 	4174348.19	 	1.38337E-6	 	33611.595	36.2606	 
905.0	1.0	0.0	7.32565	7.42612	-5.96238	15.94815	27.77757	1.38205	0.72356	124.13223	119.42861	46.77988	0.32677	 	4604615.72	 	1.2488E-6	 	33430.381	36.2428	 
900.0	1.0	0.0	7.32768	7.42407	-5.98839	15.92947	27.71987	1.37905	0.72514	124.79567	119.93676	47.03657	0.32658	 	5083551.833	 	1.12635E-6	 	33249.251	36.226	 
895.0	1.0	0.0	7.3297	7.42202	-6.01435	15.9108	27.66217	1.37604	0.72672	125.45914	120.44383	47.29334	0.32639	 	5617138.638	 	1.01501E-6	 	33068.197	36.2108	 
890.0	1.0	0.0	7.33172	7.41997	-6.04026	15.89212	27.60448	1.37301	0.72833	126.12258	120.94979	47.55017	0.32621	 	6212151.218	 	9.13862E-7	 	32887.214	36.1966	 
885.0	1.0	0.0	7.33374	7.41793	-6.06612	15.87345	27.54678	1.36997	0.72994	126.78598	121.45459	47.80706	0.32602	 	6876270.303	 	8.22051E-7	 	32706.294	36.184	 
880.0	1.0	0.0	7.33576	7.41589	-6.09192	15.85478	27.48909	1.36692	0.73157	127.44928	121.95823	48.06398	0.32583	 	7618212.02	 	7.38787E-7	 	32525.431	36.1726	 
875.0	1.0	0.0	7.33777	7.41386	-6.11768	15.8361	27.4314	1.36386	0.73322	128.11246	122.46066	48.32093	0.32564	 	8447877.469	 	6.63342E-7	 	32344.619	36.1624	 
870.0	1.0	0.0	7.33978	7.41183	-6.14339	15.81742	27.37372	1.36078	0.73487	128.77547	122.96185	48.5779	0.32545	 	9376525.332	 	5.95043E-7	 	32163.848	36.1542	 
865.0	1.0	0.0	7.34179	7.4098	-6.16905	15.79875	27.31603	1.35769	0.73655	129.4383	123.46178	48.83486	0.32527	 	1.041697131E7	 	5.33267E-7	 	31983.113	36.147	 
860.0	1.0	0.0	7.34379	7.40778	-6.19465	15.78007	27.25836	1.35458	0.73823	130.10089	123.96042	49.09181	0.32508	 	1.158381875E7	 	4.77444E-7	 	31802.405	36.1416	 
855.0	1.0	0.0	7.34579	7.40576	-6.22021	15.7614	27.20069	1.35146	0.73994	130.76322	124.45773	49.34873	0.32489	 	1.289372579E7	 	4.27046E-7	 	31621.717	36.1376	 
850.0	1.0	0.0	7.34779	7.40375	-6.24571	15.74272	27.14302	1.34833	0.74166	131.42525	124.9537	49.60561	0.3247	 	1.43657149E7	 	3.8159E-7	 	31441.038	36.1358	 
845.0	1.0	0.0	7.34979	7.40174	-6.27117	15.72404	27.08537	1.34519	0.74339	132.08695	125.44828	49.86244	0.32451	 	1.602153226E7	 	3.4063E-7	 	31260.362	36.1352	 
840.0	1.0	0.0	7.35178	7.39973	-6.29657	15.70537	27.02772	1.34203	0.74514	132.74827	125.94145	50.1192	0.32433	 	1.788606531E7	 	3.03757E-7	 	31079.679	36.1366	 
835.0	1.0	0.0	7.35377	7.39773	-6.32193	15.68669	26.97007	1.33886	0.74691	133.40919	126.43319	50.37589	0.32414	 	1.998782844E7	 	2.70595E-7	 	30898.979	36.14	 
830.0	1.0	0.0	7.35576	7.39573	-6.34723	15.66801	26.91244	1.33567	0.74869	134.06967	126.92346	50.63247	0.32395	 	2.235952882E7	 	2.40801E-7	 	30718.252	36.1454	 
825.0	1.0	0.0	7.35774	7.39374	-6.37248	15.64933	26.85482	1.33247	0.75049	134.72968	127.41223	50.88896	0.32376	 	2.503872612E7	 	2.1406E-7	 	30537.489	36.1526	 
820.0	1.0	0.0	7.35972	7.39175	-6.39769	15.63066	26.7972	1.32925	0.7523	135.38918	127.89948	51.14532	0.32357	 	2.806860297E7	 	1.90084E-7	 	30356.679	36.162	 
815.0	1.0	0.0	7.3617	7.38976	-6.42284	15.61198	26.7396	1.32602	0.75413	136.04813	128.38518	51.40155	0.32339	 	3.149886552E7	 	1.68609E-7	 	30175.811	36.1736	 
810.0	1.0	0.0	7.36368	7.38778	-6.44794	15.5933	26.68201	1.32278	0.75598	136.7065	128.86931	51.65763	0.3232	 	3.538679784E7	 	1.49394E-7	 	29994.873	36.1876	 
805.0	1.0	0.0	7.36565	7.3858	-6.47299	15.57462	26.62443	1.31952	0.75785	137.36426	129.35182	51.91356	0.32301	 	3.979849756E7	 	1.32221E-7	 	29813.854	36.2038	 
800.0	1.0	0.0	7.36762	7.38382	-6.49799	15.55594	26.56686	1.31625	0.75973	138.02137	129.8327	52.16931	0.32282	 	4.481032624E7	 	1.16888E-7	 	29632.74	36.2228	 
795.0	1.0	0.0	7.36958	7.38185	-6.52294	15.53726	26.50931	1.31296	0.76164	138.6778	130.31193	52.42488	0.32263	 	5.051061373E7	 	1.03213E-7	 	29451.519	36.2442	 
790.0	1.0	0.0	7.37155	7.37989	-6.54784	15.51858	26.45177	1.30966	0.76356	139.33351	130.78946	52.68025	0.32245	 	5.700166385E7	 	9.10319E-8	 	29270.177	36.2684	 
785.0	1.0	0.0	7.37351	7.37793	-6.57269	15.4999	26.39425	1.30634	0.7655	139.98847	131.26528	52.9354	0.32226	 	6.440211787E7	 	8.01925E-8	 	29088.701	36.2952	 
780.0	1.0	0.0	7.37547	7.37597	-6.59749	15.48122	26.33675	1.303	0.76746	140.64265	131.73935	53.19034	0.32207	 	7.284974346E7	 	7.05584E-8	 	28907.073	36.3256	 
775.0	1.0	0.0	7.37742	7.37401	-6.62224	15.46254	26.27926	1.29966	0.76943	141.296	132.21166	53.44503	0.32188	 	8.25047302E7	 	6.20057E-8	 	28725.28	36.3586	 
770.0	1.0	0.0	7.37937	7.37206	-6.64693	15.44386	26.22178	1.29629	0.77143	141.94849	132.68217	53.69947	0.32169	 	9.355358951E7	 	5.44218E-8	 	28543.305	36.395	 
765.0	1.0	0.0	7.38132	7.37012	-6.67158	15.42518	26.16432	1.29291	0.77345	142.6001	133.15086	53.95365	0.32151	 	1.062137762E8	 	4.77052E-8	 	28361.13	36.435	 
760.0	1.0	0.0	7.38327	7.36817	-6.69618	15.4065	26.10688	1.28951	0.77549	143.25078	133.6177	54.20755	0.32132	 	1.207391733E8	 	4.1764E-8	 	28178.737	36.4786	 
755.0	1.0	0.0	7.38521	7.36624	-6.72072	15.38782	26.04946	1.2861	0.77754	143.90051	134.08267	54.46116	0.32113	 	1.374266112E8	 	3.65151E-8	 	27996.107	36.526	 
750.0	1.0	0.0	7.38715	7.3643	-6.74522	15.36914	25.99206	1.28267	0.77962	144.54924	134.54573	54.71447	0.32094	 	1.566236277E8	 	3.18837E-8	 	27813.22	36.5774	 
745.0	1.0	0.0	7.38909	7.36237	-6.76966	15.35045	25.93467	1.27923	0.78172	145.19694	135.00687	54.96746	0.32075	 	1.787377193E8	 	2.78024E-8	 	27630.054	36.6332	 
740.0	1.0	0.0	7.39102	7.36044	-6.79406	15.33177	25.8773	1.27577	0.78384	145.84358	135.46606	55.22012	0.32057	 	2.042473877E8	 	2.42105E-8	 	27446.586	36.6936	 
735.0	1.0	0.0	7.39295	7.35852	-6.8184	15.31309	25.81995	1.27229	0.78598	146.48913	135.92327	55.47243	0.32038	 	2.337153497E8	 	2.10535E-8	 	27262.794	36.7584	 
730.0	1.0	0.0	7.39488	7.3566	-6.84269	15.29441	25.76261	1.2688	0.78815	147.13355	136.37848	55.7244	0.32019	 	2.678043612E8	 	1.82825E-8	 	27078.651	36.8286	 
725.0	1.0	0.0	7.3968	7.35469	-6.86693	15.27572	25.70529	1.26529	0.79033	147.7768	136.83166	55.97599	0.32	 	3.072962014E8	 	1.58535E-8	 	26894.13	36.9042	 
720.0	1.0	0.0	7.39873	7.35278	-6.89113	15.25704	25.64798	1.26177	0.79254	148.41886	137.28279	56.2272	0.31981	 	3.531144871E8	 	1.37273E-8	 	26709.204	36.9852	 
715.0	1.0	0.0	7.40064	7.35087	-6.91527	15.23836	25.59069	1.25823	0.79477	149.05968	137.73184	56.47802	0.31963	 	4.06352135E8	 	1.18688E-8	 	26523.841	37.0726	 
710.0	1.0	0.0	7.40256	7.34897	-6.93936	15.21967	25.53341	1.25467	0.79702	149.69924	138.17879	56.72842	0.31944	 	4.683044756E8	 	1.02466E-8	 	26338.009	37.1664	 
705.0	1.0	0.0	7.40447	7.34707	-6.9634	15.20099	25.47614	1.25109	0.7993	150.33751	138.6236	56.97841	0.31925	 	5.405092499E8	 	8.83261E-9	 	26151.674	37.267	 
700.0	1.0	0.0	7.40638	7.34518	-6.98739	15.1823	25.41889	1.2475	0.8016	150.97444	139.06627	57.22796	0.31906	 	6.247950041E8	 	7.60202E-9	 	25964.798	37.3752	 
695.0	1.0	0.0	7.40829	7.34329	-7.01133	15.16362	25.36164	1.24389	0.80393	151.61	139.50676	57.47707	0.31887	 	7.233397506E8	 	6.53261E-9	 	25777.342	37.4912	 
690.0	1.0	0.0	7.41019	7.3414	-7.03522	15.14493	25.3044	1.24027	0.80628	152.24416	139.94506	57.72572	0.31869	 	8.387421995E8	 	5.6047E-9	 	25589.262	37.616	 
685.0	1.0	0.0	7.41209	7.33952	-7.05906	15.12625	25.24716	1.23663	0.80865	152.87689	140.38112	57.97389	0.3185	 	9.741084143E8	 	4.80079E-9	 	25400.514	37.7496	 
680.0	1.0	0.0	7.41399	7.33764	-7.08284	15.10756	25.18993	1.23297	0.81105	153.50815	140.81494	58.22158	0.31831	 	1.133157428E9	 	4.10542E-9	 	25211.047	37.8934	 
675.0	1.0	0.0	7.41589	7.33576	-7.10658	15.08888	25.1327	1.22929	0.81348	154.13792	141.24649	58.46877	0.31812	 	1.320350208E9	 	3.50489E-9	 	25020.809	38.0476	 
670.0	1.0	0.0	7.41778	7.33389	-7.13027	15.07019	25.07547	1.2256	0.81593	154.76615	141.67574	58.71545	0.31793	 	1.541047442E9	 	2.98711E-9	 	24829.74	38.2138	 
665.0	1.0	0.0	7.41967	7.33203	-7.1539	15.05151	25.01823	1.22189	0.8184	155.39281	142.10268	58.9616	0.31775	 	1.801702949E9	 	2.54142E-9	 	24637.778	38.3924	 
660.0	1.0	0.0	7.42155	7.33016	-7.17749	15.03282	24.96099	1.21817	0.8209	156.01787	142.52727	59.20722	0.31756	 	2.110101246E9	 	2.15841E-9	 	24444.856	38.5844	 
655.0	1.0	0.0	7.42343	7.32831	-7.20102	15.01413	24.90374	1.21443	0.82343	156.6413	142.9495	59.45228	0.31737	 	2.475649921E9	 	1.82985E-9	 	24250.898	38.7916	 
650.0	1.0	0.0	7.42531	7.32645	-7.22451	14.99545	24.84648	1.21067	0.82599	157.26306	143.36934	59.69679	0.31718	 	2.909740208E9	 	1.54848E-9	 	24055.823	39.015	 
645.0	1.0	0.0	7.42719	7.3246	-7.24794	14.97676	24.78921	1.20689	0.82857	157.88312	143.78677	59.94072	0.31699	 	3.426192584E9	 	1.30794E-9	 	23859.543	39.256	 
640.0	1.0	0.0	7.42906	7.32275	-7.27133	14.95807	24.73192	1.2031	0.83119	158.50145	144.20177	60.18406	0.31681	 	4.041808618E9	 	1.10269E-9	 	23661.96	39.5166	 
635.0	1.0	0.0	7.43093	7.32091	-7.29466	14.93938	24.67461	1.19929	0.83382	159.11802	144.61431	60.4268	0.31662	 	4.777055859E9	 	9.27863E-10	 	23462.967	39.7986	 
630.0	1.0	0.0	7.4328	7.31907	-7.31794	14.9207	24.61727	1.19547	0.83649	159.73278	145.02438	60.66893	0.31643	 	5.656919706E9	 	7.79232E-10	 	23262.446	40.1042	 
625.0	1.0	0.0	7.43466	7.31724	-7.34117	14.90201	24.55992	1.19163	0.83919	160.34572	145.43194	60.91043	0.31624	 	6.71196532E9	 	6.53109E-10	 	23060.266	40.436	 
620.0	1.0	0.0	7.43652	7.31541	-7.36436	14.88332	24.50253	1.18777	0.84192	160.95679	145.83699	61.15129	0.31605	 	7.979664368E9	 	5.46294E-10	 	22856.283	40.7966	 
615.0	1.0	0.0	7.43838	7.31358	-7.38749	14.86463	24.44512	1.18389	0.84467	161.56597	146.23949	61.3915	0.31587	 	9.506056441E9	 	4.56008E-10	 	22650.336	41.1894	 
610.0	1.0	0.0	7.44023	7.31176	-7.41057	14.84594	24.38768	1.18	0.84746	162.17322	146.63943	61.63104	0.31568	 	1.13478E10	 	3.79847E-10	 	22442.248	41.6176	 
605.0	1.0	0.0	7.44208	7.30994	-7.4336	14.82725	24.3302	1.17609	0.85027	162.77851	147.03678	61.86991	0.31549	 	1.3574999999999998E10	 	3.15731E-10	 	22231.819	42.0858	 
600.0	1.0	0.0	7.44393	7.30813	-7.45657	14.80856	24.27269	1.17216	0.85312	163.3818	147.43152	62.10809	0.3153	 	1.6273999999999998E10	 	2.61867E-10	 	22018.827	42.5984	 
595.0	1.0	0.0	7.44578	7.30631	-7.4795	14.78987	24.21514	1.16822	0.856	163.98307	147.82364	62.34557	0.31511	 	1.95523E10	 	2.16712E-10	 	21803.023	43.1608	 
590.0	1.0	0.0	7.44762	7.30451	-7.50238	14.77118	24.15754	1.16426	0.85891	164.58228	148.21311	62.58233	0.31493	 	2.3543199999999996E10	 	1.7894E-10	 	21584.126	43.7794	 
585.0	1.0	0.0	7.44946	7.30271	-7.52521	14.75249	24.09991	1.16029	0.86186	165.17941	148.5999	62.81837	0.31474	 	2.8412999999999996E10	 	1.47412E-10	 	21353.071	46.211	 
580.0	1.0	0.0	7.45129	7.30091	-7.54799	14.7338	24.04224	1.15629	0.86483	165.77441	148.98401	63.05367	0.31455	 	3.43692E10	 	1.21155E-10	 	21103.367	49.9408	 
575.0	1.0	0.0	7.45312	7.29911	-7.57071	14.71511	23.98452	1.15228	0.86784	166.36726	149.36541	63.28821	0.31436	 	4.16719E10	 	9.93382E-11	 	20857.084	49.2566	 
570.0	1.0	0.0	7.45495	7.29732	-7.59339	14.69642	23.92675	1.14826	0.87089	166.95793	149.74407	63.52199	0.31417	 	5.064739999999999E10	 	8.12521E-11	 	20614.081	48.6006	 
565.0	1.0	0.0	7.45678	7.29553	-7.61601	14.67773	23.86895	1.14421	0.87396	167.54637	150.11999	63.755	0.31399	 	6.170649999999999E10	 	6.62945E-11	 	20374.225	47.9712	 
560.0	1.0	0.0	7.4586	7.29375	-7.63859	14.65903	23.81109	1.14015	0.87708	168.13258	150.49313	63.98722	0.3138	 	7.53677E10	 	5.39541E-11	 	20137.39	47.367	 
555.0	1.0	0.0	7.46042	7.29197	-7.66111	14.64034	23.75319	1.13607	0.88023	168.7165	150.86348	64.21863	0.31361	 	9.22874E10	 	4.37979E-11	 	19903.459	46.7862	 
550.0	1.0	0.0	7.46224	7.2902	-7.68358	14.62165	23.69525	1.13197	0.88341	169.29811	151.23103	64.44924	0.31342	 	1.13298E11	 	3.54603E-11	 	19672.319	46.228	 
545.0	1.0	0.0	7.46405	7.28843	-7.70601	14.60296	23.63726	1.12786	0.88664	169.87739	151.59574	64.67901	0.31323	 	1.3946E11	 	2.86332E-11	 	19443.863	45.6912	 
540.0	1.0	0.0	7.46586	7.28666	-7.72838	14.58426	23.57922	1.12372	0.8899	170.45429	151.95761	64.90795	0.31305	 	1.72125E11	 	2.30575E-11	 	19217.993	45.174	 
535.0	1.0	0.0	7.46767	7.2849	-7.7507	14.56557	23.52114	1.11957	0.8932	171.02879	152.31661	65.13604	0.31286	 	2.13026E11	 	1.8516E-11	 	18994.613	44.676	 
530.0	1.0	0.0	7.46947	7.28314	-7.77297	14.54688	23.46302	1.1154	0.89654	171.60085	152.67273	65.36327	0.31267	 	2.64384E11	 	1.48268E-11	 	18773.633	44.196	 
525.0	1.0	0.0	7.47127	7.28138	-7.79519	14.52818	23.40486	1.11121	0.89992	172.17045	153.02594	65.58963	0.31248	 	3.29064E11	 	1.18383E-11	 	18554.97	43.7326	 
520.0	1.0	0.0	7.47307	7.27963	-7.81736	14.50949	23.34666	1.107	0.90334	172.73756	153.37623	65.8151	0.31229	 	4.10764E11	 	9.4243E-12	 	18338.543	43.2854	 
515.0	1.0	0.0	7.47486	7.27789	-7.83948	14.4908	23.28842	1.10277	0.9068	173.30214	153.72358	66.03967	0.31211	 	5.14277E11	 	7.47994E-12	 	18124.276	42.8534	 
510.0	1.0	0.0	7.47665	7.27614	-7.86155	14.4721	23.23014	1.09853	0.91031	173.86417	154.06797	66.26334	0.31192	 	6.45835E11	 	5.91848E-12	 	17912.098	42.4356	 
505.0	1.0	0.0	7.47844	7.27441	-7.88357	14.45341	23.17183	1.09426	0.91386	174.42362	154.40939	66.48608	0.31173	 	8.13567E11	 	4.66828E-12	 	17701.94	42.0316	 
500.0	1.0	0.0	7.48022	7.27267	-7.90554	14.43471	23.11349	1.08997	0.91745	174.98045	154.74782	66.70789	0.31154	 	1.02811E12	 	3.67037E-12	 	17493.738	41.6404	 
495.0	1.0	0.0	7.482	7.27094	-7.92745	14.41602	23.05512	1.08567	0.92109	175.53464	155.08323	66.92876	0.31135	 	1.30344E12	 	2.87634E-12	 	17287.43	41.2616	 
490.0	1.0	0.0	7.48378	7.26921	-7.94932	14.39732	22.99673	1.08134	0.92478	176.08615	155.41562	67.14867	0.31117	 	1.65798E12	 	2.24656E-12	 	17082.959	40.8942	 
485.0	1.0	0.0	7.48555	7.26749	-7.97114	14.37862	22.9383	1.07699	0.92851	176.63496	155.74496	67.36761	0.31098	 	2.11608E12	 	1.74868E-12	 	16880.27	40.5378	 
480.0	1.0	0.0	7.48732	7.26577	-7.9929	14.35993	22.87986	1.07262	0.9323	177.18104	156.07125	67.58557	0.31079	 	2.71008E12	 	1.35639E-12	 	16679.309	40.1922	 
475.0	1.0	0.0	7.48909	7.26406	-8.01462	14.34123	22.8214	1.06823	0.93613	177.72437	156.39446	67.80255	0.3106	 	3.48308E12	 	1.04836E-12	 	16480.029	39.856	 
470.0	1.0	0.0	7.49086	7.26235	-8.03628	14.32254	22.76292	1.06382	0.94001	178.2649	156.71457	68.01852	0.31041	 	4.4927E12	 	8.07339E-13	 	16282.38	39.5298	 
465.0	1.0	0.0	7.49262	7.26064	-8.0579	14.30384	22.70442	1.05938	0.94395	178.80262	157.03158	68.23348	0.31023	 	5.81634E12	 	6.19414E-13	 	16086.319	39.2122	 
460.0	1.0	0.0	7.49437	7.25894	-8.07946	14.28514	22.64592	1.05492	0.94794	179.33749	157.34546	68.44741	0.31004	 	7.55834E12	 	4.73427E-13	 	15891.802	38.9034	 
455.0	1.0	0.0	7.49613	7.25724	-8.10097	14.26644	22.5874	1.05044	0.95198	179.86949	157.65621	68.66031	0.30985	 	9.85993E12	 	3.60441E-13	 	15698.789	38.6026	 
450.0	1.0	0.0	7.49788	7.25554	-8.12243	14.24775	22.52888	1.04594	0.95608	180.39858	157.9638	68.87216	0.30966	 	1.2913E13	 	2.73329E-13	 	15507.241	38.3096	 
445.0	1.0	0.0	7.49963	7.25385	-8.14384	14.22905	22.47036	1.04141	0.96023	180.92475	158.26823	69.08296	0.30947	 	1.69797E13	 	2.06429E-13	 	15317.12	38.0242	 
440.0	1.0	0.0	7.50137	7.25217	-8.16521	14.21035	22.41183	1.03686	0.96445	181.44797	158.56947	69.29269	0.30929	 	2.24192E13	 	1.55256E-13	 	15128.393	37.7454	 
435.0	1.0	0.0	7.50311	7.25048	-8.18652	14.19165	22.3533	1.03229	0.96872	181.9682	158.86751	69.50134	0.3091	 	2.9726E13	 	1.16272E-13	 	14941.024	37.4738	 
430.0	1.0	0.0	7.50485	7.2488	-8.20778	14.17295	22.29478	1.02769	0.97306	182.48542	159.16234	69.70889	0.30891	 	3.95843E13	 	8.66985E-14	 	14754.982	37.2084	 
425.0	1.0	0.0	7.50659	7.24713	-8.22898	14.15425	22.23626	1.02307	0.97745	182.99961	159.45395	69.91535	0.30872	 	5.29448E13	 	6.43594E-14	 	14570.237	36.949	 
420.0	1.0	0.0	7.50832	7.24546	-8.25014	14.13556	22.17774	1.01842	0.98191	183.51074	159.74233	70.1207	0.30853	 	7.11349E13	 	4.75589E-14	 	14386.757	36.696	 
415.0	1.0	0.0	7.51004	7.24379	-8.27125	14.11686	22.11924	1.01375	0.98644	184.01877	160.02745	70.32493	0.30835	 	9.60166E13	 	3.49803E-14	 	14204.517	36.448	 
410.0	1.0	0.0	7.51177	7.24213	-8.29231	14.09816	22.06074	1.00905	0.99103	184.5237	160.3093	70.52803	0.30816	 	1.3021499999999998E14	 	2.5606E-14	 	14023.488	36.2058	 
405.0	1.0	0.0	7.51349	7.24047	-8.31331	14.07946	22.00225	1.00433	0.99569	185.02549	160.58789	70.72998	0.30797	 	1.77451E14	 	1.86524E-14	 	13843.644	35.9688	 
400.0	1.0	0.0	7.51521	7.23881	-8.33427	14.06076	21.94377	0.99958	1.00042	185.52411	160.86318	70.93079	0.30778	 	2.43023E14	 	1.35192E-14	 	13664.962	35.7364	 
395.0	1.0	0.0	7.51692	7.23716	-8.35518	14.04205	21.88531	0.99481	1.00522	186.01955	161.13517	71.13043	0.30759	 	3.34517E14	 	9.7486E-15	 	13487.417	35.509	 
390.0	1.0	0.0	7.51863	7.23552	-8.37603	14.02335	21.82686	0.99001	1.01009	186.51177	161.40386	71.3289	0.30741	 	4.62857E14	 	6.99281E-15	 	13310.986	35.2862	 
385.0	1.0	0.0	7.52034	7.23387	-8.39683	14.00465	21.76842	0.98518	1.01504	187.00076	161.66922	71.52619	0.30722	 	6.43854E14	 	4.98913E-15	 	13135.648	35.0676	 
380.0	1.0	0.0	7.52204	7.23223	-8.41759	13.98595	21.71	0.98033	1.02007	187.48649	161.93125	71.72229	0.30703	 	9.00526E14	 	3.54E-15	 	12961.381	34.8534	 
375.0	1.0	0.0	7.52375	7.2306	-8.43829	13.96725	21.65159	0.97545	1.02517	187.96894	162.18994	71.91719	0.30684	 	1.26658E15	 	2.49764E-15	 	12788.165	34.6432	 
370.0	1.0	0.0	7.52544	7.22897	-8.45894	13.94855	21.5932	0.97054	1.03036	188.44808	162.44528	72.11089	0.30665	 	1.79166E15	 	1.75204E-15	 	12615.981	34.4368	 
365.0	1.0	0.0	7.52714	7.22734	-8.47955	13.92985	21.53482	0.9656	1.03562	188.92389	162.69726	72.30336	0.30647	 	2.54934E15	 	1.22175E-15	 	12444.811	34.234	 
360.0	1.0	0.0	7.52883	7.22572	-8.5001	13.91114	21.47646	0.96064	1.04097	189.39636	162.94587	72.49461	0.30628	 	3.64934E15	 	8.46796E-16	 	12274.635	34.0352	 
355.0	1.0	0.0	7.53051	7.2241	-8.5206	13.89244	21.41811	0.95565	1.04641	189.86546	163.19109	72.68463	0.30609	 	5.2563E15	 	5.83271E-16	 	12105.436	33.8398	 
350.0	1.0	0.0	7.5322	7.22248	-8.54105	13.87374	21.35978	0.95063	1.05193	190.33116	163.43293	72.8734	0.3059	 	7.6189E15	 	3.99197E-16	 	11937.198	33.6476	 
345.0	1.0	0.0	7.53388	7.22087	-8.56145	13.85503	21.30146	0.94559	1.05754	190.79346	163.67138	73.06092	0.30571	 	1.11153E16	 	2.71431E-16	 	11769.905	33.4586	 
340.0	1.0	0.0	7.53556	7.21927	-8.5818	13.83633	21.24316	0.94051	1.06325	191.25232	163.90643	73.24717	0.30553	 	1.63245E16	 	1.83322E-16	 	11603.54	33.273	 
335.0	1.0	0.0	7.53723	7.21766	-8.60209	13.81763	21.18487	0.93541	1.06905	191.70773	164.13806	73.43217	0.30534	 	2.41391E16	 	1.22963E-16	 	11438.089	33.0902	 
330.0	1.0	0.0	7.5389	7.21607	-8.62234	13.79892	21.1266	0.93028	1.07495	192.15967	164.36629	73.61588	0.30515	 	3.5945400000000004E16	 	8.18972E-17	 	11273.537	32.9104	 
325.0	1.0	0.0	7.54057	7.21447	-8.64254	13.78022	21.06833	0.92512	1.08094	192.60813	164.59109	73.79831	0.30496	 	5.39117E16	 	5.41519E-17	 	11109.87	32.7334	 
320.0	1.0	0.0	7.54223	7.21288	-8.66268	13.76151	21.01008	0.91993	1.08704	193.05308	164.81247	73.97945	0.30478	 	8.14562E16	 	3.55408E-17	 	10947.073	32.5594	 
315.0	1.0	0.0	7.54389	7.21129	-8.68278	13.74281	20.95185	0.91471	1.09324	193.49451	165.03042	74.1593	0.30459	 	1.24008E17	 	2.31486E-17	 	10785.135	32.3876	 
310.0	1.0	0.0	7.54555	7.20971	-8.70283	13.7241	20.89362	0.90946	1.09955	193.93241	165.24494	74.33784	0.3044	 	1.90259E17	 	1.49597E-17	 	10624.041	32.2188	 
305.0	1.0	0.0	7.5472	7.20813	-8.72282	13.7054	20.8354	0.90418	1.10597	194.36675	165.45602	74.51507	0.30421	 	2.9424E17	 	9.59016E-18	 	10463.78	32.0522	 
300.0	1.0	0.0	7.54885	7.20656	-8.74276	13.68669	20.77719	0.89887	1.1125	194.79752	165.66366	74.69098	0.30402	 	4.58785E17	 	6.09741E-18	 	10304.34	31.888	 
295.0	1.0	0.0	7.55049	7.20498	-8.76266	13.66799	20.71899	0.89354	1.11915	195.22471	165.86786	74.86557	0.30384	 	7.21381E17	 	3.84401E-18	 	10145.708	31.7264	 
290.0	1.0	0.0	7.55214	7.20342	-8.7825	13.64928	20.6608	0.88817	1.12591	195.64831	166.06862	75.03883	0.30365	 	1.14411E18	 	2.4024E-18	 	9987.874	31.5668	 
285.0	1.0	0.0	7.55378	7.20185	-8.80229	13.63057	20.60261	0.88277	1.1328	196.0683	166.26594	75.21076	0.30346	 	1.83068E18	 	1.48807E-18	 	9830.827	31.4094	 
280.0	1.0	0.0	7.55541	7.2003	-8.82203	13.61187	20.54444	0.87734	1.13981	196.48467	166.45981	75.38135	0.30327	 	2.95605E18	 	9.13308E-19	 	9674.555	31.2544	 
275.0	1.0	0.0	7.55704	7.19874	-8.84172	13.59316	20.48626	0.87188	1.14695	196.89742	166.65024	75.55059	0.30308	 	4.81804E18	 	5.55284E-19	 	9519.049	31.1012	 
270.0	1.0	0.0	7.55867	7.19719	-8.86136	13.57445	20.42809	0.86638	1.15422	197.30652	166.83724	75.71849	0.3029	 	7.92866E18	 	3.34354E-19	 	9364.299	30.95	 
265.0	1.0	0.0	7.5603	7.19564	-8.88095	13.55575	20.36993	0.86086	1.16163	197.71198	167.02079	75.88504	0.30271	 	1.3177E19	 	1.99331E-19	 	9210.294	30.801	 
260.0	1.0	0.0	7.56192	7.1941	-8.90049	13.53704	20.31177	0.8553	1.16918	198.11378	167.20091	76.05023	0.30252	 	2.21226E19	 	1.17625E-19	 	9057.026	30.6536	 
255.0	1.0	0.0	7.56354	7.19256	-8.91998	13.51833	20.25361	0.84971	1.17687	198.51192	167.37761	76.21407	0.30233	 	3.75306E19	 	6.86844E-20	 	8904.485	30.5082	 
250.0	1.0	0.0	7.56515	7.19103	-8.93942	13.49962	20.19545	0.84409	1.1847	198.9064	167.55088	76.37654	0.30214	 	6.43565E19	 	3.96753E-20	 	8752.663	30.3644	 
245.0	1.0	0.0	7.56676	7.18949	-8.9588	13.48091	20.13729	0.83844	1.19269	199.2972	167.72073	76.53765	0.30196	 	1.1157999999999998E20	 	2.26649E-20	 	8601.55	30.2226	 
240.0	1.0	0.0	7.56837	7.18797	-8.97814	13.46221	20.07914	0.83275	1.20083	199.68434	167.88717	76.6974	0.30177	 	1.95663E20	 	1.28004E-20	 	8451.14	30.082	 
235.0	1.0	0.0	7.56997	7.18644	-8.99743	13.4435	20.02098	0.82704	1.20914	200.06779	168.05021	76.85578	0.30158	 	3.47134E20	 	7.14466E-21	 	8301.423	29.9434	 
230.0	1.0	0.0	7.57157	7.18493	-9.01666	13.42479	19.96283	0.82128	1.21761	200.44758	168.20985	77.0128	0.30139	 	6.23304E20	 	3.93989E-21	 	8152.391	29.8064	 
225.0	1.0	0.0	7.57317	7.18341	-9.03585	13.40608	19.90467	0.8155	1.22624	200.82369	168.36612	77.16845	0.3012	 	1.1331E21	 	2.14574E-21	 	8004.039	29.6704	 
220.0	1.0	0.0	7.57476	7.1819	-9.05498	13.38737	19.84651	0.80968	1.23506	201.19613	168.51902	77.32273	0.30102	 	2.08625E21	 	1.15372E-21	 	7856.357	29.5364	 
215.0	1.0	0.0	7.57635	7.18039	-9.07406	13.36866	19.78835	0.80382	1.24405	201.5649	168.66856	77.47565	0.30083	 	3.8918000000000003E21	 	6.12194E-22	 	7709.339	29.4036	 
210.0	1.0	0.0	7.57794	7.17889	-9.0931	13.34995	19.73019	0.79794	1.25323	201.93002	168.81476	77.62721	0.30064	 	7.358630000000001E21	 	3.20459E-22	 	7562.978	29.2722	 
205.0	1.0	0.0	7.57952	7.17739	-9.11208	13.33124	19.67202	0.79201	1.2626	202.29148	168.95763	77.7774	0.30045	 	1.41085E22	 	1.65413E-22	 	7417.269	29.1418	 
200.0	1.0	0.0	7.5811	7.1759	-9.13101	13.31253	19.61385	0.78606	1.27217	202.6493	169.0972	77.92624	0.30026	 	2.74403E22	 	8.41584E-23	 	7272.204	29.013	 
195.0	1.0	0.0	7.58268	7.1744	-9.14989	13.29381	19.55568	0.78006	1.28195	203.00349	169.23347	78.07373	0.30008	 	5.4163999999999995E22	 	4.21853E-23	 	7127.777	28.8854	 
190.0	1.0	0.0	7.58425	7.17292	-9.16872	13.2751	19.4975	0.77403	1.29193	203.35407	169.36649	78.21987	0.29989	 	1.08555E23	 	2.08238E-23	 	6983.983	28.7588	 
185.0	1.0	0.0	7.58582	7.17143	-9.1875	13.25639	19.43931	0.76797	1.30213	203.70105	169.49625	78.36467	0.2997	 	2.2101E23	 	1.01177E-23	 	6840.816	28.6334	 
180.0	1.0	0.0	7.58738	7.16996	-9.20623	13.23768	19.38113	0.76187	1.31256	204.04444	169.6228	78.50813	0.29951	 	4.5731699999999996E23	 	4.83628E-24	 	6698.272	28.5088	 
175.0	1.0	0.0	7.58894	7.16848	-9.22491	13.21897	19.32293	0.75573	1.32322	204.38428	169.74615	78.65026	0.29932	 	9.622599999999999E23	 	2.2731E-24	 	6556.344	28.3856	 
170.0	1.0	0.0	7.5905	7.16701	-9.24353	13.20025	19.26473	0.74956	1.33412	204.72058	169.86634	78.79107	0.29914	 	2.06003E24	 	1.04994E-24	 	6415.029	28.263	 
165.0	1.0	0.0	7.59205	7.16554	-9.26211	13.18154	19.20653	0.74335	1.34527	205.05338	169.9834	78.93058	0.29895	 	4.48964E24	 	4.76319E-25	 	6274.321	28.1416	 
160.0	1.0	0.0	7.5936	7.16408	-9.28064	13.16283	19.14832	0.7371	1.35667	205.38269	170.09735	79.06878	0.29876	 	9.96698E24	 	2.1211E-25	 	6134.217	28.0208	 
155.0	1.0	0.0	7.59515	7.16262	-9.29911	13.14411	19.0901	0.73081	1.36834	205.70855	170.20824	79.2057	0.29857	 	2.2552900000000003E25	 	9.26576E-26	 	5994.713	27.9008	 
150.0	1.0	0.0	7.59669	7.16117	-9.31754	13.1254	19.03187	0.72449	1.38029	206.031	170.3161	79.34134	0.29838	 	5.20487E25	 	3.96799E-26	 	5855.804	27.7818	 
145.0	1.0	0.0	7.59823	7.15971	-9.33591	13.10669	18.97364	0.71812	1.39252	206.35008	170.42098	79.47572	0.2982	 	1.22599E26	 	1.66468E-26	 	5717.489	27.663	 
140.0	1.0	0.0	7.59977	7.15827	-9.35423	13.08797	18.91539	0.71172	1.40504	206.66583	170.52291	79.60886	0.29801	 	2.9494800000000002E26	 	6.83675E-27	 	5579.763	27.5452	 
135.0	1.0	0.0	7.6013	7.15682	-9.37251	13.06926	18.85714	0.70528	1.41788	206.97829	170.62194	79.74077	0.29782	 	7.2529E26	 	2.7466E-27	 	5442.624	27.4278	 
130.0	1.0	0.0	7.60283	7.15539	-9.39073	13.05054	18.79889	0.6988	1.43103	207.28753	170.71813	79.87147	0.29763	 	1.8244399999999998E27	 	1.07851E-27	 	5306.069	27.311	 
125.0	1.0	0.0	7.60436	7.15395	-9.4089	13.03183	18.74062	0.69228	1.44451	207.59358	170.81153	80.00099	0.29744	 	4.69855E27	 	4.13589E-28	 	5170.097	27.1944	 
120.0	1.0	0.0	7.60588	7.15252	-9.42702	13.01311	18.68234	0.68572	1.45833	207.89652	170.90219	80.12934	0.29726	 	1.23992E28	 	1.54758E-28	 	5034.706	27.0782	 
115.0	1.0	0.0	7.6074	7.15109	-9.44509	12.9944	18.62406	0.67911	1.47251	208.19641	170.99018	80.25656	0.29707	 	3.35594E28	 	5.6451E-29	 	4899.894	26.9624	 
110.0	1.0	0.0	7.60891	7.14967	-9.46311	12.97568	18.56576	0.67247	1.48705	208.49331	171.07555	80.38266	0.29688	 	9.32507E28	 	2.00541E-29	 	4765.66	26.8468	 
105.0	1.0	0.0	7.61042	7.14825	-9.48108	12.95697	18.50746	0.66579	1.50198	208.78731	171.15839	80.50768	0.29669	 	2.6628700000000004E29	 	6.93109E-30	 	4632.003	26.7314	 
100.0	1.0	0.0	7.61193	7.14684	-9.499	12.93825	18.44914	0.65906	1.51731	209.07848	171.23876	80.63164	0.2965	 	7.823010000000001E29	 	2.32807E-30	 	4498.925	26.6156	 
95.0	1.0	0.0	7.61343	7.14542	-9.51687	12.91953	18.39081	0.65229	1.53306	209.36691	171.31674	80.75458	0.29632	 	2.3671099999999998E30	 	7.5909E-31	 	4366.423	26.5004	 
90.0	1.0	0.0	7.61493	7.14402	-9.53468	12.90082	18.33247	0.64548	1.54924	209.65271	171.39242	80.87655	0.29613	 	7.38592E30	 	2.39976E-31	 	4234.5	26.3846	 
85.0	1.0	0.0	7.61642	7.14261	-9.55245	12.8821	18.27412	0.63863	1.56586	209.93597	171.46589	80.99756	0.29594	 	2.37948E31	 	7.34631E-32	 	4103.156	26.2688	 
80.0	1.0	0.0	7.61792	7.14122	-9.57016	12.86338	18.21576	0.63173	1.58296	210.2168	171.53724	81.11768	0.29575	 	7.925639999999999E31	 	2.17476E-32	 	3972.393	26.1526	 
75.0	1.0	0.0	7.61941	7.13982	-9.58783	12.84467	18.15739	0.62479	1.60055	210.49532	171.60658	81.23694	0.29556	 	2.7332299999999998E32	 	6.21695E-33	 	3842.214	26.0358	 
70.0	1.0	0.0	7.62089	7.13843	-9.60544	12.82595	18.099	0.6178	1.61865	210.77166	171.67402	81.35539	0.29538	 	9.773719999999999E32	 	1.71361E-33	 	3712.619	25.919	 
65.0	1.0	0.0	7.62237	7.13704	-9.62301	12.80723	18.0406	0.61077	1.63728	211.04597	171.73967	81.47309	0.29519	 	3.62975E33	 	4.54694E-34	 	3583.614	25.801	 
60.0	1.0	0.0	7.62385	7.13566	-9.64052	12.78851	17.98218	0.60369	1.65647	211.31837	171.80366	81.5901	0.295	 	1.40236E34	 	1.15949E-34	 	3455.202	25.6824	 
55.0	1.0	0.0	7.62532	7.13428	-9.65798	12.76979	17.92375	0.59657	1.67625	211.58905	171.86613	81.70646	0.29481	 	5.64662E34	 	2.83642E-35	 	3327.387	25.563	 
50.0	1.0	0.0	7.62679	7.13291	-9.67539	12.75107	17.8653	0.5894	1.69664	211.85816	171.92721	81.82226	0.29462	 	2.37404E35	 	6.6436E-36	 	3200.174	25.4426	 
45.0	1.0	0.0	7.62826	7.13153	-9.69275	12.73235	17.80684	0.58219	1.71766	212.12589	171.98707	81.93756	0.29444	 	1.0443299999999999E36	 	1.4869E-36	 	3073.57	25.3208	 
40.0	1.0	0.0	7.62972	7.13017	-9.71006	12.71363	17.74836	0.57493	1.73935	212.39245	172.04586	82.05244	0.29425	 	4.81698E36	 	3.17296E-37	 	2947.582	25.1976	 
35.0	1.0	0.0	7.63118	7.12881	-9.72732	12.69492	17.68986	0.56762	1.76175	212.65804	172.10377	82.16698	0.29406	 	2.33505E37	 	6.441E-38	 	2822.216	25.0732	 
30.0	1.0	0.0	7.63263	7.12745	-9.74453	12.6762	17.63135	0.56026	1.78488	212.92291	172.16098	82.28127	0.29387	 	1.1925099999999999E38	 	1.24074E-38	 	2697.481	24.947	 
25.0	1.0	0.0	7.63409	7.12609	-9.76169	 	17.57281	0.55286	1.80879	213.18729	172.2177	82.39541	0.29368	 	6.43299E38	 	2.26208E-39	 	2573.387	 	 
