T (C)	Fraction solid (wt)-TOTAL	Fraction liquid (wt)-LIQUID	Density (g/(cm)^3)-TOTAL	Molar volume (cm^3)-TOTAL	Volume change (%)-  	Average expansion coeff. (10e-6 1/K)-  	Thermal conductivity (W/(m*K))-TOTAL	Electrical resistivity (10e-6 Ohm*m)-TOTAL	Electrical conductivity (10e6 1/(Ohm*m))-TOTAL	Young's modulus (GPa)-TOTAL	Bulk modulus (GPa)-TOTAL	Shear modulus(GPa)-TOTAL	Poisson's ratio-TOTAL	Liquid viscosity (mPa s)-  	Total viscosity (mPa s)-  	Liquid diffusivity (10e-9 (m^2)/s)-  	Total diffusivity (10e-9 (m^2)/s)-  	Surface Tension (mN/m)-  	Enthalpy (J/mole)-TOTAL	Specific heat (J/(mole K))-TOTAL	Latent heat (J/mole)-TOTAL
1500.0	0.0	1.0	6.98535	7.88706	0.0	24.07306	34.3298	1.68303	0.59417	0.0	102.78995	0.0	0.49882	6.81177	6.81177	1.27049	1.27049	1574.45731	68676.105	 	0.0
1495.0	0.0	1.0	6.98925	7.88266	-0.0558194	24.01488	34.25169	1.68211	0.59449	0.0	102.98782	0.0	0.49882	6.87054	6.87054	1.25607	1.25607	1574.90546	68452.355	44.75	0.0
1490.0	0.0	1.0	6.99315	7.87827	-0.11148	23.95671	34.17356	1.68119	0.59482	0.0	103.18568	0.0	0.49882	6.93015	6.93015	1.24175	1.24175	1575.33968	68229.159	44.6392	0.0
1485.0	0.0	1.0	6.99704	7.87389	-0.16698	23.89854	34.09542	1.68026	0.59514	0.0	103.38354	0.0	0.49882	6.99063	6.99063	1.22751	1.22751	1575.75985	68006.516	44.5286	0.0
1480.0	0.0	1.0	7.00092	7.86952	-0.22232	23.84037	34.01727	1.67934	0.59547	0.0	103.58141	0.0	0.49882	7.05198	7.05198	1.21337	1.21337	1576.16585	67784.42	44.4192	0.0
1475.0	0.0	1.0	7.00479	7.86517	-0.27751	23.78221	33.9391	1.6784	0.5958	0.0	103.77927	0.0	0.49882	7.11422	7.11422	1.19933	1.19933	1576.55759	67562.868	44.3104	0.0
1470.0	0.0	1.0	7.00866	7.86083	-0.33253	23.72404	33.86093	1.67747	0.59614	0.0	103.97714	0.0	0.49882	7.17738	7.17738	1.18537	1.18537	1576.93495	67341.858	44.202	0.0
1465.42	0.0	1.0	7.01219	7.85687	-0.38276	23.67081	33.78938	1.6766	0.59644	0.0	104.15823	0.0	0.49882	7.23599	7.23599	1.17269	1.17269	1577.26764	67140.066	44.0958	0.0
1465.0	0.02327	0.97673	7.01616	7.85247	-0.43853	23.53492	33.83808	1.67378	0.59745	1.49013E-5	103.19584	4.98236E-6	0.4954	7.23748	7.46314	1.17216	1.13672	1576.13422	66897.693	571.931	223.691
1460.0	0.25829	0.74171	7.05692	7.80706	-1.01425	22.13713	34.32995	1.64506	0.60788	0.23342	93.53177	0.0799033	0.46064	7.25542	22.94675	1.1659	0.36864	1563.48292	64417.35	496.069	2484.093
1455.0	0.41849	0.58151	7.08579	7.7753	-1.41692	21.17593	34.65496	1.62493	0.61541	1.64689	87.06081	0.57316	0.43667	7.27373	104.70215	1.15961	0.0805587	1551.99912	62649.802	353.51	4032.23
1450.0	0.53192	0.46808	7.10708	7.75199	-1.71252	20.48511	34.8716	1.61016	0.62106	4.38137	82.60226	1.54325	0.41953	7.29233	266.10922	1.1533	0.0316046	1541.52177	61323.857	265.189	5139.296
1445.0	0.6149	0.3851	7.12338	7.73426	-1.93733	19.97331	35.01584	1.59887	0.62544	7.95239	79.46196	2.82626	0.40687	7.3112	486.19089	1.14699	0.0172481	1531.91406	60285.92	207.587	5958.891
1440.0	0.6773	0.3227	7.13627	7.72031	-2.11423	19.58277	35.11004	1.58994	0.62895	11.87552	77.2149	4.24952	0.39728	7.3303	741.68184	1.14067	0.0112736	1523.06843	59444.143	168.355	6582.86
1435.0	0.72541	0.27459	7.14676	7.70899	-2.25775	19.27678	35.16895	1.58265	0.63185	15.82904	75.59102	5.69464	0.38982	7.34963	1016.25002	1.13435	0.00820374	1514.89303	58740.467	140.735	7069.258
1430.0	0.76327	0.23673	7.15553	7.69957	-2.37721	19.03176	35.20233	1.57652	0.63431	19.63351	74.41447	7.09356	0.3839	7.36918	1300.18685	1.12803	0.00639343	1507.3115	58137.01	120.691	7455.963
1425.0	0.79361	0.20639	7.16302	7.69153	-2.47907	18.83138	35.21686	1.57124	0.63644	23.20443	73.56636	8.41287	0.3791	7.38892	1588.47024	1.12171	0.00521775	1500.25944	57608.127	105.777	7768.617
1420.0	0.81831	0.18169	7.16955	7.68453	-2.56785	18.66414	35.21709	1.56661	0.63832	26.51015	72.96524	9.63892	0.37516	7.40883	1878.78368	1.1154	0.00439851	1493.68309	57135.95	94.4354	8025.083
1415.0	0.83869	0.16131	7.17534	7.67833	-2.6464	18.52284	35.20639	1.56245	0.64002	29.55154	72.55334	10.77052	0.37187	7.42892	2170.70474	1.1091	0.00379574	1487.53387	56707.716	85.6468	8238.123
1410.0	0.85572	0.14428	7.18056	7.67278	-2.71686	18.40206	35.18722	1.55867	0.64157	32.34198	72.28939	11.81149	0.36909	7.44921	2464.58964	1.10281	0.00333323	1481.77023	56314.104	78.7224	8417.054
1405.0	0.8701	0.1299	7.18532	7.66771	-2.78114	18.29694	35.16125	1.55519	0.64301	34.90263	72.14237	12.76885	0.36671	7.46966	2761.36843	1.09652	0.00296615	1476.35835	55948.176	73.1856	8568.809
1400.0	0.88234	0.11766	7.18971	7.66303	-2.8404	18.20452	35.12987	1.55194	0.64435	37.25698	72.0893	13.65072	0.36465	7.4903	3062.30562	1.09024	0.00266669	1471.26673	55604.68	68.6992	8698.639
1395.0	0.89286	0.10714	7.19379	7.65869	-2.89545	18.12274	35.09414	1.54888	0.64563	39.42633	72.11303	14.46459	0.36286	7.51105	3368.67207	1.08398	0.00241692	1466.4675	55279.575	65.021	8810.579
1390.0	0.90197	0.0980254	7.19764	7.65462	-2.94703	18.04975	35.05486	1.54597	0.64684	41.43248	72.19999	15.21824	0.36128	7.53206	3681.93868	1.07772	0.00220466	1461.93587	54969.711	61.9728	8907.778
1385.0	0.90991	0.0900858	7.20127	7.65077	-2.99592	17.98352	35.01257	1.54318	0.64801	43.29439	72.33937	15.91853	0.35987	7.5532	4003.5401	1.07147	0.00202147	1457.65266	54672.603	59.4216	8992.717
1380.0	0.91687	0.0831315	7.20473	7.6471	-3.04242	17.9233	34.96786	1.5405	0.64914	45.0275	72.52324	16.57103	0.35862	7.57446	4334.77258	1.06524	0.00186137	1453.59759	54386.354	57.2498	9067.289
1379.54	0.91783	0.0821651	7.20512	7.64671	-3.04733	17.91605	34.96323	1.54027	0.64924	45.25609	72.52998	16.65717	0.35846	7.57646	4372.95493	1.06466	0.0018446	1453.23126	54356.212	 	9077.826
1379.54	0.91783	0.0821651	7.20512	7.64671	-3.04733	17.91605	34.96323	1.54027	0.64924	45.25609	72.52998	16.65717	0.35846	7.57646	4372.95493	1.06466	0.0018446	1453.23126	54356.212	 	9077.826
1375.0	0.92237	0.077628	7.20799	7.64359	-3.08687	17.86824	34.93011	1.5375	0.65041	46.57114	72.86914	17.15123	0.35766	7.60707	4685.90423	1.05746	0.00171668	1448.65306	54110.373	55.1962	9132.084
1370.0	0.92667	0.0733316	7.21102	7.64032	-3.12837	17.82085	34.89203	1.53451	0.65168	47.89917	73.25693	17.65047	0.35688	7.64141	5039.16726	1.04952	0.00159149	1443.83772	53849.025	52.2696	9182.732
1365.0	0.93034	0.0696581	7.21393	7.63717	-3.16828	17.7775	34.85246	1.53157	0.65292	49.11667	73.65678	18.10842	0.35618	7.67632	5402.82468	1.04157	0.00147986	1439.26006	53596.197	50.5656	9225.344
1360.0	0.93351	0.0664942	7.21675	7.63415	-3.20657	17.73829	34.81175	1.52868	0.65416	50.24081	74.0673	18.53145	0.35556	7.71188	5778.97293	1.0336	0.00137931	1434.90365	53350.393	49.1608	9261.411
1355.0	0.93625	0.0637516	7.21948	7.63122	-3.24373	17.70192	34.77004	1.52583	0.65538	51.28698	74.48651	18.9253	0.35498	7.74801	6169.67163	1.02563	0.00128801	1430.76019	53110.431	47.9924	9292.115
1350.0	0.93864	0.0613586	7.22216	7.62838	-3.27983	17.66823	34.72754	1.52301	0.6566	52.26715	74.91341	19.29443	0.35446	7.78469	6576.93707	1.01766	0.00120454	1426.81748	52875.363	47.0136	9318.398
1345.0	0.94074	0.0592587	7.22477	7.6256	-3.31504	17.63677	34.68438	1.52021	0.65781	53.19124	75.34703	19.64256	0.35398	7.82191	7002.72891	1.0097	0.00112782	1423.06597	52644.428	46.187	9341.021
1340.0	0.94259	0.0574052	7.22735	7.62288	-3.34952	17.6071	34.64065	1.51742	0.65901	54.06779	75.78651	19.97286	0.35353	7.85962	7449.04732	1.00175	0.00105697	1419.49692	52417.001	45.4854	9360.603
1335.0	0.94424	0.0557611	7.22989	7.62022	-3.38328	17.57928	34.59648	1.51465	0.66022	54.90385	76.23136	20.28798	0.35311	7.89784	7917.97857	0.99381	9.91286E-4	1416.10033	52192.571	44.886	9377.655
1330.0	0.94571	0.0542942	7.2324	7.61759	-3.4166	17.55246	34.55189	1.51189	0.66142	55.70576	76.68072	20.59031	0.35272	7.9364	8411.61087	0.98591	9.30211E-4	1412.87158	51970.713	44.3716	9392.596
1325.0	0.94702	0.0529798	7.23489	7.61501	-3.44935	17.52703	34.507	1.50913	0.66263	56.47819	77.13444	20.88158	0.35234	7.97535	8932.15414	0.97804	8.73269E-4	1409.80041	51751.07	43.9286	9405.783
1320.0	0.94821	0.0517945	7.23736	7.61246	-3.48163	17.50275	34.46187	1.50638	0.66384	57.22533	77.59211	21.16336	0.35199	8.01462	9481.86367	0.9702	8.20068E-4	1406.88054	51533.338	43.5464	9417.516
1315.0	0.94928	0.0507209	7.23981	7.60994	-3.51352	17.47943	34.41653	1.50363	0.66506	57.95137	78.05333	21.43724	0.35165	8.05412	10063.23605	0.96241	7.70266E-4	1404.10609	51317.256	43.2164	9428.053
1310.0	0.95026	0.0497423	7.24224	7.60746	-3.54506	17.4569	34.37102	1.50088	0.66627	58.65937	78.5178	21.70436	0.35133	8.09384	10678.80277	0.95467	7.23579E-4	1401.47175	51102.596	42.932	9437.62
1305.0	0.95115	0.0488458	7.24467	7.605	-3.57622	17.4353	34.32542	1.49813	0.6675	59.35206	78.98537	21.96574	0.35101	8.13364	11331.32208	0.947	6.79758E-4	1398.9711	50889.152	42.6888	9446.419
1295.34	1.0	0.0	7.25591	7.59217	-3.73883	17.09572	33.97181	1.50446	0.66469	74.32932	79.05609	27.66672	0.3433	 	15391.27872	 	4.97387E-4	 	49806.747	 	10134.795
1295.0	1.0	0.0	7.25606	7.59202	-3.74084	17.0945	33.96764	1.50432	0.66475	74.36791	79.09045	27.68136	0.34329	 	15449.98303	 	4.95389E-4	 	50288.94	60.0212	 
1290.0	1.0	0.0	7.25827	7.5897	-3.77016	17.07658	33.90681	1.50221	0.66568	74.93356	79.59378	27.89592	0.34309	 	16337.29435	 	4.6699E-4	 	50090.52	39.684	 
1285.0	1.0	0.0	7.26048	7.5874	-3.79943	17.05866	33.84597	1.5001	0.66662	75.50214	80.09897	28.11164	0.3429	 	17281.8521	 	4.40054E-4	 	49892.37	39.63	 
1280.0	1.0	0.0	7.26269	7.58509	-3.82865	17.04074	33.78512	1.49798	0.66757	76.07361	80.60599	28.32849	0.3427	 	18287.7394	 	4.14515E-4	 	49694.491	39.5758	 
1275.0	1.0	0.0	7.26489	7.58279	-3.85782	17.02282	33.72426	1.49585	0.66852	76.64794	81.11478	28.54648	0.34251	 	19359.35766	 	3.90309E-4	 	49496.881	39.522	 
1270.0	1.0	0.0	7.26709	7.58049	-3.88695	17.0049	33.66339	1.49372	0.66947	77.22508	81.6253	28.76557	0.34232	 	20501.45341	 	3.67376E-4	 	49299.538	39.4686	 
1265.0	1.0	0.0	7.26929	7.5782	-3.91602	16.98698	33.60251	1.49157	0.67043	77.80499	82.1375	28.98576	0.34212	 	21719.14764	 	3.45655E-4	 	49102.462	39.4152	 
1260.0	1.0	0.0	7.27149	7.57591	-3.94505	16.96906	33.54162	1.48942	0.6714	78.38765	82.65133	29.20703	0.34193	 	23017.96779	 	3.25091E-4	 	48905.653	39.3618	 
1255.0	1.0	0.0	7.27368	7.57362	-3.97403	16.95114	33.48072	1.48727	0.67237	78.973	83.16675	29.42938	0.34174	 	24403.8827	 	3.05628E-4	 	48709.108	39.309	 
1250.0	1.0	0.0	7.27588	7.57134	-4.00296	16.93321	33.41981	1.4851	0.67335	79.56102	83.68371	29.65277	0.34154	 	25883.34071	 	2.87216E-4	 	48512.827	39.2562	 
1245.0	1.0	0.0	7.27807	7.56906	-4.03185	16.91528	33.35889	1.48293	0.67434	80.15166	84.20217	29.87722	0.34135	 	27463.31143	 	2.69804E-4	 	48316.808	39.2038	 
1240.0	1.0	0.0	7.28025	7.56679	-4.06068	16.89736	33.29796	1.48075	0.67533	80.74488	84.72208	30.10269	0.34116	 	29151.33134	 	2.53344E-4	 	48121.053	39.151	 
1235.0	1.0	0.0	7.28244	7.56452	-4.08947	16.87943	33.23702	1.47856	0.67633	81.34065	85.24339	30.32917	0.34096	 	30955.55364	 	2.37789E-4	 	47925.56	39.0986	 
1230.0	1.0	0.0	7.28462	7.56225	-4.11821	16.8615	33.17608	1.47637	0.67734	81.93893	85.76606	30.55666	0.34077	 	32884.80293	 	2.23097E-4	 	47730.328	39.0464	 
1225.0	1.0	0.0	7.2868	7.55999	-4.1469	16.84357	33.11512	1.47417	0.67835	82.53968	86.29004	30.78513	0.34058	 	34948.63501	 	2.09224E-4	 	47535.355	38.9946	 
1220.0	1.0	0.0	7.28898	7.55773	-4.17554	16.82564	33.05415	1.47196	0.67937	83.14286	86.8153	31.01458	0.34038	 	37157.4024	 	1.9613E-4	 	47340.639	38.9432	 
1215.0	1.0	0.0	7.29116	7.55548	-4.20414	16.8077	32.99318	1.46974	0.68039	83.74844	87.34178	31.24498	0.34019	 	39522.32624	 	1.83777E-4	 	47146.18	38.8918	 
1210.0	1.0	0.0	7.29333	7.55322	-4.23269	16.78977	32.93219	1.46751	0.68142	84.35637	87.86944	31.47634	0.34	 	42055.57509	 	1.72127E-4	 	46951.974	38.8412	 
1205.0	1.0	0.0	7.2955	7.55098	-4.26118	16.77184	32.8712	1.46528	0.68246	84.96663	88.39824	31.70862	0.3398	 	44770.35148	 	1.61144E-4	 	46758.021	38.7906	 
1200.0	1.0	0.0	7.29767	7.54873	-4.28963	16.7539	32.81019	1.46304	0.68351	85.57916	88.92813	31.94182	0.33961	 	47680.98684	 	1.50796E-4	 	46564.319	38.7404	 
1195.0	1.0	0.0	7.29984	7.54649	-4.31803	16.73596	32.74918	1.46079	0.68456	86.19393	89.45907	32.17593	0.33942	 	50803.04598	 	1.41048E-4	 	46370.867	38.6904	 
1190.0	1.0	0.0	7.302	7.54426	-4.34639	16.71802	32.68815	1.45853	0.68562	86.81091	89.99102	32.41092	0.33922	 	54153.44173	 	1.31871E-4	 	46177.661	38.6412	 
1185.0	1.0	0.0	7.30416	7.54202	-4.37469	16.70008	32.62712	1.45627	0.68669	87.43005	90.52394	32.6468	0.33903	 	57750.56123	 	1.23235E-4	 	45984.701	38.592	 
1180.0	1.0	0.0	7.30632	7.53979	-4.40295	16.68214	32.56608	1.45399	0.68776	88.05132	91.05777	32.88353	0.33884	 	61614.40475	 	1.1511E-4	 	45791.985	38.5432	 
1175.0	1.0	0.0	7.30848	7.53757	-4.43116	16.6642	32.50502	1.45171	0.68884	88.67468	91.59249	33.12112	0.33864	 	65766.73871	 	1.07472E-4	 	45599.511	38.4948	 
1170.0	1.0	0.0	7.31063	7.53535	-4.45932	16.64626	32.44396	1.44942	0.68993	89.3001	92.12804	33.35954	0.33845	 	70231.26416	 	1.00292E-4	 	45407.277	38.4468	 
1165.0	1.0	0.0	7.31278	7.53313	-4.48743	16.62831	32.38289	1.44713	0.69102	89.92753	92.66439	33.59878	0.33826	 	75033.80255	 	9.35479E-5	 	45215.281	38.3992	 
1160.0	1.0	0.0	7.31493	7.53092	-4.51549	16.61037	32.32181	1.44482	0.69213	90.55693	93.20149	33.83883	0.33806	 	80202.50071	 	8.72149E-5	 	45023.521	38.352	 
1155.0	1.0	0.0	7.31708	7.52871	-4.54351	16.59242	32.26072	1.44251	0.69324	91.18827	93.7393	34.07967	0.33787	 	85768.05699	 	8.12709E-5	 	44831.996	38.305	 
1150.0	1.0	0.0	7.31922	7.5265	-4.57147	16.57448	32.19962	1.44018	0.69436	91.82152	94.27778	34.32129	0.33768	 	91763.97108	 	7.56946E-5	 	44640.702	38.2588	 
1145.0	1.0	0.0	7.32136	7.5243	-4.59939	16.55653	32.1385	1.43785	0.69548	92.45662	94.81689	34.56368	0.33748	 	98226.82007	 	7.04659E-5	 	44449.639	38.2126	 
1140.0	1.0	0.0	7.3235	7.5221	-4.62726	16.53858	32.07738	1.43551	0.69662	93.09355	95.35659	34.80683	0.33729	 	105196.5637	 	6.55652E-5	 	44258.803	38.1672	 
1135.0	1.0	0.0	7.32564	7.51991	-4.65508	16.52063	32.01625	1.43316	0.69776	93.73227	95.89683	35.05071	0.3371	 	112716.882	 	6.09743E-5	 	44068.193	38.122	 
1130.0	1.0	0.0	7.32778	7.51772	-4.68286	16.50268	31.95511	1.43081	0.69891	94.37274	96.43758	35.29531	0.3369	 	120835.5494	 	5.66756E-5	 	43877.807	38.0772	 
1125.0	1.0	0.0	7.32991	7.51553	-4.71058	16.48472	31.89396	1.42844	0.70006	95.01492	96.9788	35.54063	0.33671	 	129604.8487	 	5.26525E-5	 	43687.643	38.0328	 
1120.0	1.0	0.0	7.33204	7.51335	-4.73826	16.46677	31.8328	1.42607	0.70123	95.65878	97.52044	35.78664	0.33652	 	139082.0302	 	4.88893E-5	 	43497.697	37.9892	 
1115.0	1.0	0.0	7.33416	7.51117	-4.76589	16.44881	31.77163	1.42369	0.7024	96.30427	98.06247	36.03334	0.33632	 	149329.8213	 	4.53708E-5	 	43307.968	37.9458	 
1110.0	1.0	0.0	7.33629	7.50899	-4.79347	16.43086	31.71045	1.4213	0.70358	96.95136	98.60485	36.28071	0.33613	 	160416.9916	 	4.20829E-5	 	43118.453	37.903	 
1105.0	1.0	0.0	7.33841	7.50682	-4.821	16.4129	31.64927	1.4189	0.70477	97.60001	99.14753	36.52873	0.33593	 	172418.9808	 	3.9012E-5	 	42929.151	37.8604	 
1100.0	1.0	0.0	7.34053	7.50466	-4.84848	16.39494	31.58807	1.41649	0.70597	98.25018	99.69049	36.7774	0.33574	 	185418.5964	 	3.61453E-5	 	42740.057	37.8188	 
1095.0	1.0	0.0	7.34265	7.50249	-4.87592	16.37698	31.52686	1.41407	0.70718	98.90184	100.23367	37.02669	0.33555	 	199506.7901	 	3.34705E-5	 	42551.171	37.7772	 
1090.0	1.0	0.0	7.34476	7.50033	-4.90331	16.35902	31.46564	1.41164	0.70839	99.55495	100.77704	37.2766	0.33535	 	214783.521	 	3.09763E-5	 	42362.489	37.7364	 
1085.0	1.0	0.0	7.34687	7.49818	-4.93064	16.34106	31.40441	1.40921	0.70962	100.20947	101.32056	37.52711	0.33516	 	231358.7184	 	2.86516E-5	 	42174.009	37.696	 
1080.0	1.0	0.0	7.34898	7.49602	-4.95793	16.3231	31.34317	1.40676	0.71085	100.86536	101.86419	37.77821	0.33497	 	249353.3526	 	2.64861E-5	 	41985.727	37.6564	 
1075.0	1.0	0.0	7.35109	7.49387	-4.98517	16.30513	31.28193	1.40431	0.71209	101.52259	102.4079	38.02988	0.33477	 	268900.6314	 	2.447E-5	 	41797.64	37.6174	 
1070.0	1.0	0.0	7.3532	7.49173	-5.01237	16.28717	31.22067	1.40185	0.71335	102.18112	102.95165	38.28211	0.33458	 	290147.3341	 	2.2594E-5	 	41609.744	37.5792	 
1065.0	1.0	0.0	7.3553	7.48959	-5.03951	16.2692	31.1594	1.39937	0.71461	102.84091	103.49539	38.53488	0.33439	 	313255.3011	 	2.08494E-5	 	41422.036	37.5416	 
1060.0	1.0	0.0	7.3574	7.48745	-5.06661	16.25123	31.09812	1.39689	0.71588	103.50192	104.0391	38.78819	0.33419	 	338403.0998	 	1.92279E-5	 	41234.513	37.5046	 
1055.0	1.0	0.0	7.35949	7.48532	-5.09366	16.23326	31.03684	1.3944	0.71715	104.16412	104.58273	39.04201	0.334	 	365787.8872	 	1.77217E-5	 	41047.173	37.468	 
1050.0	1.0	0.0	7.36159	7.48319	-5.12066	16.21529	30.97554	1.3919	0.71844	104.82747	105.12625	39.29634	0.33381	 	395627.4942	 	1.63234E-5	 	40860.012	37.4322	 
1045.0	1.0	0.0	7.36368	7.48106	-5.14761	16.19732	30.91423	1.38939	0.71974	105.49192	105.66961	39.55116	0.33361	 	428162.7613	 	1.5026E-5	 	40673.027	37.397	 
1040.0	1.0	0.0	7.36577	7.47894	-5.17451	16.17935	30.85292	1.38687	0.72105	106.15746	106.21279	39.80645	0.33342	 	463660.156	 	1.3823E-5	 	40486.214	37.3626	 
1035.0	1.0	0.0	7.36785	7.47682	-5.20136	16.16138	30.79159	1.38434	0.72237	106.82403	106.75575	40.06221	0.33323	 	502414.7092	 	1.27081E-5	 	40299.57	37.3288	 
1030.0	1.0	0.0	7.36994	7.47471	-5.22817	16.1434	30.73026	1.3818	0.72369	107.49159	107.29844	40.31842	0.33303	 	544753.312	 	1.16757E-5	 	40113.091	37.2958	 
1025.0	1.0	0.0	7.37202	7.4726	-5.25493	16.12543	30.66891	1.37925	0.72503	108.16012	107.84084	40.57506	0.33284	 	591038.4202	 	1.072E-5	 	39926.774	37.2634	 
1020.0	1.0	0.0	7.3741	7.47049	-5.28164	16.10745	30.60756	1.3767	0.72638	108.82958	108.38291	40.83213	0.33265	 	641672.2187	 	9.83609E-6	 	39740.615	37.2318	 
1015.0	1.0	0.0	7.37618	7.46839	-5.3083	16.08948	30.54619	1.37413	0.72773	109.49992	108.92461	41.0896	0.33245	 	697101.3095	 	9.01898E-6	 	39554.61	37.201	 
1010.0	1.0	0.0	7.37825	7.46629	-5.33491	16.0715	30.48482	1.37155	0.7291	110.17112	109.4659	41.34747	0.33226	 	757821.99	 	8.26413E-6	 	39368.756	37.1708	 
1005.0	1.0	0.0	7.38032	7.4642	-5.36147	16.05352	30.42343	1.36896	0.73048	110.84312	110.00676	41.60571	0.33207	 	824386.204	 	7.56725E-6	 	39183.048	37.1416	 
1000.0	1.0	0.0	7.38239	7.4621	-5.38799	16.03554	30.36204	1.36636	0.73187	111.51591	110.54713	41.86432	0.33187	 	897408.2544	 	6.92431E-6	 	38997.482	37.1132	 
995.0	1.0	0.0	7.38445	7.46002	-5.41445	16.01755	30.30064	1.36376	0.73327	112.18943	111.087	42.12329	0.33168	 	977572.3824	 	6.33153E-6	 	38812.054	37.0856	 
990.0	1.0	0.0	7.38652	7.45793	-5.44087	15.99957	30.23923	1.36114	0.73468	112.86365	111.62633	42.38259	0.33149	 	1065641.333	 	5.78536E-6	 	38626.759	37.059	 
985.0	1.0	0.0	7.38858	7.45585	-5.46724	15.98159	30.17781	1.35851	0.7361	113.53854	112.16507	42.64222	0.33129	 	1162466.039	 	5.28249E-6	 	38441.594	37.033	 
980.0	1.0	0.0	7.39064	7.45378	-5.49356	15.9636	30.11638	1.35587	0.73753	114.21406	112.7032	42.90216	0.3311	 	1268996.592	 	4.8198E-6	 	38256.553	37.0082	 
975.0	1.0	0.0	7.39269	7.45171	-5.51984	15.94561	30.05494	1.35322	0.73898	114.89016	113.24068	43.1624	0.33091	 	1386294.659	 	4.39438E-6	 	38071.632	36.9842	 
970.0	1.0	0.0	7.39474	7.44964	-5.54606	15.92763	29.99349	1.35056	0.74043	115.56682	113.77748	43.42292	0.33071	 	1515547.575	 	4.00351E-6	 	37886.825	36.9614	 
965.0	1.0	0.0	7.39679	7.44757	-5.57224	15.90964	29.93204	1.34789	0.7419	116.244	114.31356	43.68371	0.33052	 	1658084.332	 	3.64463E-6	 	37702.129	36.9392	 
960.0	1.0	0.0	7.39884	7.44551	-5.59837	15.89165	29.87057	1.34521	0.74338	116.92166	114.84889	43.94476	0.33033	 	1815393.742	 	3.31537E-6	 	37517.537	36.9184	 
955.0	1.0	0.0	7.40088	7.44345	-5.62444	15.87366	29.8091	1.34252	0.74487	117.59976	115.38343	44.20605	0.33013	 	1989145.094	 	3.0135E-6	 	37333.045	36.8984	 
950.0	1.0	0.0	7.40293	7.4414	-5.65047	15.85567	29.74763	1.33982	0.74637	118.27826	115.91716	44.46757	0.32994	 	2181211.664	 	2.73696E-6	 	37148.647	36.8796	 
945.0	1.0	0.0	7.40497	7.43935	-5.67646	15.83767	29.68614	1.3371	0.74789	118.95714	116.45003	44.7293	0.32975	 	2393697.496	 	2.48381E-6	 	36964.337	36.862	 
940.0	1.0	0.0	7.407	7.43731	-5.70239	15.81968	29.62465	1.33438	0.74941	119.63634	116.98202	44.99123	0.32955	 	2628967.941	 	2.25225E-6	 	36780.11	36.8454	 
935.0	1.0	0.0	7.40904	7.43527	-5.72827	15.80168	29.56315	1.33164	0.75095	120.31584	117.51309	45.25335	0.32936	 	2889684.516	 	2.0406E-6	 	36595.959	36.8302	 
930.0	1.0	0.0	7.41107	7.43323	-5.75411	15.78369	29.50164	1.3289	0.7525	120.9956	118.04321	45.51565	0.32916	 	3178844.737	 	1.8473E-6	 	36411.879	36.816	 
925.0	1.0	0.0	7.4131	7.43119	-5.7799	15.76569	29.44013	1.32614	0.75407	121.67558	118.57235	45.7781	0.32897	 	3499827.661	 	1.6709E-6	 	36227.863	36.8032	 
920.0	1.0	0.0	7.41512	7.42916	-5.80564	15.74769	29.37862	1.32337	0.75565	122.35574	119.10047	46.0407	0.32878	 	3856446.04	 	1.51006E-6	 	36043.904	36.7918	 
915.0	1.0	0.0	7.41714	7.42714	-5.83133	15.72969	29.3171	1.32059	0.75724	123.03605	119.62754	46.30343	0.32858	 	4253006.081	 	1.36352E-6	 	35859.996	36.7816	 
910.0	1.0	0.0	7.41916	7.42512	-5.85697	15.71169	29.25558	1.3178	0.75884	123.71647	120.15354	46.56628	0.32839	 	4694375.997	 	1.23012E-6	 	35676.131	36.773	 
905.0	1.0	0.0	7.42118	7.4231	-5.88257	15.69369	29.19405	1.31499	0.76046	124.39697	120.67842	46.82924	0.3282	 	5186064.744	 	1.10879E-6	 	35492.303	36.7656	 
900.0	1.0	0.0	7.4232	7.42108	-5.90811	15.67568	29.13252	1.31218	0.76209	125.0775	121.20215	47.09228	0.328	 	5734312.515	 	9.98525E-7	 	35308.504	36.7598	 
895.0	1.0	0.0	7.42521	7.41907	-5.93361	15.65768	29.07099	1.30935	0.76374	125.75803	121.72471	47.3554	0.32781	 	6346194.906	 	8.98404E-7	 	35124.725	36.7558	 
890.0	1.0	0.0	7.42722	7.41706	-5.95906	15.63967	29.00946	1.30651	0.7654	126.43853	122.24606	47.61859	0.32762	 	7029742.905	 	8.07575E-7	 	34940.96	36.753	 
885.0	1.0	0.0	7.42922	7.41506	-5.98445	15.62167	28.94793	1.30366	0.76707	127.11896	122.76617	47.88182	0.32742	 	7794081.287	 	7.25248E-7	 	34757.2	36.752	 
880.0	1.0	0.0	7.43123	7.41306	-6.00981	15.60366	28.8864	1.3008	0.76876	127.79927	123.28502	48.14509	0.32723	 	8649588.409	 	6.50694E-7	 	34573.436	36.7528	 
875.0	1.0	0.0	7.43323	7.41107	-6.03511	15.58565	28.82487	1.29792	0.77046	128.47944	123.80256	48.40838	0.32704	 	9608080.921	 	5.83242E-7	 	34389.659	36.7554	 
870.0	1.0	0.0	7.43523	7.40907	-6.06036	15.56764	28.76334	1.29504	0.77218	129.15943	124.31877	48.67168	0.32684	 	1.068302753E7	 	5.22271E-7	 	34205.859	36.76	 
865.0	1.0	0.0	7.43722	7.40709	-6.08557	15.54963	28.70182	1.29213	0.77391	129.8392	124.83362	48.93497	0.32665	 	1.188979663E7	 	4.6721E-7	 	34022.028	36.7662	 
860.0	1.0	0.0	7.43922	7.4051	-6.11072	15.53162	28.6403	1.28922	0.77566	130.51871	125.34707	49.19825	0.32646	 	1.324594361E7	 	4.17533E-7	 	33838.155	36.7746	 
855.0	1.0	0.0	7.44121	7.40312	-6.13583	15.5136	28.5788	1.2863	0.77743	131.19793	125.85911	49.46149	0.32626	 	1.477154447E7	 	3.72759E-7	 	33654.23	36.785	 
850.0	1.0	0.0	7.44319	7.40115	-6.16089	15.49559	28.51729	1.28336	0.77921	131.87682	126.36969	49.72468	0.32607	 	1.648958368E7	 	3.32441E-7	 	33470.242	36.7976	 
845.0	1.0	0.0	7.44518	7.39917	-6.1859	15.47757	28.4558	1.2804	0.781	132.55535	126.87878	49.98781	0.32588	 	1.842640585E7	 	2.96173E-7	 	33286.18	36.8124	 
840.0	1.0	0.0	7.44716	7.3972	-6.21087	15.45956	28.39432	1.27744	0.78282	133.23348	127.38637	50.25087	0.32568	 	2.061224204E7	 	2.63582E-7	 	33102.032	36.8296	 
835.0	1.0	0.0	7.44914	7.39524	-6.23578	15.44154	28.33284	1.27446	0.78465	133.91117	127.89241	50.51384	0.32549	 	2.30818241E7	 	2.34323E-7	 	32917.785	36.8494	 
830.0	1.0	0.0	7.45111	7.39328	-6.26064	15.42352	28.27139	1.27147	0.78649	134.58839	128.39688	50.77671	0.3253	 	2.587510254E7	 	2.08084E-7	 	32733.427	36.8716	 
825.0	1.0	0.0	7.45309	7.39132	-6.28546	15.4055	28.20994	1.26846	0.78836	135.2651	128.89975	51.03947	0.3251	 	2.903808648E7	 	1.84578E-7	 	32548.945	36.8964	 
820.0	1.0	0.0	7.45506	7.38937	-6.31023	15.38748	28.14851	1.26544	0.79024	135.94126	129.40099	51.30209	0.32491	 	3.262382768E7	 	1.63543E-7	 	32364.324	36.9242	 
815.0	1.0	0.0	7.45702	7.38742	-6.33495	15.36946	28.0871	1.26241	0.79214	136.61684	129.90057	51.56457	0.32472	 	3.669357509E7	 	1.44739E-7	 	32179.55	36.9548	 
810.0	1.0	0.0	7.45899	7.38547	-6.35962	15.35143	28.0257	1.25936	0.79405	137.29181	130.39846	51.8269	0.32452	 	4.131813097E7	 	1.27948E-7	 	31994.609	36.9882	 
805.0	1.0	0.0	7.46095	7.38353	-6.38424	15.33341	27.96433	1.2563	0.79599	137.96611	130.89463	52.08905	0.32433	 	4.657944629E7	 	1.12972E-7	 	31809.483	37.0252	 
800.0	1.0	0.0	7.46291	7.38159	-6.40881	15.31538	27.90297	1.25322	0.79794	138.63973	131.38906	52.35102	0.32414	 	5.257249999E7	 	9.96296E-8	 	31624.156	37.0654	 
795.0	1.0	0.0	7.46487	7.37966	-6.43334	15.29736	27.84164	1.25013	0.79992	139.31263	131.88171	52.6128	0.32394	 	5.940751579E7	 	8.77561E-8	 	31438.611	37.109	 
790.0	1.0	0.0	7.46682	7.37773	-6.45782	15.27933	27.78032	1.24702	0.80191	139.98476	132.37257	52.87436	0.32375	 	6.721258096E7	 	7.72024E-8	 	31252.828	37.1566	 
785.0	1.0	0.0	7.46877	7.3758	-6.48224	15.2613	27.71903	1.2439	0.80392	140.65609	132.86159	53.13569	0.32356	 	7.613674434E7	 	6.78328E-8	 	31066.789	37.2078	 
780.0	1.0	0.0	7.47072	7.37388	-6.50662	15.24327	27.65777	1.24077	0.80595	141.32659	133.34876	53.39679	0.32336	 	8.635368665E7	 	5.95245E-8	 	30880.473	37.2632	 
775.0	1.0	0.0	7.47266	7.37196	-6.53095	15.22524	27.59653	1.23762	0.808	141.99622	133.83404	53.65764	0.32317	 	9.806607551E7	 	5.21665E-8	 	30693.858	37.323	 
770.0	1.0	0.0	7.4746	7.37004	-6.55523	15.20721	27.53532	1.23445	0.81008	142.66495	134.31741	53.91822	0.32298	 	1.115107403E8	 	4.5658E-8	 	30506.922	37.3872	 
765.0	1.0	0.0	7.47654	7.36813	-6.57947	15.18917	27.47413	1.23127	0.81217	143.33274	134.79884	54.17852	0.32278	 	1.269648312E8	 	3.99083E-8	 	30319.64	37.4564	 
760.0	1.0	0.0	7.47848	7.36622	-6.60365	15.17114	27.41297	1.22808	0.81428	143.99954	135.2783	54.43853	0.32259	 	1.447531602E8	 	3.48355E-8	 	30131.987	37.5306	 
755.0	1.0	0.0	7.48041	7.36432	-6.62779	15.1531	27.35183	1.22486	0.81642	144.66534	135.75577	54.69823	0.3224	 	1.652569654E8	 	3.03657E-8	 	29943.936	37.6102	 
750.0	1.0	0.0	7.48234	7.36242	-6.65187	15.13507	27.29072	1.22164	0.81857	145.33009	136.23122	54.95761	0.3222	 	1.889243915E8	 	2.64325E-8	 	29755.457	37.6958	 
745.0	1.0	0.0	7.48427	7.36053	-6.67591	15.11703	27.22963	1.21839	0.82075	145.99375	136.70462	55.21666	0.32201	 	2.162830416E8	 	2.29761E-8	 	29566.521	37.7872	 
740.0	1.0	0.0	7.48619	7.35863	-6.6999	15.09899	27.16857	1.21514	0.82295	146.6563	137.17594	55.47536	0.32181	 	2.479550361E8	 	1.99429E-8	 	29377.095	37.8852	 
735.0	1.0	0.0	7.48811	7.35674	-6.72384	15.08095	27.10754	1.21186	0.82518	147.31769	137.64517	55.73369	0.32162	 	2.846751085E8	 	1.72847E-8	 	29187.144	37.9902	 
730.0	1.0	0.0	7.49003	7.35486	-6.74773	15.06291	27.04653	1.20857	0.82742	147.97789	138.11227	55.99166	0.32143	 	3.273123889E8	 	1.49586E-8	 	28996.63	38.1028	 
725.0	1.0	0.0	7.49195	7.35298	-6.77158	15.04486	26.98553	1.20526	0.82969	148.63687	138.57721	56.24923	0.32123	 	3.768966698E8	 	1.29259E-8	 	28805.515	38.223	 
720.0	1.0	0.0	7.49386	7.3511	-6.79537	15.02682	26.92456	1.20194	0.83199	149.29459	139.03998	56.50641	0.32104	 	4.346501351E8	 	1.11522E-8	 	28613.755	38.352	 
715.0	1.0	0.0	7.49577	7.34923	-6.81912	15.00878	26.86361	1.19861	0.8343	149.95101	139.50054	56.76317	0.32085	 	5.020257534E8	 	9.60691E-9	 	28421.306	38.4898	 
710.0	1.0	0.0	7.49768	7.34736	-6.84281	14.99073	26.80267	1.19525	0.83664	150.6061	139.95888	57.0195	0.32065	 	5.807538227E8	 	8.26256E-9	 	28228.117	38.6378	 
705.0	1.0	0.0	7.49958	7.3455	-6.86646	14.97268	26.74175	1.19188	0.83901	151.25983	140.41496	57.27539	0.32046	 	6.728984988E8	 	7.09484E-9	 	28034.136	38.7962	 
700.0	1.0	0.0	7.50148	7.34363	-6.89006	14.95464	26.68083	1.1885	0.8414	151.91215	140.86875	57.53082	0.32027	 	7.809265769E8	 	6.08214E-9	 	27839.305	38.9662	 
695.0	1.0	0.0	7.50338	7.34178	-6.91361	14.93659	26.61993	1.1851	0.84381	152.56304	141.32025	57.78579	0.32007	 	9.07791343E8	 	5.20527E-9	 	27643.564	39.1482	 
690.0	1.0	0.0	7.50528	7.33992	-6.93712	14.91854	26.55903	1.18168	0.84625	153.21246	141.76941	58.04027	0.31988	 	1.057034991E9	 	4.44725E-9	 	27446.843	39.3442	 
685.0	1.0	0.0	7.50717	7.33807	-6.96057	14.90048	26.49812	1.17825	0.84872	153.86037	142.21621	58.29425	0.31969	 	1.232913962E9	 	3.79304E-9	 	27249.072	39.5542	 
680.0	1.0	0.0	7.50906	7.33623	-6.98397	14.88243	26.43722	1.1748	0.85121	154.50674	142.66064	58.54773	0.31949	 	1.440552646E9	 	3.22938E-9	 	27050.169	39.7806	 
675.0	1.0	0.0	7.51094	7.33439	-7.00733	14.86438	26.37631	1.17133	0.85373	155.15154	143.10266	58.80069	0.3193	 	1.686132231E9	 	2.74456E-9	 	26850.049	40.024	 
670.0	1.0	0.0	7.51283	7.33255	-7.03064	14.84632	26.31539	1.16785	0.85627	155.79473	143.54226	59.0531	0.31911	 	1.977123232E9	 	2.32827E-9	 	26648.617	40.2864	 
665.0	1.0	0.0	7.51471	7.33071	-7.0539	14.82827	26.25445	1.16436	0.85884	156.43627	143.9794	59.30497	0.31891	 	2.32257238E9	 	1.97147E-9	 	26445.769	40.5696	 
660.0	1.0	0.0	7.51658	7.32888	-7.07711	14.81021	26.1935	1.16085	0.86144	157.07614	144.41407	59.55628	0.31872	 	2.733457351E9	 	1.6662E-9	 	26241.391	40.8756	 
655.0	1.0	0.0	7.51846	7.32706	-7.10027	14.79215	26.13252	1.15732	0.86406	157.71429	144.84623	59.80701	0.31853	 	3.223126303E9	 	1.40549E-9	 	26035.358	41.2066	 
650.0	1.0	0.0	7.52033	7.32523	-7.12338	14.77409	26.07151	1.15378	0.86671	158.35069	145.27588	60.05715	0.31833	 	3.8078437E9	 	1.18326E-9	 	25827.531	41.5654	 
645.0	1.0	0.0	7.5222	7.32341	-7.14644	14.75603	26.01046	1.15023	0.86939	158.98531	145.70297	60.30669	0.31814	 	4.507469629E9	 	9.94186E-10	 	25617.757	41.9548	 
640.0	1.0	0.0	7.52406	7.3216	-7.16946	14.73797	25.94938	1.14666	0.8721	159.61812	146.1275	60.55561	0.31795	 	5.346307187E9	 	8.33633E-10	 	25405.866	42.3782	 
635.0	1.0	0.0	7.52592	7.31979	-7.19242	14.71991	25.88825	1.14307	0.87484	160.24907	146.54943	60.80391	0.31775	 	6.354161927E9	 	6.97567E-10	 	25191.671	42.839	 
630.0	1.0	0.0	7.52778	7.31798	-7.21534	14.70185	25.82708	1.13947	0.8776	160.87814	146.96875	61.05156	0.31756	 	7.567669561E9	 	5.82485E-10	 	24974.961	43.342	 
625.0	1.0	0.0	7.52964	7.31618	-7.23821	14.68378	25.76585	1.13585	0.8804	161.50529	147.38542	61.29855	0.31737	 	9.031963779E9	 	4.85348E-10	 	24755.503	43.8916	 
620.0	1.0	0.0	7.53149	7.31438	-7.26103	14.66572	25.70456	1.13222	0.88322	162.13049	147.79944	61.54488	0.31717	 	1.08028E10	 	4.0353E-10	 	24533.035	44.4936	 
615.0	1.0	0.0	7.53334	7.31258	-7.2838	14.64765	25.64322	1.12858	0.88607	162.75371	148.21077	61.79053	0.31698	 	1.2949099999999998E10	 	3.3476E-10	 	24307.264	45.1542	 
610.0	1.0	0.0	7.53519	7.31079	-7.30652	14.62958	25.5818	1.12492	0.88895	163.3749	148.6194	62.03548	0.31679	 	1.5556499999999998E10	 	2.77083E-10	 	24056.567	50.1394	 
605.0	1.0	0.0	7.53703	7.309	-7.3292	14.61151	25.52031	1.12124	0.89187	163.99404	149.0253	62.27972	0.31659	 	1.87314E10	 	2.28815E-10	 	23801.543	51.0048	 
600.0	1.0	0.0	7.53887	7.30722	-7.35182	14.59344	25.45875	1.11756	0.89481	164.61109	149.42845	62.52324	0.3164	 	2.26066E10	 	1.88513E-10	 	23549.941	50.3204	 
595.0	1.0	0.0	7.54071	7.30544	-7.3744	14.57537	25.39712	1.11385	0.89778	165.22603	149.82883	62.76603	0.31621	 	2.7347899999999996E10	 	1.54938E-10	 	23301.625	49.6632	 
590.0	1.0	0.0	7.54254	7.30366	-7.39692	14.5573	25.33539	1.11014	0.90079	165.83881	150.22642	63.00807	0.31601	 	3.3163299999999996E10	 	1.27033E-10	 	23056.467	49.0316	 
585.0	1.0	0.0	7.54437	7.30189	-7.4194	14.53922	25.27359	1.1064	0.90383	166.4494	150.62119	63.24935	0.31582	 	4.0314E10	 	1.03895E-10	 	22814.344	48.4246	 
580.0	1.0	0.0	7.5462	7.30012	-7.44183	14.52115	25.2117	1.10266	0.9069	167.05777	151.01313	63.48986	0.31563	 	4.912909999999999E10	 	8.47566E-11	 	22575.143	47.8402	 
575.0	1.0	0.0	7.54803	7.29835	-7.46421	14.50307	25.14971	1.0989	0.91	167.66389	151.40221	63.72959	0.31543	 	6.002439999999999E10	 	6.89655E-11	 	22338.753	47.278	 
570.0	1.0	0.0	7.54985	7.29659	-7.48654	14.48499	25.08764	1.09512	0.91314	168.26772	151.78841	63.96851	0.31524	 	7.35266E10	 	5.5969E-11	 	22105.072	46.7362	 
565.0	1.0	0.0	7.55167	7.29483	-7.50882	14.46692	25.02547	1.09133	0.91631	168.86924	152.17172	64.20662	0.31505	 	9.03049E10	 	4.52999E-11	 	21874.001	46.2142	 
560.0	1.0	0.0	7.55348	7.29308	-7.53106	14.44884	24.96321	1.08753	0.91952	169.4684	152.55211	64.44391	0.31485	 	1.11212E11	 	3.65645E-11	 	21645.448	45.7106	 
555.0	1.0	0.0	7.5553	7.29133	-7.55324	14.43076	24.90085	1.08371	0.92276	170.06518	152.92956	64.68036	0.31466	 	1.37336E11	 	2.94313E-11	 	21419.326	45.2244	 
550.0	1.0	0.0	7.55711	7.28958	-7.57538	14.41268	24.8384	1.07987	0.92603	170.65954	153.30406	64.91597	0.31447	 	1.70075E11	 	2.36225E-11	 	21195.552	44.7548	 
545.0	1.0	0.0	7.55891	7.28784	-7.59747	14.39459	24.77585	1.07602	0.92935	171.25146	153.67558	65.15071	0.31427	 	2.11222E11	 	1.89052E-11	 	20974.046	44.3012	 
540.0	1.0	0.0	7.56071	7.2861	-7.6195	14.37651	24.71321	1.07216	0.9327	171.84089	154.0441	65.38457	0.31408	 	2.63092E11	 	1.50852E-11	 	20754.734	43.8624	 
535.0	1.0	0.0	7.56252	7.28437	-7.64149	14.35842	24.65047	1.06828	0.93609	172.42781	154.40961	65.61755	0.31388	 	3.28677E11	 	1.20008E-11	 	20537.546	43.4376	 
530.0	1.0	0.0	7.56431	7.28264	-7.66343	14.34034	24.58764	1.06438	0.93951	173.01219	154.77208	65.84963	0.31369	 	4.11863E11	 	9.51767E-12	 	20322.413	43.0266	 
525.0	1.0	0.0	7.56611	7.28091	-7.68532	14.32225	24.52473	1.06047	0.94298	173.59399	155.1315	66.0808	0.3135	 	5.17707E11	 	7.52467E-12	 	20109.272	42.6282	 
520.0	1.0	0.0	7.5679	7.27919	-7.70717	14.30416	24.46172	1.05654	0.94649	174.17318	155.48784	66.31104	0.3133	 	6.52814E11	 	5.92997E-12	 	19898.063	42.2418	 
515.0	1.0	0.0	7.56968	7.27747	-7.72896	14.28607	24.39863	1.05259	0.95003	174.74974	155.84109	66.54034	0.31311	 	8.25846E11	 	4.65797E-12	 	19688.727	41.8672	 
510.0	1.0	0.0	7.57147	7.27576	-7.75071	14.26798	24.33545	1.04863	0.95362	175.32362	156.19124	66.7687	0.31292	 	1.04819E12	 	3.64662E-12	 	19481.21	41.5034	 
505.0	1.0	0.0	7.57325	7.27404	-7.7724	14.24989	24.2722	1.04465	0.95726	175.8948	156.53825	66.99609	0.31272	 	1.33489E12	 	2.84515E-12	 	19275.46	41.15	 
500.0	1.0	0.0	7.57503	7.27234	-7.79405	14.2318	24.20887	1.04066	0.96093	176.46325	156.88213	67.22251	0.31253	 	1.70585E12	 	2.21213E-12	 	19071.427	40.8066	 
495.0	1.0	0.0	7.5768	7.27063	-7.81565	14.2137	24.14546	1.03664	0.96465	177.02894	157.22284	67.44794	0.31234	 	2.18756E12	 	1.71385E-12	 	18869.064	40.4726	 
490.0	1.0	0.0	7.57857	7.26893	-7.8372	14.19561	24.08199	1.03261	0.96842	177.59183	157.56036	67.67238	0.31214	 	2.81536E12	 	1.32301E-12	 	18668.326	40.1476	 
485.0	1.0	0.0	7.58034	7.26724	-7.8587	14.17751	24.01846	1.02856	0.97224	178.1519	157.8947	67.8958	0.31195	 	3.6366E12	 	1.01753E-12	 	18469.171	39.831	 
480.0	1.0	0.0	7.58211	7.26555	-7.88015	14.15942	23.95486	1.02448	0.9761	178.70911	158.22582	68.11821	0.31176	 	4.71496E12	 	7.79633E-13	 	18271.556	39.523	 
475.0	1.0	0.0	7.58387	7.26386	-7.90155	14.14132	23.89121	1.02039	0.98001	179.26344	158.5537	68.33958	0.31156	 	6.13643E12	 	5.95058E-13	 	18075.443	39.2226	 
470.0	1.0	0.0	7.58563	7.26217	-7.92291	14.12322	23.82751	1.01629	0.98398	179.81486	158.87834	68.5599	0.31137	 	8.0176E12	 	4.52396E-13	 	17880.796	38.9294	 
465.0	1.0	0.0	7.58738	7.26049	-7.94421	14.10512	23.76376	1.01216	0.98799	180.36333	159.19972	68.77917	0.31118	 	1.05172E13	 	3.42557E-13	 	17687.578	38.6436	 
460.0	1.0	0.0	7.58914	7.25882	-7.96547	14.08702	23.69997	1.00801	0.99206	180.90884	159.51782	68.99736	0.31098	 	1.38521E13	 	2.58323E-13	 	17495.755	38.3646	 
455.0	1.0	0.0	7.59089	7.25714	-7.98667	14.06891	23.63614	1.00383	0.99618	181.45134	159.83263	69.21448	0.31079	 	1.83204E13	 	1.93987E-13	 	17305.296	38.0918	 
450.0	1.0	0.0	7.59263	7.25548	-8.00783	14.05081	23.57228	0.99964	1.00036	181.9908	160.14413	69.43051	0.3106	 	2.43328E13	 	1.45052E-13	 	17116.168	37.8256	 
445.0	1.0	0.0	7.59437	7.25381	-8.02894	14.0327	23.5084	0.99543	1.00459	182.52722	160.4523	69.64543	0.3104	 	3.24585E13	 	1.07987E-13	 	16928.342	37.5652	 
440.0	1.0	0.0	7.59611	7.25215	-8.05	14.0146	23.44448	0.99119	1.00889	183.06054	160.75713	69.85923	0.31021	 	4.34896E13	 	8.00355E-14	 	16741.79	37.3104	 
435.0	1.0	0.0	7.59785	7.25049	-8.07101	13.99649	23.38055	0.98693	1.01324	183.59075	161.05861	70.07191	0.31002	 	5.85332E13	 	5.90486E-14	 	16556.484	37.0612	 
430.0	1.0	0.0	7.59958	7.24884	-8.09197	13.97838	23.3166	0.98265	1.01765	184.11781	161.35672	70.28346	0.30982	 	7.91451E13	 	4.33622E-14	 	16372.399	36.817	 
425.0	1.0	0.0	7.60131	7.24719	-8.11288	13.96027	23.25264	0.97835	1.02213	184.6417	161.65145	70.49385	0.30963	 	1.07521E14	 	3.16915E-14	 	16189.508	36.5782	 
420.0	1.0	0.0	7.60304	7.24554	-8.13375	13.94216	23.18867	0.97402	1.02667	185.1624	161.94279	70.70309	0.30944	 	1.46776E14	 	2.30494E-14	 	16007.787	36.3442	 
415.0	1.0	0.0	7.60476	7.2439	-8.15456	13.92405	23.1247	0.96967	1.03128	185.67987	162.23071	70.91116	0.30924	 	2.01352E14	 	1.66807E-14	 	15827.214	36.1146	 
410.0	1.0	0.0	7.60648	7.24227	-8.17533	13.90594	23.06072	0.9653	1.03595	186.19409	162.51522	71.11804	0.30905	 	2.7761399999999997E14	 	1.20105E-14	 	15647.766	35.8896	 
405.0	1.0	0.0	7.6082	7.24063	-8.19605	13.88782	22.99675	0.9609	1.04069	186.70504	162.79629	71.32374	0.30886	 	3.84735E14	 	8.60303E-15	 	15469.422	35.6688	 
400.0	1.0	0.0	7.60991	7.239	-8.21671	13.86971	22.93278	0.95647	1.04551	187.21268	163.07392	71.52824	0.30866	 	5.3600099999999994E14	 	6.12962E-15	 	15292.16	35.4524	 
395.0	1.0	0.0	7.61162	7.23737	-8.23733	13.85159	22.86882	0.95202	1.05039	187.71699	163.34809	71.73152	0.30847	 	7.50765E14	 	4.34367E-15	 	15115.962	35.2396	 
390.0	1.0	0.0	7.61333	7.23575	-8.2579	13.83347	22.80486	0.94755	1.05535	188.21795	163.6188	71.93358	0.30828	 	1.05738E15	 	3.06103E-15	 	14940.807	35.031	 
385.0	1.0	0.0	7.61503	7.23413	-8.27843	13.81536	22.74091	0.94305	1.06039	188.71552	163.88602	72.13441	0.30808	 	1.49761E15	 	2.14493E-15	 	14766.678	34.8258	 
380.0	1.0	0.0	7.61673	7.23252	-8.2989	13.79724	22.67698	0.93852	1.0655	189.2097	164.14975	72.334	0.30789	 	2.13335E15	 	1.4943E-15	 	14593.556	34.6244	 
375.0	1.0	0.0	7.61843	7.23091	-8.31932	13.77912	22.61306	0.93397	1.0707	189.70045	164.40998	72.53233	0.3077	 	3.05687E15	 	1.03487E-15	 	14421.424	34.4264	 
370.0	1.0	0.0	7.62012	7.2293	-8.33969	13.76099	22.54915	0.92939	1.07597	190.18775	164.6667	72.72941	0.3075	 	4.40661E15	 	7.12351E-16	 	14250.265	34.2318	 
365.0	1.0	0.0	7.62181	7.2277	-8.36002	13.74287	22.48526	0.92479	1.08133	190.67157	164.91991	72.92522	0.30731	 	6.39152E15	 	4.8731E-16	 	14080.064	34.0402	 
360.0	1.0	0.0	7.6235	7.2261	-8.3803	13.72475	22.42139	0.92016	1.08677	191.1519	165.16958	73.11974	0.30712	 	9.32901E15	 	3.31252E-16	 	13910.804	33.852	 
355.0	1.0	0.0	7.62518	7.2245	-8.40052	13.70662	22.35753	0.9155	1.0923	191.62871	165.41571	73.31298	0.30692	 	1.37045E16	 	2.23711E-16	 	13742.471	33.6666	 
350.0	1.0	0.0	7.62686	7.22291	-8.4207	13.6885	22.29369	0.91081	1.09792	192.10198	165.6583	73.50492	0.30673	 	2.02653E16	 	1.50082E-16	 	13575.05	33.4842	 
345.0	1.0	0.0	7.62854	7.22133	-8.44083	13.67037	22.22986	0.9061	1.10363	192.57169	165.89734	73.69556	0.30654	 	3.01696E16	 	1.00003E-16	 	13408.527	33.3046	 
340.0	1.0	0.0	7.63021	7.21974	-8.46091	13.65224	22.16605	0.90136	1.10944	193.03781	166.13282	73.88488	0.30634	 	4.52256E16	 	6.61712E-17	 	13242.888	33.1278	 
335.0	1.0	0.0	7.63188	7.21816	-8.48094	13.63411	22.10226	0.89659	1.11534	193.50034	166.36473	74.07287	0.30615	 	6.8276100000000008E16	 	4.34739E-17	 	13078.12	32.9536	 
330.0	1.0	0.0	7.63355	7.21659	-8.50092	13.61598	22.03848	0.89179	1.12134	193.95924	166.59307	74.25954	0.30596	 	1.03823E17	 	2.83542E-17	 	12914.21	32.782	 
325.0	1.0	0.0	7.63521	7.21501	-8.52085	13.59785	21.97471	0.88696	1.12744	194.41451	166.81783	74.44487	0.30576	 	1.59052E17	 	1.83551E-17	 	12751.145	32.613	 
320.0	1.0	0.0	7.63687	7.21345	-8.54074	13.57971	21.91096	0.88211	1.13365	194.86611	167.03901	74.62885	0.30557	 	2.45516E17	 	1.17916E-17	 	12588.914	32.4462	 
315.0	1.0	0.0	7.63853	7.21188	-8.56057	13.56158	21.84722	0.87722	1.13996	195.31404	167.2566	74.81148	0.30537	 	3.81941E17	 	7.51585E-18	 	12427.504	32.282	 
310.0	1.0	0.0	7.64018	7.21032	-8.58036	13.54345	21.78349	0.87231	1.14638	195.75828	167.47061	74.99275	0.30518	 	5.98926E17	 	4.75219E-18	 	12266.904	32.12	 
305.0	1.0	0.0	7.64183	7.20876	-8.60009	13.52531	21.71977	0.86737	1.15291	196.19881	167.68101	75.17265	0.30499	 	9.4688E17	 	2.98011E-18	 	12107.103	31.9602	 
300.0	1.0	0.0	7.64348	7.20721	-8.61978	13.50717	21.65605	0.8624	1.15956	196.63562	167.88782	75.35117	0.30479	 	1.50956E18	 	1.85312E-18	 	11948.091	31.8024	 
295.0	1.0	0.0	7.64512	7.20566	-8.63942	13.48903	21.59235	0.85739	1.16632	197.06869	168.09104	75.52832	0.3046	 	2.42736E18	 	1.14239E-18	 	11789.856	31.647	 
290.0	1.0	0.0	7.64676	7.20412	-8.65901	13.47089	21.52865	0.85236	1.17321	197.498	168.29065	75.70408	0.30441	 	3.93765E18	 	6.98029E-19	 	11632.389	31.4934	 
285.0	1.0	0.0	7.6484	7.20258	-8.67855	13.45275	21.46495	0.8473	1.18022	197.92355	168.48667	75.87846	0.30421	 	6.44555E18	 	4.22647E-19	 	11475.68	31.3418	 
280.0	1.0	0.0	7.65003	7.20104	-8.69804	13.43461	21.40125	0.84221	1.18735	198.34533	168.67909	76.05143	0.30402	 	1.06489E19	 	2.53528E-19	 	11319.719	31.1922	 
275.0	1.0	0.0	7.65166	7.19951	-8.71748	13.41647	21.33756	0.83709	1.19461	198.76332	168.86791	76.223	0.30383	 	1.77612E19	 	1.50631E-19	 	11164.496	31.0446	 
270.0	1.0	0.0	7.65328	7.19798	-8.73687	13.39832	21.27386	0.83194	1.20201	199.17751	169.05313	76.39317	0.30363	 	2.99142E19	 	8.86194E-20	 	11010.003	30.8986	 
265.0	1.0	0.0	7.65491	7.19645	-8.75622	13.38018	21.21016	0.82676	1.20955	199.58789	169.23477	76.56193	0.30344	 	5.08897E19	 	5.16131E-20	 	10856.231	30.7544	 
260.0	1.0	0.0	7.65653	7.19493	-8.77551	13.36203	21.14646	0.82154	1.21722	199.99446	169.41281	76.72928	0.30325	 	8.74678E19	 	2.97501E-20	 	10703.172	30.6118	 
255.0	1.0	0.0	7.65814	7.19341	-8.79475	13.34388	21.08274	0.8163	1.22505	200.39721	169.58728	76.89521	0.30305	 	1.51934E20	 	1.69664E-20	 	10550.816	30.4712	 
250.0	1.0	0.0	7.65975	7.1919	-8.81395	13.32574	21.01902	0.81102	1.23302	200.79613	169.75816	77.05972	0.30286	 	2.6679199999999997E20	 	9.57063E-21	 	10399.156	30.332	 
245.0	1.0	0.0	7.66136	7.19039	-8.8331	13.30759	20.95529	0.80571	1.24114	201.19123	169.92548	77.2228	0.30267	 	4.7373499999999997E20	 	5.33835E-21	 	10248.184	30.1944	 
240.0	1.0	0.0	7.66297	7.18888	-8.8522	13.28943	20.89155	0.80037	1.24942	201.58249	170.08923	77.38447	0.30247	 	8.509019999999999E20	 	2.94341E-21	 	10097.892	30.0584	 
235.0	1.0	0.0	7.66457	7.18738	-8.87124	13.27128	20.8278	0.795	1.25786	201.96991	170.24944	77.54471	0.30228	 	1.54649E21	 	1.60373E-21	 	9948.274	29.9236	 
230.0	1.0	0.0	7.66617	7.18588	-8.89024	13.25313	20.76403	0.78959	1.26647	202.3535	170.40609	77.70353	0.30209	 	2.84501E21	 	8.63179E-22	 	9799.321	29.7906	 
225.0	1.0	0.0	7.66776	7.18438	-8.90919	13.23498	20.70024	0.78416	1.27526	202.73325	170.55922	77.86092	0.30189	 	5.299600000000001E21	 	4.58779E-22	 	9651.028	29.6586	 
220.0	1.0	0.0	7.66935	7.18289	-8.92809	13.21682	20.63644	0.77869	1.28422	203.10918	170.70883	78.01688	0.3017	 	9.99969E21	 	2.40702E-22	 	9503.386	29.5284	 
215.0	1.0	0.0	7.67094	7.18141	-8.94695	13.19866	20.57261	0.77318	1.29336	203.48128	170.85494	78.17142	0.30151	 	1.91196E22	 	1.24612E-22	 	9356.391	29.399	 
210.0	1.0	0.0	7.67253	7.17992	-8.96575	13.18051	20.50877	0.76764	1.30269	203.84956	170.99756	78.32455	0.30131	 	3.7058999999999997E22	 	6.36319E-23	 	9210.035	29.2712	 
205.0	1.0	0.0	7.67411	7.17845	-8.9845	13.16235	20.4449	0.76207	1.31221	204.21403	171.1367	78.47625	0.30112	 	7.284699999999999E22	 	3.20361E-23	 	9064.313	29.1444	 
200.0	1.0	0.0	7.67568	7.17697	-9.00321	13.14419	20.381	0.75647	1.32193	204.57469	171.2724	78.62653	0.30093	 	1.4528499999999998E23	 	1.58951E-23	 	8919.219	29.0188	 
195.0	1.0	0.0	7.67726	7.1755	-9.02186	13.12603	20.31708	0.75083	1.33186	204.93157	171.40466	78.77541	0.30073	 	2.9411599999999998E23	 	7.76879E-24	 	8774.747	28.8944	 
190.0	1.0	0.0	7.67883	7.17403	-9.04047	13.10786	20.25314	0.74516	1.342	205.28468	171.53351	78.92288	0.30054	 	6.04656E23	 	3.73852E-24	 	8630.891	28.7712	 
185.0	1.0	0.0	7.68039	7.17257	-9.05903	13.0897	20.18916	0.73945	1.35236	205.63403	171.65898	79.06894	0.30035	 	1.26301E24	 	1.77047E-24	 	8487.648	28.6486	 
180.0	1.0	0.0	7.68196	7.17111	-9.07753	13.07154	20.12515	0.7337	1.36295	205.97964	171.78109	79.21362	0.30015	 	2.68185E24	 	8.24696E-25	 	8345.012	28.5272	 
175.0	1.0	0.0	7.68352	7.16965	-9.09599	13.05337	20.06112	0.72792	1.37377	206.32153	171.89986	79.3569	0.29996	 	5.792E24	 	3.77643E-25	 	8202.978	28.4068	 
170.0	1.0	0.0	7.68507	7.1682	-9.1144	13.0352	19.99704	0.72211	1.38483	206.65974	172.01534	79.49881	0.29977	 	1.27301E25	 	1.69905E-25	 	8061.542	28.2872	 
165.0	1.0	0.0	7.68663	7.16675	-9.13276	13.01704	19.93294	0.71626	1.39615	206.99428	172.12754	79.63936	0.29957	 	2.84906E25	 	7.50599E-26	 	7920.7	28.1684	 
160.0	1.0	0.0	7.68818	7.16531	-9.15107	12.99887	19.86879	0.71037	1.40772	207.32518	172.23651	79.77854	0.29938	 	6.49688E25	 	3.25402E-26	 	7780.448	28.0504	 
155.0	1.0	0.0	7.68972	7.16387	-9.16933	12.9807	19.80461	0.70445	1.41956	207.65249	172.34228	79.91638	0.29919	 	1.5105100000000001E26	 	1.38344E-26	 	7640.783	27.933	 
150.0	1.0	0.0	7.69126	7.16243	-9.18755	12.96253	19.74039	0.69848	1.43167	207.97624	172.4449	80.0529	0.29899	 	3.58302E26	 	5.7641E-27	 	7501.701	27.8164	 
145.0	1.0	0.0	7.6928	7.161	-9.20571	12.94435	19.67613	0.69248	1.44408	208.29646	172.5444	80.18809	0.2988	 	8.677480000000001E26	 	2.35193E-27	 	7363.199	27.7004	 
140.0	1.0	0.0	7.69434	7.15957	-9.22382	12.92618	19.61183	0.68645	1.45678	208.6132	172.64083	80.32199	0.29861	 	2.1472299999999998E27	 	9.39108E-28	 	7225.274	27.585	 
135.0	1.0	0.0	7.69587	7.15815	-9.24189	12.90801	19.54748	0.68037	1.46978	208.92652	172.73424	80.45461	0.29841	 	5.43306E27	 	3.66658E-28	 	7087.924	27.47	 
130.0	1.0	0.0	7.6974	7.15672	-9.2599	12.88983	19.48309	0.67426	1.48311	209.23646	172.82469	80.58596	0.29822	 	1.4068500000000001E28	 	1.39864E-28	 	6951.147	27.3554	 
125.0	1.0	0.0	7.69892	7.15531	-9.27787	12.87165	19.41865	0.66811	1.49677	209.54308	172.91222	80.71608	0.29803	 	3.73133E28	 	5.20798E-29	 	6814.941	27.2412	 
120.0	1.0	0.0	7.70044	7.15389	-9.29579	12.85348	19.35416	0.66191	1.51077	209.84644	172.9969	80.84498	0.29783	 	1.01458E29	 	1.89129E-29	 	6679.304	27.1274	 
115.0	1.0	0.0	7.70196	7.15248	-9.31365	12.8353	19.28962	0.65568	1.52513	210.14661	173.07879	80.97269	0.29764	 	2.83093E29	 	6.69201E-30	 	6544.235	27.0138	 
110.0	1.0	0.0	7.70347	7.15108	-9.33147	12.81712	19.22503	0.64941	1.53986	210.44367	173.15796	81.09924	0.29745	 	8.113910000000001E29	 	2.30476E-30	 	6409.733	26.9004	 
105.0	1.0	0.0	7.70498	7.14968	-9.34924	12.79894	19.16038	0.6431	1.55497	210.73769	173.23448	81.22465	0.29725	 	2.39138E30	 	7.71796E-31	 	6275.799	26.7868	 
100.0	1.0	0.0	7.70649	7.14828	-9.36696	12.78076	19.09568	0.63675	1.57049	211.02875	173.30843	81.34897	0.29706	 	7.255519999999999E30	 	2.51016E-31	 	6142.431	26.6736	 
95.0	1.0	0.0	7.70799	7.14689	-9.38463	12.76257	19.03091	0.63035	1.58642	211.31696	173.3799	81.47222	0.29687	 	2.26883E31	 	7.91972E-32	 	6009.631	26.56	 
90.0	1.0	0.0	7.70949	7.1455	-9.40225	12.74439	18.96609	0.62392	1.60278	211.6024	173.44896	81.59444	0.29667	 	7.32128E31	 	2.42095E-32	 	5877.399	26.4464	 
85.0	1.0	0.0	7.71099	7.14411	-9.41983	12.7262	18.9012	0.61744	1.6196	211.88519	173.51572	81.71567	0.29648	 	2.44115E32	 	7.16072E-33	 	5745.736	26.3326	 
80.0	1.0	0.0	7.71248	7.14273	-9.43735	12.70801	18.83625	0.61092	1.63688	212.16544	173.58027	81.83596	0.29628	 	8.422229999999999E32	 	2.04653E-33	 	5614.644	26.2184	 
75.0	1.0	0.0	7.71397	7.14135	-9.45482	12.68983	18.77123	0.60435	1.65466	212.44327	173.64273	81.95535	0.29609	 	3.01107E33	 	5.64329E-34	 	5484.126	26.1036	 
70.0	1.0	0.0	7.71545	7.13998	-9.47225	12.67164	18.70614	0.59775	1.67295	212.71882	173.7032	82.07389	0.2959	 	1.1172500000000002E34	 	1.49907E-34	 	5354.184	25.9884	 
65.0	1.0	0.0	7.71693	7.13861	-9.48962	12.65345	18.64097	0.5911	1.69177	212.99223	173.76182	82.19165	0.2957	 	4.30952E34	 	3.82973E-35	 	5224.821	25.8726	 
60.0	1.0	0.0	7.71841	7.13724	-9.50695	12.63526	18.57573	0.5844	1.71115	213.26365	173.8187	82.30867	0.29551	 	1.73107E35	 	9.39317E-36	 	5096.043	25.7556	 
55.0	1.0	0.0	7.71989	7.13588	-9.52422	12.61706	18.51041	0.57766	1.73112	213.53325	173.87399	82.42503	0.29532	 	7.254559999999999E35	 	2.20774E-36	 	4967.852	25.6382	 
50.0	1.0	0.0	7.72136	7.13452	-9.54145	12.59887	18.44501	0.57088	1.75169	213.80121	173.92785	82.54079	0.29512	 	3.17813E36	 	4.96271E-37	 	4840.255	25.5194	 
45.0	1.0	0.0	7.72282	7.13316	-9.55863	12.58068	18.37952	0.56405	1.7729	214.06772	173.98042	82.65602	0.29493	 	1.4584899999999999E37	 	1.06467E-37	 	4713.257	25.3996	 
40.0	1.0	0.0	7.72428	7.13181	-9.57576	12.56248	18.31393	0.55717	1.79478	214.33299	174.03189	82.77081	0.29474	 	7.02705E37	 	2.17503E-38	 	4586.866	25.2782	 
35.0	1.0	0.0	7.72574	7.13047	-9.59284	12.54428	18.24826	0.55025	1.81736	214.59723	174.08243	82.88523	0.29454	 	3.56293E38	 	4.22126E-39	 	4461.089	25.1554	 
30.0	1.0	0.0	7.7272	7.12912	-9.60987	12.52609	18.18248	0.54328	1.84068	214.8607	174.13224	82.99939	0.29435	 	1.90591E39	 	7.76323E-40	 	4335.935	25.0308	 
25.0	1.0	0.0	7.72865	7.12778	-9.62685	 	18.1166	0.53626	1.86477	215.12365	174.18154	83.11339	0.29416	 	1.07852E40	 	1.34926E-40	 	4211.414	 	 
