T (C)	Fraction solid (wt)-TOTAL	Fraction liquid (wt)-LIQUID	Density (g/(cm)^3)-TOTAL	Molar volume (cm^3)-TOTAL	Volume change (%)-  	Average expansion coeff. (10e-6 1/K)-  	Thermal conductivity (W/(m*K))-TOTAL	Electrical resistivity (10e-6 Ohm*m)-TOTAL	Electrical conductivity (10e6 1/(Ohm*m))-TOTAL	Young's modulus (GPa)-TOTAL	Bulk modulus (GPa)-TOTAL	Shear modulus(GPa)-TOTAL	Poisson's ratio-TOTAL	Liquid viscosity (mPa s)-  	Total viscosity (mPa s)-  	Liquid diffusivity (10e-9 (m^2)/s)-  	Total diffusivity (10e-9 (m^2)/s)-  	Surface Tension (mN/m)-  	Enthalpy (J/mole)-TOTAL	Specific heat (J/(mole K))-TOTAL	Latent heat (J/mole)-TOTAL
1500.0	0.0	1.0	6.93909	7.86671	0.0	27.95201	32.50357	1.77759	0.56256	0.0	104.78879	0.0	0.49819	6.60098	6.60098	1.31106	1.31106	1648.73864	64972.399	 	0.0
1495.0	0.0	1.0	6.94297	7.86232	-0.0558429	27.9048	32.42924	1.77664	0.56286	0.0	104.97757	0.0	0.49819	6.65825	6.65825	1.29612	1.29612	1649.43136	64751.496	44.1806	0.0
1490.0	0.0	1.0	6.94684	7.85794	-0.11153	27.85766	32.3549	1.77569	0.56316	0.0	105.16636	0.0	0.49819	6.71634	6.71634	1.28128	1.28128	1650.10882	64531.104	44.0784	0.0
1485.0	0.0	1.0	6.95071	7.85357	-0.16706	27.81059	32.28055	1.77473	0.56347	0.0	105.35514	0.0	0.49819	6.77528	6.77528	1.26653	1.26653	1650.77085	64311.22	43.9768	0.0
1480.0	0.0	1.0	6.95456	7.84921	-0.22244	27.76361	32.2062	1.77377	0.56377	0.0	105.54393	0.0	0.49819	6.83508	6.83508	1.25188	1.25188	1651.4173	64091.839	43.8762	0.0
1475.0	0.0	1.0	6.95842	7.84487	-0.27766	27.7167	32.13184	1.7728	0.56408	0.0	105.73271	0.0	0.49819	6.89575	6.89575	1.23733	1.23733	1652.04798	63872.96	43.7758	0.0
1470.0	0.0	1.0	6.96226	7.84054	-0.33273	27.66986	32.05747	1.77184	0.56439	0.0	105.9215	0.0	0.49819	6.95731	6.95731	1.22287	1.22287	1652.66274	63654.578	43.6764	0.0
1465.0	0.0	1.0	6.9661	7.83622	-0.38764	27.62311	31.98309	1.77086	0.5647	0.0	106.11029	0.0	0.49819	7.01978	7.01978	1.20851	1.20851	1653.2614	63436.691	43.5774	0.0
1460.0	0.0	1.0	6.96993	7.83191	-0.44239	27.57644	31.9087	1.76988	0.56501	0.0	106.29907	0.0	0.49819	7.08317	7.08317	1.19425	1.19425	1653.84379	63219.295	43.4792	0.0
1455.0	0.0	1.0	6.97375	7.82761	-0.49699	27.52984	31.83431	1.7689	0.56532	0.0	106.48786	0.0	0.49819	7.14751	7.14751	1.18008	1.18008	1654.40975	63002.387	43.3816	0.0
1450.0	0.0	1.0	6.97757	7.82333	-0.55144	27.48333	31.75991	1.76792	0.56564	0.0	106.67664	0.0	0.49819	7.21282	7.21282	1.16602	1.16602	1654.95908	62785.987	43.28	0.0
1445.0	0.0	1.0	6.98138	7.81906	-0.60573	27.4369	31.6855	1.76693	0.56595	0.0	106.86543	0.0	0.49819	7.2791	7.2791	1.15205	1.15205	1655.49163	62570.129	43.1716	0.0
1440.0	0.0	1.0	6.98519	7.8148	-0.65986	27.39056	31.61108	1.76593	0.56627	0.0	107.05421	0.0	0.49819	7.34639	7.34639	1.13817	1.13817	1656.00721	62354.806	43.0646	0.0
1435.0	0.0	1.0	6.98898	7.81056	-0.71384	27.34429	31.53666	1.76493	0.56659	0.0	107.243	0.0	0.49819	7.4147	7.4147	1.1244	1.1244	1656.50566	62140.014	42.9584	0.0
1430.0	0.0	1.0	6.99278	7.80632	-0.76766	27.29812	31.46223	1.76393	0.56692	0.0	107.43178	0.0	0.49819	7.48405	7.48405	1.11072	1.11072	1656.98678	61925.749	42.853	0.0
1426.86	0.0	1.0	6.99515	7.80367	-0.80136	27.26918	31.41551	1.7633	0.56712	0.0	107.55025	0.0	0.49819	7.52811	7.52811	1.10218	1.10218	1657.2798	61791.558	42.768	0.0020
1425.0	0.05181	0.94819	7.00457	7.7931	-0.93578	26.9458	31.58892	1.7517	0.57087	4.04772E-4	105.64325	1.35774E-4	0.49061	7.54102	8.10015	1.09909	1.02322	1654.32942	61251.525	289.974	460.482
1420.0	0.17421	0.82579	7.02722	7.76796	-1.25526	26.18459	32.00274	1.72396	0.58006	0.0527645	101.19641	0.0179153	0.47261	7.57626	13.31043	1.09075	0.62086	1646.62775	59952.91	259.723	1545.879
1416.62	0.24336	0.75664	7.04033	7.75362	-1.43761	25.75739	32.23637	1.70804	0.58547	0.20337	98.73166	0.0695328	0.46238	7.60066	25.38542	1.08508	0.32488	1641.61327	59197.287	 	2157.586
1415.0	0.2936	0.7064	7.04918	7.74384	-1.56192	25.45241	32.34902	1.70046	0.58807	0.32652	97.77037	0.11218	0.45542	7.61204	48.11895	1.08242	0.17123	1638.33872	58594.621	271.658	2691.465
1410.0	0.42659	0.57341	7.07296	7.71788	-1.8919	24.65188	32.64439	1.68009	0.59521	1.09435	95.46836	0.38081	0.43686	7.6483	221.22352	1.0741	0.0371346	1628.61885	56971.42	324.64	4102.479
1405.0	0.52708	0.47292	7.09169	7.69758	-2.14998	24.04072	32.8577	1.66422	0.60088	2.67713	93.92206	0.94087	0.42268	7.68541	562.5355	1.06574	0.0145602	1619.45493	55697.294	254.825	5164.927
1400.0	0.6048	0.3952	7.10687	7.68133	-2.35652	23.5655	33.01148	1.65153	0.6055	5.24212	92.86581	1.85679	0.41161	7.72365	1055.25226	1.0573	0.00773865	1610.79395	54667.53	205.953	5983.518
1395.0	0.66614	0.33386	7.11954	7.66784	-2.52798	23.18273	33.12043	1.64118	0.60932	8.75494	92.14714	3.12057	0.40278	7.76275	1668.54971	1.04883	0.00487958	1602.59464	53813.528	170.8	6626.85
1390.0	0.71539	0.28461	7.13038	7.6564	-2.6734	22.86862	33.19494	1.63259	0.61252	13.03146	91.67119	4.6687	0.39562	7.80264	2374.30927	1.04034	0.00341886	1594.81418	53088.99	144.908	7141.217
1385.0	0.75555	0.24445	7.1398	7.64657	-2.79837	22.60852	33.24459	1.62525	0.61529	17.81301	91.37486	6.40885	0.38972	7.84403	3151.49177	1.03174	0.002568	1587.41024	52461.839	125.43	7558.695
1380.0	0.78872	0.21128	7.1482	7.63787	-2.909	22.38612	33.27406	1.61892	0.6177	22.83972	91.21298	8.24662	0.38479	7.88625	3985.63313	1.02312	0.00202442	1580.35481	51909.324	110.503	7902.03
1375.0	0.81646	0.18354	7.15578	7.6301	-3.00779	22.19494	33.28793	1.61335	0.61983	27.89768	91.15459	10.10328	0.38063	7.92959	4868.87012	1.01446	0.00165217	1573.61226	51414.966	98.8716	8187.698
1370.0	0.83989	0.16011	7.16274	7.62299	-3.09811	22.02592	33.28903	1.6084	0.62174	32.82834	91.17587	11.91973	0.37706	7.97403	5796.0515	1.00574	0.00138367	1567.16059	50966.604	89.6724	8427.858
1365.0	0.85988	0.14012	7.16921	7.61643	-3.18158	21.87478	33.27998	1.60394	0.62346	37.53789	91.26011	13.66033	0.37397	8.01923	6766.528	0.99703	0.00118161	1560.97415	50555.109	82.299	8631.634
1360.0	0.87715	0.12285	7.1753	7.61031	-3.25936	21.73848	33.26281	1.59987	0.62505	41.98908	91.39451	15.31023	0.37128	8.06587	7783.66436	0.98824	0.00102407	1555.02739	50172.875	76.4468	8806.632
1355.0	0.89218	0.10782	7.18111	7.6045	-3.33312	21.61249	33.23884	1.59612	0.62652	46.16253	91.56933	16.8613	0.36889	8.11326	8849.91611	0.97946	8.97929E-4	1549.30591	49814.596	71.6558	8958.152
1350.0	0.90539	0.0946072	7.18668	7.59897	-3.40344	21.49526	33.20933	1.59264	0.62789	50.06583	91.7766	18.3155	0.36676	8.16205	9970.18683	0.97061	7.94588E-4	1543.78936	49476.076	67.704	9090.388
1345.0	0.91707	0.0829283	7.19207	7.59367	-3.47084	21.38543	33.17518	1.58936	0.62918	53.70958	92.01156	19.67601	0.36485	8.21193	11149.27839	0.96175	7.08368E-4	1538.46067	49154.073	64.4006	9206.581
1340.71	0.92593	0.0740664	7.19653	7.58928	-3.5267	21.2961	33.14251	1.58671	0.63023	56.60641	92.23113	20.75971	0.36337	8.25524	12204.2174	0.95416	6.45421E-4	1534.03142	48890.357	 	9294.147
1340.0	0.92776	0.0722428	7.19746	7.58837	-3.53826	21.27468	33.13779	1.58624	0.63042	57.20697	92.26132	20.98456	0.36307	8.26416	12407.09591	0.95271	6.34587E-4	1533.23882	48842.139	62.3868	9313.174
1335.0	0.93985	0.060155	7.20385	7.58216	-3.61711	21.13045	33.10223	1.58302	0.6317	61.29038	92.49004	22.51545	0.36107	8.32824	13884.02755	0.94245	5.65324E-4	1527.80903	48511.798	66.0682	9438.64
1330.0	0.95046	0.0495405	7.20991	7.57633	-3.69133	20.99839	33.06207	1.58002	0.6329	65.04145	92.74609	23.92486	0.35929	8.39379	15433.95142	0.93219	5.06972E-4	1522.58074	48198.203	62.719	9547.825
1325.0	0.95986	0.0401375	7.21572	7.57077	-3.76189	20.87583	33.01809	1.57719	0.63404	68.50802	93.02431	25.23	0.35767	8.46076	17066.45397	0.92192	4.57047E-4	1517.53961	47898.395	59.9616	9643.685
1320.0	0.96826	0.0317375	7.22133	7.56545	-3.82957	20.76068	32.97089	1.5745	0.63512	71.73162	93.32092	26.44587	0.3562	8.52886	18791.60167	0.9117	4.1379E-4	1512.67388	47610.041	57.6708	9728.548
1315.0	0.97582	0.0241783	7.22678	7.56031	-3.89485	20.6516	32.92103	1.57194	0.63616	74.74961	93.63266	27.58606	0.35484	8.59849	20620.23385	0.90148	3.75911E-4	1507.96793	47331.287	55.7508	9804.268
1310.0	0.98268	0.0173228	7.23211	7.55533	-3.9582	20.54729	32.86888	1.56948	0.63715	77.59269	93.95704	28.6618	0.35359	8.6697	22563.7045	0.89126	3.42451E-4	1503.41108	47060.64	54.1294	9872.333
1305.0	0.98893	0.0110656	7.23734	7.55046	-4.02009	20.44645	32.81474	1.5671	0.63812	80.28845	94.29217	29.68322	0.35242	8.74205	24634.52571	0.88109	3.12673E-4	1498.99744	46796.889	52.7502	9933.952
1300.0	0.99468	0.00531604	7.2425	7.54569	-4.08075	20.34843	32.75889	1.5648	0.63906	82.85964	94.63636	30.65869	0.35132	8.81603	26845.7275	0.87093	2.8601E-4	1494.71404	46539.043	51.5692	9990.114
1295.0	1.0	0.0	7.24761	7.54099	-4.14047	20.25242	32.70171	1.56255	0.63998	85.32594	94.98841	31.59548	0.35029	 	29211.40607	 	2.62012E-4	 	46286.285	50.5516	10041.632
1290.0	1.0	0.0	7.2501	7.5384	-4.17344	20.23483	32.63866	1.56058	0.64079	85.80763	95.39155	31.77876	0.35008	 	31102.44474	 	2.45297E-4	 	46039.944	49.2682	 
1285.0	1.0	0.0	7.25259	7.53581	-4.20637	20.21726	32.5756	1.5586	0.6416	86.29023	95.79458	31.96244	0.34987	 	33129.73263	 	2.2955E-4	 	45846.877	38.6134	 
1280.0	1.0	0.0	7.25508	7.53322	-4.23924	20.1997	32.51254	1.55661	0.64242	86.77374	96.19749	32.14651	0.34966	 	35304.04358	 	2.14722E-4	 	45654.107	38.554	 
1275.0	1.0	0.0	7.25757	7.53064	-4.27206	20.18214	32.44946	1.55462	0.64325	87.25812	96.60025	32.33096	0.34945	 	37637.07687	 	2.00763E-4	 	45461.623	38.4968	 
1270.0	1.0	0.0	7.26005	7.52806	-4.30483	20.16461	32.38638	1.55261	0.64408	87.74336	97.00285	32.51578	0.34924	 	40141.54285	 	1.87629E-4	 	45269.423	38.44	 
1265.0	1.0	0.0	7.26254	7.52549	-4.33755	20.14708	32.3233	1.5506	0.64491	88.22944	97.40526	32.70098	0.34903	 	42831.25711	 	1.75277E-4	 	45077.505	38.3836	 
1260.0	1.0	0.0	7.26502	7.52292	-4.37022	20.12956	32.2602	1.54859	0.64575	88.71635	97.80747	32.88653	0.34882	 	45721.244	 	1.63664E-4	 	44885.871	38.3268	 
1255.0	1.0	0.0	7.2675	7.52035	-4.40284	20.11206	32.1971	1.54656	0.6466	89.20405	98.20945	33.07244	0.34862	 	48827.85059	 	1.52751E-4	 	44694.518	38.2706	 
1250.0	1.0	0.0	7.26997	7.51779	-4.43541	20.09456	32.13398	1.54453	0.64745	89.69255	98.61119	33.2587	0.34841	 	52168.87207	 	1.42501E-4	 	44503.446	38.2144	 
1245.0	1.0	0.0	7.27245	7.51523	-4.46793	20.07708	32.07087	1.54249	0.6483	90.1818	99.01266	33.44531	0.3482	 	55763.6899	 	1.32877E-4	 	44312.656	38.158	 
1240.0	1.0	0.0	7.27492	7.51268	-4.50039	20.05961	32.00774	1.54044	0.64917	90.67181	99.41386	33.63224	0.34799	 	59633.42403	 	1.23845E-4	 	44122.141	38.103	 
1235.0	1.0	0.0	7.27739	7.51013	-4.53281	20.04216	31.9446	1.53838	0.65003	91.16255	99.81475	33.81951	0.34778	 	63801.10086	 	1.15373E-4	 	43931.9	38.0482	 
1230.0	1.0	0.0	7.27986	7.50758	-4.56518	20.02471	31.88146	1.53632	0.65091	91.654	100.21532	34.0071	0.34757	 	68291.83841	 	1.07429E-4	 	43741.931	37.9938	 
1225.0	1.0	0.0	7.28232	7.50504	-4.59749	20.00727	31.81831	1.53425	0.65178	92.14614	100.61555	34.195	0.34736	 	73133.05083	 	9.99835E-5	 	43552.233	37.9396	 
1220.0	1.0	0.0	7.28479	7.5025	-4.62976	19.98985	31.75515	1.53217	0.65267	92.63896	101.01543	34.38322	0.34715	 	78354.6743	 	9.30091E-5	 	43362.805	37.8856	 
1215.0	1.0	0.0	7.28725	7.49997	-4.66198	19.97244	31.69199	1.53008	0.65356	93.13244	101.41494	34.57173	0.34694	 	83989.41664	 	8.64786E-5	 	43173.646	37.8318	 
1210.0	1.0	0.0	7.28971	7.49744	-4.69414	19.95504	31.62881	1.52799	0.65446	93.62656	101.81405	34.76055	0.34674	 	90073.03343	 	8.03669E-5	 	42984.755	37.7782	 
1205.0	1.0	0.0	7.29217	7.49491	-4.72626	19.93765	31.56563	1.52588	0.65536	94.1213	102.21275	34.94965	0.34653	 	96644.63344	 	7.46496E-5	 	42796.132	37.7246	 
1200.0	1.0	0.0	7.29462	7.49239	-4.75832	19.92027	31.50244	1.52377	0.65627	94.61665	102.61103	35.13904	0.34632	 	103747.0169	 	6.9304E-5	 	42607.774	37.6716	 
1195.0	1.0	0.0	7.29708	7.48987	-4.79034	19.90291	31.43924	1.52165	0.65718	95.11259	103.00886	35.3287	0.34611	 	111427.05	 	6.43082E-5	 	42419.682	37.6184	 
1190.0	1.0	0.0	7.29953	7.48735	-4.82231	19.88555	31.37604	1.51953	0.6581	95.60909	103.40624	35.51863	0.3459	 	119736.0806	 	5.96418E-5	 	42231.854	37.5656	 
1185.0	1.0	0.0	7.30197	7.48484	-4.85422	19.86821	31.31282	1.51739	0.65903	96.10616	103.80313	35.70883	0.34569	 	128730.3986	 	5.52851E-5	 	42044.288	37.5132	 
1180.0	1.0	0.0	7.30442	7.48234	-4.88609	19.85088	31.2496	1.51525	0.65996	96.60376	104.19954	35.89929	0.34548	 	138471.7474	 	5.12196E-5	 	41856.984	37.4608	 
1175.0	1.0	0.0	7.30686	7.47983	-4.9179	19.83356	31.18637	1.5131	0.6609	97.10187	104.59543	36.09	0.34527	 	149027.8914	 	4.74278E-5	 	41669.941	37.4086	 
1170.0	1.0	0.0	7.30931	7.47733	-4.94967	19.81625	31.12314	1.51094	0.66184	97.6005	104.9908	36.28096	0.34507	 	160473.2477	 	4.3893E-5	 	41483.157	37.3568	 
1165.0	1.0	0.0	7.31175	7.47484	-4.98139	19.79896	31.05989	1.50877	0.66279	98.09961	105.38563	36.47216	0.34486	 	172889.5869	 	4.05996E-5	 	41296.632	37.305	 
1160.0	1.0	0.0	7.31418	7.47235	-5.01305	19.78167	30.99664	1.50659	0.66375	98.59918	105.7799	36.66359	0.34465	 	186366.8145	 	3.75327E-5	 	41110.364	37.2536	 
1155.0	1.0	0.0	7.31662	7.46986	-5.04467	19.7644	30.93337	1.5044	0.66472	99.09922	106.1736	36.85525	0.34444	 	201003.8397	 	3.46782E-5	 	40924.352	37.2024	 
1150.0	1.0	0.0	7.31905	7.46738	-5.07624	19.74714	30.87011	1.50221	0.66569	99.59969	106.56671	37.04713	0.34423	 	216909.5438	 	3.20228E-5	 	40738.595	37.1514	 
1145.0	1.0	0.0	7.32148	7.4649	-5.10776	19.72989	30.80683	1.50001	0.66666	100.10058	106.95922	37.23923	0.34402	 	234203.8602	 	2.95539E-5	 	40553.092	37.1006	 
1140.0	1.0	0.0	7.32391	7.46242	-5.13923	19.71265	30.74354	1.49779	0.66765	100.60187	107.35111	37.43153	0.34381	 	253018.9785	 	2.72598E-5	 	40367.841	37.0502	 
1135.0	1.0	0.0	7.32634	7.45995	-5.17065	19.69542	30.68025	1.49557	0.66864	101.10355	107.74237	37.62404	0.3436	 	273500.689	 	2.51291E-5	 	40182.841	37.0	 
1130.0	1.0	0.0	7.32876	7.45748	-5.20202	19.67821	30.61695	1.49334	0.66964	101.6056	108.13298	37.81675	0.34339	 	295809.8853	 	2.31514E-5	 	39998.091	36.95	 
1125.0	1.0	0.0	7.33119	7.45502	-5.23334	19.661	30.55364	1.49111	0.67064	102.10801	108.52292	38.00966	0.34319	 	320124.2426	 	2.13168E-5	 	39813.59	36.9002	 
1120.0	1.0	0.0	7.33361	7.45256	-5.26461	19.64381	30.49032	1.48886	0.67166	102.61076	108.9122	38.20274	0.34298	 	346640.0965	 	1.96158E-5	 	39629.336	36.8508	 
1115.0	1.0	0.0	7.33602	7.4501	-5.29583	19.62663	30.42699	1.4866	0.67267	103.11384	109.30078	38.39601	0.34277	 	375574.5453	 	1.80396E-5	 	39445.328	36.8016	 
1110.0	1.0	0.0	7.33844	7.44765	-5.327	19.60946	30.36366	1.48434	0.6737	103.61722	109.68866	38.58946	0.34256	 	407167.8058	 	1.65799E-5	 	39261.565	36.7526	 
1105.0	1.0	0.0	7.34085	7.4452	-5.35813	19.5923	30.30031	1.48206	0.67473	104.12089	110.07582	38.78307	0.34235	 	441685.8534	 	1.52289E-5	 	39078.045	36.704	 
1100.0	1.0	0.0	7.34326	7.44276	-5.3892	19.57516	30.23696	1.47978	0.67578	104.62485	110.46225	38.97685	0.34214	 	479423.3844	 	1.39793E-5	 	38894.767	36.6556	 
1095.0	1.0	0.0	7.34567	7.44032	-5.42023	19.55802	30.1736	1.47749	0.67682	105.12906	110.84793	39.17078	0.34193	 	520707.1412	 	1.28241E-5	 	38711.73	36.6074	 
1090.0	1.0	0.0	7.34808	7.43788	-5.4512	19.5409	30.11024	1.47519	0.67788	105.63352	111.23286	39.36487	0.34172	 	565899.6489	 	1.17568E-5	 	38528.931	36.5598	 
1085.0	1.0	0.0	7.35048	7.43545	-5.48213	19.52379	30.04686	1.47288	0.67894	106.13821	111.61702	39.55911	0.34151	 	615403.4156	 	1.07715E-5	 	38346.37	36.5122	 
1080.0	1.0	0.0	7.35289	7.43302	-5.51301	19.50669	29.98348	1.47056	0.68001	106.64312	112.00039	39.75348	0.34131	 	669665.6583	 	9.86222E-6	 	38164.045	36.465	 
1075.0	1.0	0.0	7.35529	7.43059	-5.54384	19.4896	29.92008	1.46823	0.68109	107.14822	112.38296	39.94799	0.3411	 	729183.6256	 	9.02377E-6	 	37981.953	36.4184	 
1070.0	1.0	0.0	7.35768	7.42817	-5.57462	19.47253	29.85668	1.46589	0.68218	107.65351	112.76473	40.14263	0.34089	 	794510.594	 	8.25109E-6	 	37800.092	36.3722	 
1065.0	1.0	0.0	7.36008	7.42575	-5.60535	19.45546	29.79328	1.46354	0.68328	108.15898	113.14567	40.33739	0.34068	 	866262.632	 	7.53949E-6	 	37618.461	36.3262	 
1060.0	1.0	0.0	7.36247	7.42334	-5.63603	19.43841	29.72986	1.46118	0.68438	108.66459	113.52578	40.53227	0.34047	 	945126.2329	 	6.88456E-6	 	37437.058	36.2806	 
1055.0	1.0	0.0	7.36486	7.42093	-5.66667	19.42137	29.66643	1.45881	0.68549	109.17035	113.90504	40.72727	0.34026	 	1031866.937	 	6.28218E-6	 	37255.882	36.2352	 
1050.0	1.0	0.0	7.36725	7.41852	-5.69725	19.40434	29.603	1.45643	0.68661	109.67623	114.28344	40.92237	0.34005	 	1127339.08	 	5.7285E-6	 	37074.93	36.1904	 
1045.0	1.0	0.0	7.36964	7.41612	-5.72779	19.38732	29.53956	1.45405	0.68774	110.18223	114.66097	41.11757	0.33984	 	1232496.816	 	5.21994E-6	 	36894.201	36.1458	 
1040.0	1.0	0.0	7.37202	7.41372	-5.75828	19.37031	29.47611	1.45165	0.68887	110.68832	115.03762	41.31288	0.33963	 	1348406.609	 	4.75314E-6	 	36713.694	36.1014	 
1035.0	1.0	0.0	7.3744	7.41133	-5.78872	19.35331	29.41265	1.44924	0.69002	111.19449	115.41337	41.50827	0.33943	 	1476261.378	 	4.32495E-6	 	36533.405	36.0578	 
1030.0	1.0	0.0	7.37678	7.40894	-5.81911	19.33633	29.34918	1.44683	0.69117	111.70072	115.78822	41.70375	0.33922	 	1617396.546	 	3.93246E-6	 	36353.334	36.0142	 
1025.0	1.0	0.0	7.37916	7.40655	-5.84945	19.31936	29.2857	1.4444	0.69233	112.20701	116.16214	41.8993	0.33901	 	1773308.256	 	3.57295E-6	 	36173.477	35.9714	 
1020.0	1.0	0.0	7.38154	7.40417	-5.87975	19.3024	29.22222	1.44196	0.6935	112.71334	116.53514	42.09494	0.3388	 	1945674.066	 	3.24389E-6	 	35993.835	35.9284	 
1015.0	1.0	0.0	7.38391	7.40179	-5.90999	19.28545	29.15872	1.43951	0.69468	113.21969	116.9072	42.29064	0.33859	 	2136376.482	 	2.9429E-6	 	35814.403	35.8864	 
1010.0	1.0	0.0	7.38628	7.39941	-5.94019	19.26851	29.09522	1.43706	0.69587	113.72605	117.27831	42.48641	0.33838	 	2347529.736	 	2.6678E-6	 	35635.18	35.8446	 
1005.0	1.0	0.0	7.38865	7.39704	-5.97034	19.25159	29.03171	1.43459	0.69706	114.2324	117.64845	42.68224	0.33817	 	2581510.293	 	2.41654E-6	 	35456.165	35.803	 
1000.0	1.0	0.0	7.39101	7.39467	-6.00044	19.23467	28.96819	1.43211	0.69827	114.73874	118.01762	42.87812	0.33796	 	2840991.631	 	2.18724E-6	 	35277.354	35.7622	 
995.0	1.0	0.0	7.39338	7.39231	-6.0305	19.21777	28.90467	1.42962	0.69949	115.24504	118.38581	43.07405	0.33775	 	3128983.926	 	1.97813E-6	 	35098.745	35.7218	 
990.0	1.0	0.0	7.39574	7.38995	-6.0605	19.20088	28.84113	1.42712	0.70071	115.75129	118.753	43.27002	0.33755	 	3448879.38	 	1.78757E-6	 	34920.337	35.6816	 
985.0	1.0	0.0	7.3981	7.38759	-6.09046	19.184	28.77759	1.42461	0.70195	116.25748	119.11918	43.46603	0.33734	 	3804504.043	 	1.61407E-6	 	34742.127	35.642	 
980.0	1.0	0.0	7.40046	7.38524	-6.12037	19.16713	28.71403	1.42209	0.70319	116.7636	119.48435	43.66207	0.33713	 	4200177.107	 	1.4562E-6	 	34564.112	35.603	 
975.0	1.0	0.0	7.40281	7.38289	-6.15023	19.15027	28.65047	1.41956	0.70445	117.26963	119.8485	43.85814	0.33692	 	4640778.824	 	1.31269E-6	 	34386.289	35.5646	 
970.0	1.0	0.0	7.40516	7.38054	-6.18004	19.13343	28.5869	1.41701	0.70571	117.77555	120.21161	44.05424	0.33671	 	5131828.364	 	1.18233E-6	 	34208.657	35.5264	 
965.0	1.0	0.0	7.40751	7.3782	-6.20981	19.11659	28.52332	1.41446	0.70698	118.28135	120.57367	44.25035	0.3365	 	5679573.169	 	1.06401E-6	 	34031.213	35.4888	 
960.0	1.0	0.0	7.40986	7.37587	-6.23953	19.09977	28.45973	1.4119	0.70827	118.78703	120.93467	44.44647	0.33629	 	6291091.588	 	9.56702E-7	 	33853.954	35.4518	 
955.0	1.0	0.0	7.41221	7.37353	-6.2692	19.08296	28.39614	1.40932	0.70956	119.29256	121.29461	44.6426	0.33608	 	6974410.882	 	8.5947E-7	 	33676.877	35.4154	 
950.0	1.0	0.0	7.41455	7.3712	-6.29882	19.06616	28.33253	1.40673	0.71087	119.79793	121.65347	44.83873	0.33588	 	7738643.056	 	7.71439E-7	 	33499.979	35.3796	 
945.0	1.0	0.0	7.41689	7.36887	-6.32839	19.04938	28.26892	1.40414	0.71218	120.30313	122.01124	45.03486	0.33567	 	8594141.34	 	6.91807E-7	 	33323.258	35.3442	 
940.0	1.0	0.0	7.41923	7.36655	-6.35792	19.0326	28.2053	1.40153	0.71351	120.80814	122.36792	45.23099	0.33546	 	9552680.664	 	6.19835E-7	 	33146.71	35.3096	 
935.0	1.0	0.0	7.42157	7.36423	-6.3874	19.01584	28.14167	1.39891	0.71484	121.31296	122.7235	45.42709	0.33525	 	1.062766601E7	 	5.54842E-7	 	32970.332	35.2756	 
930.0	1.0	0.0	7.4239	7.36192	-6.41683	18.99908	28.07803	1.39627	0.71619	121.81756	123.07796	45.62318	0.33504	 	1.183437323E7	 	4.96205E-7	 	32794.121	35.2422	 
925.0	1.0	0.0	7.42623	7.35961	-6.44622	18.98234	28.01438	1.39363	0.71755	122.32193	123.43129	45.81925	0.33483	 	1.319022757E7	 	4.43349E-7	 	32618.074	35.2094	 
920.0	1.0	0.0	7.42856	7.3573	-6.47555	18.96561	27.95072	1.39098	0.71892	122.82607	123.7835	46.01529	0.33462	 	1.471512639E7	 	3.95747E-7	 	32442.188	35.1772	 
915.0	1.0	0.0	7.43089	7.35499	-6.50484	18.94889	27.88706	1.38831	0.7203	123.32995	124.13455	46.21129	0.33441	 	1.643181314E7	 	3.52917E-7	 	32266.458	35.146	 
910.0	1.0	0.0	7.43321	7.35269	-6.53408	18.93219	27.82338	1.38563	0.72169	123.83356	124.48446	46.40725	0.3342	 	1.836631161E7	 	3.14416E-7	 	32090.881	35.1154	 
905.0	1.0	0.0	7.43554	7.3504	-6.56328	18.91549	27.7597	1.38294	0.7231	124.33689	124.8332	46.60317	0.334	 	2.054843038E7	 	2.79839E-7	 	31915.454	35.0854	 
900.0	1.0	0.0	7.43786	7.3481	-6.59243	18.89881	27.69601	1.38024	0.72451	124.83993	125.18077	46.79905	0.33379	 	2.301234971E7	 	2.48817E-7	 	31740.172	35.0564	 
895.0	1.0	0.0	7.44017	7.34581	-6.62153	18.88214	27.63231	1.37752	0.72594	125.34266	125.52716	46.99486	0.33358	 	2.579730495E7	 	2.2101E-7	 	31565.031	35.0282	 
890.0	1.0	0.0	7.44249	7.34353	-6.65058	18.86548	27.5686	1.3748	0.72738	125.84506	125.87237	47.19062	0.33337	 	2.894838344E7	 	1.96109E-7	 	31390.028	35.0006	 
885.0	1.0	0.0	7.4448	7.34125	-6.67959	18.84883	27.50488	1.37206	0.72883	126.34713	126.21637	47.38631	0.33316	 	3.251745464E7	 	1.73834E-7	 	31215.158	34.974	 
880.0	1.0	0.0	7.44711	7.33897	-6.70854	18.83219	27.44116	1.36931	0.7303	126.84886	126.55916	47.58194	0.33295	 	3.656425719E7	 	1.53927E-7	 	31040.417	34.9482	 
875.0	1.0	0.0	7.44942	7.33669	-6.73746	18.81557	27.37743	1.36654	0.73177	127.35022	126.90074	47.77748	0.33274	 	4.115767077E7	 	1.36155E-7	 	30865.8	34.9234	 
870.0	1.0	0.0	7.45173	7.33442	-6.76632	18.79896	27.31368	1.36377	0.73326	127.8512	127.2411	47.97295	0.33253	 	4.637720606E7	 	1.20305E-7	 	30691.301	34.8998	 
865.0	1.0	0.0	7.45403	7.33216	-6.79514	18.78235	27.24993	1.36098	0.73476	128.3518	127.58022	48.16834	0.33233	 	5.231475236E7	 	1.06185E-7	 	30516.917	34.8768	 
860.0	1.0	0.0	7.45633	7.32989	-6.82391	18.76576	27.18618	1.35818	0.73628	128.85199	127.9181	48.36363	0.33212	 	5.90766298E7	 	9.36178E-8	 	30342.642	34.855	 
855.0	1.0	0.0	7.45863	7.32763	-6.85263	18.74918	27.12241	1.35537	0.73781	129.35177	128.25473	48.55883	0.33191	 	6.678600241E7	 	8.24457E-8	 	30168.471	34.8342	 
850.0	1.0	0.0	7.46093	7.32538	-6.88131	18.73262	27.05864	1.35254	0.73935	129.85113	128.59011	48.75394	0.3317	 	7.558571903E7	 	7.25245E-8	 	29994.397	34.8148	 
845.0	1.0	0.0	7.46322	7.32313	-6.90994	18.71606	26.99486	1.3497	0.74091	130.35004	128.92421	48.94893	0.33149	 	8.564166227E7	 	6.37238E-8	 	29820.416	34.7962	 
840.0	1.0	0.0	7.46552	7.32088	-6.93852	18.69952	26.93107	1.34685	0.74248	130.8485	129.25704	49.14382	0.33128	 	9.71467013E7	 	5.59258E-8	 	29646.521	34.779	 
835.0	1.0	0.0	7.46781	7.31863	-6.96706	18.68298	26.86727	1.34398	0.74406	131.34649	129.58859	49.3386	0.33107	 	1.103253639E8	 	4.90241E-8	 	29472.705	34.7632	 
830.0	1.0	0.0	7.47009	7.31639	-6.99555	18.66646	26.80347	1.3411	0.74566	131.844	129.91885	49.53325	0.33086	 	1.254393654E8	 	4.29227E-8	 	29298.962	34.7486	 
825.0	1.0	0.0	7.47238	7.31415	-7.024	18.64995	26.73966	1.33821	0.74727	132.34102	130.24781	49.72778	0.33065	 	1.427941613E8	 	3.75351E-8	 	29125.286	34.7352	 
820.0	1.0	0.0	7.47466	7.31192	-7.05239	18.63345	26.67584	1.3353	0.74889	132.83754	130.57547	49.92218	0.33045	 	1.627467228E8	 	3.27834E-8	 	28951.668	34.7236	 
815.0	1.0	0.0	7.47694	7.30969	-7.08074	18.61697	26.61202	1.33238	0.75054	133.33354	130.90181	50.11645	0.33024	 	1.857147773E8	 	2.85976E-8	 	28778.102	34.7132	 
810.0	1.0	0.0	7.47922	7.30746	-7.10905	18.60049	26.54818	1.32945	0.75219	133.82901	131.22683	50.31058	0.33003	 	2.12187804E8	 	2.49147E-8	 	28604.579	34.7046	 
805.0	1.0	0.0	7.4815	7.30524	-7.13731	18.58403	26.48435	1.3265	0.75386	134.32393	131.55052	50.50457	0.32982	 	2.427401382E8	 	2.16783E-8	 	28431.091	34.6976	 
800.0	1.0	0.0	7.48377	7.30302	-7.16552	18.56758	26.4205	1.32354	0.75555	134.8183	131.87287	50.69841	0.32961	 	2.780466095E8	 	1.88378E-8	 	28257.628	34.6926	 
795.0	1.0	0.0	7.48604	7.3008	-7.19368	18.55114	26.35665	1.32057	0.75725	135.3121	132.19388	50.8921	0.3294	 	3.189012319E8	 	1.63479E-8	 	28084.183	34.689	 
790.0	1.0	0.0	7.48831	7.29859	-7.2218	18.53471	26.29279	1.31758	0.75897	135.80532	132.51354	51.08562	0.32919	 	3.662395756E8	 	1.41682E-8	 	27910.744	34.6878	 
785.0	1.0	0.0	7.49058	7.29638	-7.24988	18.51829	26.22893	1.31457	0.7607	136.29795	132.83185	51.27899	0.32898	 	4.211655829E8	 	1.22626E-8	 	27737.301	34.6886	 
780.0	1.0	0.0	7.49284	7.29418	-7.2779	18.50189	26.16506	1.31155	0.76245	136.78997	133.14878	51.47219	0.32878	 	4.849837633E8	 	1.05986E-8	 	27563.845	34.6912	 
775.0	1.0	0.0	7.4951	7.29198	-7.30588	18.48549	26.10118	1.30852	0.76422	137.28138	133.46435	51.66522	0.32857	 	5.592379033E8	 	9.14773E-9	 	27390.362	34.6966	 
770.0	1.0	0.0	7.49736	7.28978	-7.33382	18.46911	26.0373	1.30548	0.766	137.77215	133.77853	51.85807	0.32836	 	6.457576845E8	 	7.88431E-9	 	27216.841	34.7042	 
765.0	1.0	0.0	7.49962	7.28759	-7.36171	18.45274	25.97341	1.30241	0.76781	138.26228	134.09133	52.05074	0.32815	 	7.467149116E8	 	6.78566E-9	 	27043.269	34.7144	 
760.0	1.0	0.0	7.50188	7.2854	-7.38955	18.43638	25.90951	1.29934	0.76962	138.75176	134.40274	52.24322	0.32794	 	8.646914426E8	 	5.83162E-9	 	26869.632	34.7274	 
755.0	1.0	0.0	7.50413	7.28321	-7.41735	18.42003	25.84561	1.29625	0.77146	139.24056	134.71275	52.43551	0.32773	 	1.002761389E9	 	5.00433E-9	 	26695.914	34.7436	 
750.0	1.0	0.0	7.50638	7.28103	-7.4451	18.4037	25.78171	1.29314	0.77331	139.72869	135.02135	52.62761	0.32752	 	1.164590745E9	 	4.28798E-9	 	26522.101	34.7626	 
745.0	1.0	0.0	7.50862	7.27885	-7.4728	18.38737	25.7178	1.29002	0.77518	140.21613	135.32853	52.81951	0.32731	 	1.354558349E9	 	3.6686E-9	 	26348.176	34.785	 
740.0	1.0	0.0	7.51087	7.27667	-7.50046	18.37106	25.65388	1.28688	0.77707	140.70286	135.6343	53.0112	0.32711	 	1.577902988E9	 	3.13386E-9	 	26174.12	34.8112	 
735.0	1.0	0.0	7.51311	7.2745	-7.52807	18.35476	25.58996	1.28373	0.77898	141.18888	135.93864	53.20268	0.3269	 	1.840902604E9	 	2.67289E-9	 	25999.915	34.841	 
730.0	1.0	0.0	7.51535	7.27233	-7.55564	18.33847	25.52602	1.28056	0.78091	141.67417	136.24155	53.39395	0.32669	 	2.151092986E9	 	2.27611E-9	 	25825.539	34.8752	 
725.0	1.0	0.0	7.51759	7.27017	-7.58316	18.32219	25.46209	1.27738	0.78285	142.15872	136.54302	53.585	0.32648	 	2.517535126E9	 	1.93512E-9	 	25650.97	34.9138	 
720.0	1.0	0.0	7.51983	7.268	-7.61064	18.30592	25.39815	1.27418	0.78482	142.64252	136.84304	53.77582	0.32627	 	2.951142649E9	 	1.64252E-9	 	25476.185	34.957	 
715.0	1.0	0.0	7.52206	7.26585	-7.63807	18.28967	25.3342	1.27096	0.7868	143.12555	137.14161	53.96642	0.32606	 	3.465083535E9	 	1.39186E-9	 	25301.157	35.0056	 
710.0	1.0	0.0	7.52429	7.26369	-7.66546	18.27342	25.27024	1.26773	0.78881	143.60781	137.43873	54.15679	0.32585	 	4.075273912E9	 	1.17747E-9	 	25125.858	35.0598	 
705.0	1.0	0.0	7.52652	7.26154	-7.6928	18.25719	25.20627	1.26449	0.79083	144.08928	137.73438	54.34692	0.32564	 	4.800986158E9	 	9.94401E-10	 	24950.258	35.12	 
700.0	1.0	0.0	7.52875	7.25939	-7.72009	18.24097	25.1423	1.26122	0.79288	144.56995	138.02856	54.53681	0.32543	 	5.665599167E9	 	8.38341E-10	 	24774.323	35.187	 
695.0	1.0	0.0	7.53097	7.25725	-7.74734	18.22476	25.07832	1.25795	0.79495	145.04981	138.32127	54.72645	0.32523	 	6.697525839E9	 	7.05529E-10	 	24598.017	35.2612	 
690.0	1.0	0.0	7.53319	7.25511	-7.77454	18.20857	25.01433	1.25465	0.79703	145.52885	138.61249	54.91584	0.32502	 	7.93136185E9	 	5.92697E-10	 	24421.301	35.3432	 
685.0	1.0	0.0	7.53541	7.25297	-7.8017	18.19238	24.95033	1.25134	0.79914	146.00705	138.90222	55.10497	0.32481	 	9.409311357E9	 	4.97007E-10	 	24244.132	35.4338	 
680.0	1.0	0.0	7.53763	7.25084	-7.82881	18.17621	24.88633	1.24801	0.80128	146.48441	139.19047	55.29384	0.3246	 	1.1183E10	 	4.15998E-10	 	24066.463	35.5338	 
675.0	1.0	0.0	7.53984	7.24871	-7.85588	18.16004	24.82231	1.24467	0.80343	146.9609	139.47721	55.48245	0.32439	 	1.3315499999999998E10	 	3.47542E-10	 	23888.242	35.6442	 
670.0	1.0	0.0	7.54205	7.24659	-7.88291	18.14389	24.75828	1.2413	0.8056	147.43653	139.76245	55.6708	0.32418	 	1.5884399999999998E10	 	2.89799E-10	 	23709.41	35.7664	 
665.0	1.0	0.0	7.54426	7.24446	-7.90988	18.12775	24.69424	1.23792	0.8078	147.91128	140.04618	55.85886	0.32397	 	1.89851E10	 	2.41183E-10	 	23529.906	35.9008	 
660.0	1.0	0.0	7.54647	7.24234	-7.93682	18.11163	24.63019	1.23453	0.81003	148.38513	140.32839	56.04665	0.32376	 	2.27349E10	 	2.0033E-10	 	23349.66	36.0492	 
655.0	1.0	0.0	7.54867	7.24023	-7.9637	18.09551	24.56613	1.23112	0.81227	148.85808	140.60908	56.23416	0.32356	 	2.7278899999999996E10	 	1.66065E-10	 	23168.594	36.2132	 
650.0	1.0	0.0	7.55088	7.23812	-7.99055	18.07941	24.50205	1.22769	0.81454	149.33011	140.88824	56.42138	0.32335	 	3.2796599999999996E10	 	1.37382E-10	 	22986.622	36.3944	 
645.0	1.0	0.0	7.55308	7.23601	-8.01734	18.06331	24.43796	1.22424	0.81683	149.80122	141.16587	56.60831	0.32314	 	3.95105E10	 	1.1342E-10	 	22803.649	36.5946	 
640.0	1.0	0.0	7.55527	7.23391	-8.0441	18.04723	24.37386	1.22077	0.81915	150.27138	141.44196	56.79494	0.32293	 	4.769699999999999E10	 	9.3441E-11	 	22619.568	36.8162	 
635.0	1.0	0.0	7.55747	7.2318	-8.07081	18.03116	24.30974	1.21729	0.8215	150.7406	141.71651	56.98128	0.32272	 	5.770069999999999E10	 	7.68181E-11	 	22434.26	37.0616	 
630.0	1.0	0.0	7.55966	7.22971	-8.09747	18.0151	24.2456	1.21379	0.82386	151.20886	141.98952	57.1673	0.32251	 	6.99513E10	 	6.3016E-11	 	22237.551	39.3418	 
625.0	1.0	0.0	7.56185	7.22761	-8.12409	17.99906	24.18145	1.21028	0.82626	151.67614	142.26096	57.35302	0.3223	 	8.49868E10	 	5.15803E-11	 	22040.574	39.3954	 
620.0	1.0	0.0	7.56404	7.22552	-8.15066	17.98302	24.11728	1.20674	0.82868	152.14244	142.53085	57.53843	0.32209	 	1.03482E11	 	4.21257E-11	 	21845.131	39.0886	 
615.0	1.0	0.0	7.56622	7.22344	-8.17719	17.967	24.05309	1.20319	0.83113	152.60774	142.79918	57.72351	0.32189	 	1.26284E11	 	3.43261E-11	 	21651.168	38.7926	 
610.0	1.0	0.0	7.56841	7.22135	-8.20368	17.95098	23.98889	1.19962	0.8336	153.07203	143.06594	57.90828	0.32168	 	1.54462E11	 	2.79061E-11	 	21458.633	38.507	 
605.0	1.0	0.0	7.57059	7.21927	-8.23012	17.93498	23.92466	1.19603	0.8361	153.53531	143.33112	58.09272	0.32147	 	1.89366E11	 	2.26336E-11	 	21267.477	38.2312	 
600.0	1.0	0.0	7.57277	7.2172	-8.25651	17.91899	23.86042	1.19242	0.83863	153.99756	143.59473	58.27682	0.32126	 	2.32704E11	 	1.83135E-11	 	21077.654	37.9646	 
595.0	1.0	0.0	7.57494	7.21512	-8.28286	17.90302	23.79616	1.18879	0.84119	154.45877	143.85675	58.4606	0.32105	 	2.86647E11	 	1.4782E-11	 	20889.121	37.7066	 
590.0	1.0	0.0	7.57712	7.21305	-8.30917	17.88705	23.73187	1.18515	0.84378	154.91893	144.11719	58.64403	0.32084	 	3.53956E11	 	1.19021E-11	 	20701.835	37.4572	 
585.0	1.0	0.0	7.57929	7.21099	-8.33543	17.8711	23.66757	1.18148	0.84639	155.37802	144.37603	58.82711	0.32063	 	4.38155E11	 	9.55922E-12	 	20515.758	37.2154	 
580.0	1.0	0.0	7.58146	7.20892	-8.36165	17.85515	23.60325	1.1778	0.84904	155.83605	144.63328	59.00985	0.32042	 	5.43753E11	 	7.65792E-12	 	20330.852	36.9812	 
575.0	1.0	0.0	7.58362	7.20687	-8.38782	17.83922	23.5389	1.1741	0.85172	156.29298	144.88892	59.19224	0.32022	 	6.76535E11	 	6.11884E-12	 	20147.082	36.754	 
570.0	1.0	0.0	7.58578	7.20481	-8.41395	17.8233	23.47453	1.17038	0.85443	156.74883	145.14296	59.37427	0.32001	 	8.43945E11	 	4.87616E-12	 	19964.414	36.5336	 
565.0	1.0	0.0	7.58795	7.20276	-8.44004	17.8074	23.41014	1.16664	0.85717	157.20356	145.39538	59.55594	0.3198	 	1.05558E12	 	3.8754E-12	 	19782.816	36.3196	 
560.0	1.0	0.0	7.5901	7.20071	-8.46608	17.7915	23.34573	1.16288	0.85994	157.65719	145.6462	59.73724	0.31959	 	1.32387E12	 	3.07159E-12	 	19602.258	36.1116	 
555.0	1.0	0.0	7.59226	7.19866	-8.49208	17.77561	23.2813	1.1591	0.86274	158.10968	145.89539	59.91817	0.31938	 	1.66493E12	 	2.42772E-12	 	19422.71	35.9096	 
550.0	1.0	0.0	7.59441	7.19662	-8.51803	17.75974	23.21684	1.1553	0.86558	158.56103	146.14296	60.09873	0.31917	 	2.09974E12	 	1.91337E-12	 	19244.147	35.7126	 
545.0	1.0	0.0	7.59657	7.19458	-8.54394	17.74388	23.15237	1.15148	0.86845	159.01124	146.3889	60.27891	0.31896	 	2.65568E12	 	1.50364E-12	 	19066.541	35.5212	 
540.0	1.0	0.0	7.59872	7.19255	-8.56981	17.72803	23.08787	1.14764	0.87136	159.46028	146.6332	60.4587	0.31875	 	3.36859E12	 	1.17817E-12	 	18889.868	35.3346	 
535.0	1.0	0.0	7.60086	7.19052	-8.59563	17.71219	23.02335	1.14378	0.8743	159.90816	146.87588	60.63811	0.31855	 	4.28555E12	 	9.20389E-13	 	18714.105	35.1526	 
530.0	1.0	0.0	7.60301	7.18849	-8.62141	17.69636	22.95881	1.1399	0.87727	160.35485	147.11691	60.81713	0.31834	 	5.46861E12	 	7.16814E-13	 	18539.228	34.9754	 
525.0	1.0	0.0	7.60515	7.18647	-8.64714	17.68055	22.89425	1.13599	0.88029	160.80036	147.35629	60.99575	0.31813	 	6.99973E12	 	5.56532E-13	 	18365.218	34.802	 
520.0	1.0	0.0	7.60729	7.18444	-8.67283	17.66474	22.82967	1.13207	0.88334	161.24466	147.59403	61.17398	0.31792	 	8.98765E12	 	4.30721E-13	 	18192.052	34.6332	 
515.0	1.0	0.0	7.60942	7.18243	-8.69848	17.64895	22.76506	1.12813	0.88643	161.68775	147.83012	61.3518	0.31771	 	1.1577E13	 	3.32276E-13	 	18019.713	34.4678	 
510.0	1.0	0.0	7.61156	7.18041	-8.72408	17.63317	22.70044	1.12416	0.88955	162.12961	148.06455	61.52921	0.3175	 	1.4961E13	 	2.55489E-13	 	17848.181	34.3064	 
505.0	1.0	0.0	7.61369	7.1784	-8.74964	17.6174	22.6358	1.12017	0.89272	162.57025	148.29731	61.70621	0.31729	 	1.93982E13	 	1.95789E-13	 	17677.44	34.1482	 
500.0	1.0	0.0	7.61582	7.1764	-8.77515	17.60164	22.57114	1.11616	0.89593	163.00963	148.52842	61.88279	0.31708	 	2.52366E13	 	1.49527E-13	 	17507.471	33.9938	 
495.0	1.0	0.0	7.61795	7.17439	-8.80063	17.5859	22.50646	1.11213	0.89917	163.44777	148.75786	62.05896	0.31687	 	3.29454E13	 	1.13799E-13	 	17338.259	33.8424	 
490.0	1.0	0.0	7.62007	7.17239	-8.82605	17.57016	22.44176	1.10808	0.90246	163.88464	148.98563	62.2347	0.31667	 	4.31603E13	 	8.63002E-14	 	17169.79	33.6938	 
485.0	1.0	0.0	7.62219	7.17039	-8.85144	17.55444	22.37704	1.104	0.90579	164.32024	149.21172	62.41001	0.31646	 	5.67452E13	 	6.52098E-14	 	17002.047	33.5486	 
480.0	1.0	0.0	7.62431	7.1684	-8.87678	17.53873	22.31231	1.0999	0.90917	164.75455	149.43613	62.58489	0.31625	 	7.48788E13	 	4.90918E-14	 	16835.018	33.4058	 
475.0	1.0	0.0	7.62643	7.16641	-8.90208	17.52303	22.24756	1.09578	0.91259	165.18757	149.65887	62.75933	0.31604	 	9.91759E13	 	3.68188E-14	 	16668.688	33.266	 
470.0	1.0	0.0	7.62855	7.16442	-8.92734	17.50734	22.18279	1.09164	0.91606	165.61928	149.87992	62.93334	0.31583	 	1.3185699999999998E14	 	2.75081E-14	 	16503.046	33.1284	 
465.0	1.0	0.0	7.63066	7.16244	-8.95255	17.49166	22.11801	1.08747	0.91957	166.04968	150.09928	63.10689	0.31562	 	1.75988E14	 	2.04714E-14	 	16338.077	32.9938	 
460.0	1.0	0.0	7.63277	7.16046	-8.97772	17.476	22.05321	1.08327	0.92313	166.47876	150.31695	63.28	0.31541	 	2.3582E14	 	1.5174E-14	 	16173.772	32.861	 
455.0	1.0	0.0	7.63488	7.15848	-9.00284	17.46034	21.9884	1.07906	0.92673	166.9065	150.53293	63.45266	0.3152	 	3.17271E14	 	1.12015E-14	 	16010.118	32.7308	 
450.0	1.0	0.0	7.63698	7.15651	-9.02792	17.4447	21.92357	1.07482	0.93039	167.3329	150.74721	63.62487	0.315	 	4.28617E14	 	8.23465E-15	 	15847.105	32.6026	 
445.0	1.0	0.0	7.63908	7.15454	-9.05296	17.42907	21.85873	1.07055	0.9341	167.75795	150.95979	63.79661	0.31479	 	5.8148E14	 	6.02791E-15	 	15684.723	32.4764	 
440.0	1.0	0.0	7.64118	7.15257	-9.07796	17.41345	21.79387	1.06626	0.93786	168.18163	151.17067	63.96789	0.31458	 	7.92253E14	 	4.39343E-15	 	15522.96	32.3526	 
435.0	1.0	0.0	7.64328	7.15061	-9.10291	17.39785	21.72901	1.06195	0.94167	168.60394	151.37984	64.1387	0.31437	 	1.08417E15	 	3.18798E-15	 	15361.809	32.2302	 
430.0	1.0	0.0	7.64538	7.14865	-9.12782	17.38225	21.66412	1.05761	0.94553	169.02487	151.5873	64.30904	0.31416	 	1.4903E15	 	2.30282E-15	 	15201.259	32.11	 
425.0	1.0	0.0	7.64747	7.1467	-9.15269	17.36667	21.59923	1.05324	0.94945	169.44441	151.79306	64.4789	0.31395	 	2.05796E15	 	1.65577E-15	 	15041.301	31.9916	 
420.0	1.0	0.0	7.64956	7.14474	-9.17752	17.35109	21.53432	1.04885	0.95342	169.86255	151.9971	64.64829	0.31374	 	2.85514E15	 	1.18491E-15	 	14881.928	31.8746	 
415.0	1.0	0.0	7.65165	7.14279	-9.2023	17.33553	21.4694	1.04443	0.95746	170.27928	152.19942	64.81719	0.31353	 	3.98007E15	 	8.43877E-16	 	14723.13	31.7596	 
410.0	1.0	0.0	7.65373	7.14085	-9.22704	17.31998	21.40446	1.03999	0.96155	170.69459	152.40003	64.98561	0.31333	 	5.57535E15	 	5.98041E-16	 	14564.901	31.6458	 
405.0	1.0	0.0	7.65582	7.1389	-9.25173	17.30445	21.33951	1.03552	0.9657	171.10848	152.59891	65.15353	0.31312	 	7.84907E15	 	4.21691E-16	 	14407.232	31.5338	 
400.0	1.0	0.0	7.6579	7.13696	-9.27639	17.28892	21.27455	1.03102	0.96991	171.52092	152.79607	65.32097	0.31291	 	1.11065E16	 	2.95816E-16	 	14250.115	31.4234	 
395.0	1.0	0.0	7.65997	7.13503	-9.301	17.2734	21.20958	1.0265	0.97418	171.93193	152.99151	65.4879	0.3127	 	1.57978E16	 	2.06426E-16	 	14093.545	31.314	 
390.0	1.0	0.0	7.66205	7.1331	-9.32557	17.2579	21.14459	1.02195	0.97852	172.34148	153.18523	65.65434	0.31249	 	2.25907E16	 	1.43274E-16	 	13937.514	31.2062	 
385.0	1.0	0.0	7.66412	7.13117	-9.35009	17.24241	21.0796	1.01737	0.98292	172.74956	153.37721	65.82027	0.31228	 	3.2481E16	 	9.88967E-17	 	13782.015	31.0998	 
380.0	1.0	0.0	7.66619	7.12924	-9.37458	17.22693	21.01458	1.01277	0.98739	173.15618	153.56747	65.98569	0.31207	 	4.69623E16	 	6.78814E-17	 	13627.043	30.9944	 
375.0	1.0	0.0	7.66826	7.12732	-9.39902	17.21146	20.94956	1.00813	0.99193	173.56132	153.75599	66.1506	0.31186	 	6.8287900000000008E16	 	4.63253E-17	 	13472.59	30.8906	 
370.0	1.0	0.0	7.67033	7.1254	-9.42342	17.196	20.88452	1.00347	0.99654	173.96497	153.94278	66.315	0.31166	 	9.98785E16	 	3.14288E-17	 	13318.652	30.7876	 
365.0	1.0	0.0	7.67239	7.12348	-9.44778	17.18056	20.81947	0.99878	1.00122	174.36713	154.12784	66.47888	0.31145	 	1.46958E17	 	2.11942E-17	 	13165.222	30.686	 
360.0	1.0	0.0	7.67445	7.12157	-9.47209	17.16513	20.7544	0.99406	1.00597	174.76778	154.31116	66.64224	0.31124	 	2.17554E17	 	1.42045E-17	 	13012.294	30.5856	 
355.0	1.0	0.0	7.67651	7.11966	-9.49636	17.1497	20.68932	0.98932	1.0108	175.16693	154.49274	66.80508	0.31103	 	3.24085E17	 	9.46001E-18	 	12859.864	30.486	 
350.0	1.0	0.0	7.67857	7.11775	-9.52059	17.13429	20.62423	0.98454	1.0157	175.56455	154.67259	66.96739	0.31082	 	4.85884E17	 	6.25961E-18	 	12707.926	30.3876	 
345.0	1.0	0.0	7.68062	7.11585	-9.54478	17.11889	20.55912	0.97973	1.02069	175.96065	154.8507	67.12916	0.31061	 	7.33256E17	 	4.11457E-18	 	12556.475	30.2902	 
340.0	1.0	0.0	7.68267	7.11395	-9.56893	17.10351	20.49399	0.9749	1.02575	176.35522	155.02707	67.29041	0.3104	 	1.11403E18	 	2.6863E-18	 	12405.506	30.1938	 
335.0	1.0	0.0	7.68472	7.11206	-9.59303	17.08813	20.42885	0.97003	1.0309	176.74824	155.2017	67.45112	0.3102	 	1.70425E18	 	1.74167E-18	 	12255.015	30.0982	 
330.0	1.0	0.0	7.68676	7.11016	-9.61709	17.07277	20.36369	0.96513	1.03613	177.13973	155.37459	67.61128	0.30999	 	2.62562E18	 	1.12119E-18	 	12104.997	30.0036	 
325.0	1.0	0.0	7.68881	7.10827	-9.64111	17.05741	20.29852	0.9602	1.04145	177.52965	155.54574	67.77091	0.30978	 	4.07448E18	 	7.16513E-19	 	11955.448	29.9098	 
320.0	1.0	0.0	7.69085	7.10639	-9.66509	17.04207	20.23333	0.95525	1.04685	177.91802	155.71516	67.92999	0.30957	 	6.36994E18	 	4.54481E-19	 	11806.364	29.8168	 
315.0	1.0	0.0	7.69289	7.1045	-9.68903	17.02674	20.16812	0.95026	1.05235	178.30482	155.88283	68.08853	0.30936	 	1.00346E19	 	2.86071E-19	 	11657.739	29.725	 
310.0	1.0	0.0	7.69492	7.10262	-9.71292	17.01142	20.10289	0.94523	1.05794	178.69005	156.04876	68.24651	0.30915	 	1.59314E19	 	1.78654E-19	 	11509.572	29.6334	 
305.0	1.0	0.0	7.69696	7.10075	-9.73677	16.99612	20.03765	0.94018	1.06362	179.0737	156.21296	68.40395	0.30894	 	2.54967E19	 	1.10673E-19	 	11361.856	29.5432	 
300.0	1.0	0.0	7.69899	7.09887	-9.76058	16.98082	19.97239	0.9351	1.06941	179.45577	156.37542	68.56082	0.30873	 	4.11416E19	 	6.79946E-20	 	11214.59	29.4532	 
295.0	1.0	0.0	7.70101	7.097	-9.78435	16.96554	19.9071	0.92998	1.07529	179.83625	156.53614	68.71715	0.30853	 	6.69481E19	 	4.14202E-20	 	11067.769	29.3642	 
290.0	1.0	0.0	7.70304	7.09514	-9.80808	16.95027	19.8418	0.92483	1.08128	180.21513	156.69513	68.87291	0.30832	 	1.0988899999999998E20	 	2.50125E-20	 	10921.39	29.2758	 
285.0	1.0	0.0	7.70506	7.09327	-9.83177	16.93501	19.77648	0.91964	1.08738	180.59242	156.85238	69.02811	0.30811	 	1.81982E20	 	1.49696E-20	 	10775.45	29.188	 
280.0	1.0	0.0	7.70709	7.09141	-9.85541	16.91976	19.71114	0.91443	1.09358	180.9681	157.0079	69.18274	0.3079	 	3.04134E20	 	8.87697E-21	 	10629.946	29.1008	 
275.0	1.0	0.0	7.7091	7.08956	-9.87902	16.90452	19.64577	0.90918	1.0999	181.34218	157.16169	69.33681	0.30769	 	5.1306699999999997E20	 	5.21449E-21	 	10484.874	29.0144	 
270.0	1.0	0.0	7.71112	7.0877	-9.90258	16.8893	19.58039	0.90389	1.10633	181.71464	157.31376	69.49032	0.30748	 	8.739109999999999E20	 	3.03347E-21	 	10340.231	28.9286	 
265.0	1.0	0.0	7.71313	7.08585	-9.9261	16.87408	19.51498	0.89857	1.11288	182.08549	157.4641	69.64325	0.30727	 	1.50335E21	 	1.74714E-21	 	10196.016	28.843	 
260.0	1.0	0.0	7.71514	7.08401	-9.94958	16.85888	19.44955	0.89322	1.11955	182.45473	157.61272	69.79562	0.30706	 	2.61262E21	 	9.96001E-22	 	10052.224	28.7584	 
255.0	1.0	0.0	7.71715	7.08216	-9.97301	16.84369	19.38409	0.88783	1.12634	182.82234	157.75962	69.94742	0.30686	 	4.58816E21	 	5.61831E-22	 	9908.854	28.674	 
250.0	1.0	0.0	7.71916	7.08032	-9.99641	16.82851	19.31861	0.88241	1.13327	183.18833	157.9048	70.09864	0.30665	 	8.14475E21	 	3.13498E-22	 	9765.903	28.5902	 
245.0	1.0	0.0	7.72116	7.07849	-10.01976	16.81334	19.25311	0.87694	1.14032	183.55269	158.04827	70.24929	0.30644	 	1.4619399999999999E22	 	1.72987E-22	 	9623.37	28.5066	 
240.0	1.0	0.0	7.72316	7.07665	-10.04308	16.79819	19.18758	0.87145	1.14751	183.91543	158.19004	70.39936	0.30623	 	2.6541999999999996E22	 	9.43621E-23	 	9481.25	28.424	 
235.0	1.0	0.0	7.72516	7.07482	-10.06635	16.78304	19.12203	0.86592	1.15485	184.27655	158.3301	70.54886	0.30602	 	4.8757E22	 	5.08676E-23	 	9339.544	28.3412	 
230.0	1.0	0.0	7.72716	7.07299	-10.08958	16.76791	19.05645	0.86035	1.16232	184.63603	158.46847	70.69778	0.30581	 	9.065489999999999E22	 	2.7089E-23	 	9198.248	28.2592	 
225.0	1.0	0.0	7.72915	7.07117	-10.11277	16.75279	18.99084	0.85474	1.16995	184.99389	158.60515	70.84613	0.3056	 	1.70669E23	 	1.4246E-23	 	9057.361	28.1774	 
220.0	1.0	0.0	7.73114	7.06935	-10.13592	16.73768	18.92521	0.84909	1.17773	185.35012	158.74014	70.9939	0.30539	 	3.25455E23	 	7.39562E-24	 	8916.882	28.0958	 
215.0	1.0	0.0	7.73313	7.06753	-10.15903	16.72258	18.85955	0.84341	1.18566	185.70472	158.87345	71.1411	0.30519	 	6.288859999999999E23	 	3.78851E-24	 	8776.808	28.0148	 
210.0	1.0	0.0	7.73512	7.06571	-10.1821	16.70749	18.79386	0.83769	1.19376	186.05771	159.00509	71.28772	0.30498	 	1.2319E24	 	1.91423E-24	 	8637.139	27.9338	 
205.0	1.0	0.0	7.7371	7.0639	-10.20513	16.69242	18.72814	0.83193	1.20202	186.40907	159.13506	71.43377	0.30477	 	2.4473E24	 	9.53594E-25	 	8497.872	27.8534	 
200.0	1.0	0.0	7.73908	7.06209	-10.22811	16.67735	18.66239	0.82613	1.21046	186.75881	159.26338	71.57924	0.30456	 	4.93289E24	 	4.68149E-25	 	8359.008	27.7728	 
195.0	1.0	0.0	7.74106	7.06029	-10.25106	16.6623	18.59661	0.82029	1.21908	187.10694	159.39005	71.72415	0.30435	 	1.0093000000000001E25	 	2.26388E-25	 	8220.545	27.6926	 
190.0	1.0	0.0	7.74304	7.05849	-10.27396	16.64726	18.5308	0.81441	1.22788	187.45346	159.51509	71.86848	0.30414	 	2.09725E25	 	1.07785E-25	 	8082.482	27.6126	 
185.0	1.0	0.0	7.74501	7.05669	-10.29683	16.63223	18.46495	0.80849	1.23687	187.79837	159.63849	72.01224	0.30393	 	4.42809E25	 	5.04984E-26	 	7944.818	27.5328	 
180.0	1.0	0.0	7.74698	7.05489	-10.31965	16.61721	18.39908	0.80253	1.24605	188.14169	159.76027	72.15544	0.30372	 	9.50487E25	 	2.32693E-26	 	7807.554	27.4528	 
175.0	1.0	0.0	7.74895	7.0531	-10.34244	16.60221	18.33317	0.79653	1.25544	188.48342	159.88045	72.29807	0.30352	 	2.07529E26	 	1.05398E-26	 	7670.688	27.3732	 
170.0	1.0	0.0	7.75092	7.05131	-10.36518	16.58721	18.26722	0.79049	1.26504	188.82356	159.99904	72.44014	0.30331	 	4.61174E26	 	4.68999E-27	 	7534.221	27.2934	 
165.0	1.0	0.0	7.75288	7.04953	-10.38788	16.57223	18.20124	0.7844	1.27485	189.16214	160.11604	72.58165	0.3031	 	1.04368E27	 	2.049E-27	 	7398.153	27.2136	 
160.0	1.0	0.0	7.75484	7.04774	-10.41054	16.55726	18.13522	0.77828	1.28489	189.49915	160.23147	72.72261	0.30289	 	2.4068999999999998E27	 	8.78347E-28	 	7262.483	27.134	 
155.0	1.0	0.0	7.7568	7.04596	-10.43316	16.5423	18.06917	0.7721	1.29516	189.83461	160.34535	72.86301	0.30268	 	5.66014E27	 	3.69195E-28	 	7127.213	27.054	 
150.0	1.0	0.0	7.75876	7.04419	-10.45574	16.52735	18.00308	0.76589	1.30567	190.16853	160.4577	73.00288	0.30247	 	1.35823E28	 	1.52058E-28	 	6992.342	26.9742	 
145.0	1.0	0.0	7.76071	7.04241	-10.47828	16.51242	17.93695	0.75963	1.31643	190.50093	160.56852	73.1422	0.30226	 	3.3282000000000003E28	 	6.13211E-29	 	6857.872	26.894	 
140.0	1.0	0.0	7.76266	7.04064	-10.50079	16.49749	17.87078	0.75332	1.32745	190.83181	160.67784	73.28099	0.30206	 	8.33427E28	 	2.41951E-29	 	6723.804	26.8136	 
135.0	1.0	0.0	7.76461	7.03888	-10.52325	16.48258	17.80457	0.74698	1.33873	191.16121	160.78567	73.41925	0.30185	 	2.13449E29	 	9.33281E-30	 	6590.138	26.7332	 
130.0	1.0	0.0	7.76656	7.03711	-10.54567	16.46768	17.73831	0.74058	1.35029	191.48914	160.89205	73.55698	0.30164	 	5.59567E29	 	3.51643E-30	 	6456.877	26.6522	 
125.0	1.0	0.0	7.7685	7.03535	-10.56805	16.45279	17.67201	0.73414	1.36214	191.81561	160.99698	73.69421	0.30143	 	1.50288E30	 	1.29304E-30	 	6324.022	26.571	 
120.0	1.0	0.0	7.77044	7.0336	-10.59039	16.43791	17.60567	0.72765	1.37428	192.14065	161.10049	73.83092	0.30122	 	4.1391199999999996E30	 	4.63593E-31	 	6191.575	26.4894	 
115.0	1.0	0.0	7.77238	7.03184	-10.61269	16.42304	17.53928	0.72112	1.38674	192.46429	161.20261	73.96714	0.30101	 	1.1701199999999998E31	 	1.61904E-31	 	6059.539	26.4072	 
110.0	1.0	0.0	7.77431	7.03009	-10.63495	16.40819	17.47284	0.71453	1.39951	192.78654	161.30335	74.10288	0.3008	 	3.3988299999999997E31	 	5.50207E-32	 	5927.915	26.3248	 
105.0	1.0	0.0	7.77625	7.02834	-10.65717	16.39334	17.40635	0.7079	1.41262	193.10744	161.40276	74.23813	0.30059	 	1.01549E32	 	1.8175E-32	 	5796.708	26.2414	 
100.0	1.0	0.0	7.77818	7.0266	-10.67935	16.37851	17.33982	0.70122	1.42608	193.42702	161.50086	74.37293	0.30039	 	3.12437E32	 	5.82918E-33	 	5665.919	26.1578	 
95.0	1.0	0.0	7.78011	7.02486	-10.70149	16.36369	17.27323	0.69449	1.4399	193.74531	161.59768	74.50727	0.30018	 	9.91075E32	 	1.81303E-33	 	5535.554	26.073	 
90.0	1.0	0.0	7.78203	7.02312	-10.72359	16.34888	17.20658	0.68772	1.45409	194.06235	161.69325	74.64117	0.29997	 	3.24531E33	 	5.46155E-34	 	5405.615	25.9878	 
85.0	1.0	0.0	7.78396	7.02138	-10.74565	16.33408	17.13989	0.68089	1.46867	194.37817	161.78761	74.77464	0.29976	 	1.09847E34	 	1.59133E-34	 	5276.107	25.9016	 
80.0	1.0	0.0	7.78588	7.01965	-10.76767	16.3193	17.07313	0.67401	1.48367	194.69282	161.88081	74.90771	0.29955	 	3.84874E34	 	4.47845E-35	 	5147.035	25.8144	 
75.0	1.0	0.0	7.7878	7.01792	-10.78965	16.30452	17.00631	0.66707	1.49908	195.00634	161.97287	75.04039	0.29934	 	1.39794E35	 	1.21553E-35	 	5018.404	25.7262	 
70.0	1.0	0.0	7.78971	7.01619	-10.81159	16.28976	16.93944	0.66009	1.51495	195.31878	162.06384	75.17269	0.29913	 	5.2720699999999995E35	 	3.1768E-36	 	4890.22	25.6368	 
65.0	1.0	0.0	7.79163	7.01447	-10.8335	16.27501	16.87249	0.65305	1.53127	195.63019	162.15378	75.30464	0.29893	 	2.06787E36	 	7.98128E-37	 	4762.489	25.5462	 
60.0	1.0	0.0	7.79354	7.01275	-10.85536	16.26027	16.80549	0.64596	1.54808	195.94063	162.24273	75.43626	0.29872	 	8.45049E36	 	1.92418E-37	 	4635.218	25.4542	 
55.0	1.0	0.0	7.79545	7.01103	-10.87718	16.24554	16.73841	0.63882	1.5654	196.25017	162.33074	75.56757	0.29851	 	3.60471E37	 	4.44312E-38	 	4508.414	25.3608	 
50.0	1.0	0.0	7.79735	7.00932	-10.89897	16.23083	16.67126	0.63162	1.58324	196.55885	162.41787	75.69859	0.2983	 	1.6082599999999999E38	 	9.80699E-39	 	4382.086	25.2656	 
45.0	1.0	0.0	7.79925	7.00761	-10.92071	16.21612	16.60404	0.62436	1.60164	196.86676	162.50418	75.82936	0.29809	 	7.52062E38	 	2.06474E-39	 	4256.241	25.169	 
40.0	1.0	0.0	7.80116	7.0059	-10.94242	16.20143	16.53674	0.61705	1.62061	197.17397	162.58974	75.95991	0.29788	 	3.69441E39	 	4.13708E-40	 	4130.889	25.0704	 
35.0	1.0	0.0	7.80305	7.0042	-10.96408	16.18675	16.46936	0.60968	1.6402	197.48057	162.67461	76.09025	0.29767	 	1.91104E40	 	7.87009E-41	 	4006.041	24.9696	 
30.0	1.0	0.0	7.80495	7.0025	-10.98571	16.17208	16.4019	0.60226	1.66042	197.78664	162.75888	76.22044	0.29746	 	1.04361E41	 	1.41777E-41	 	3881.707	24.8668	 
25.0	1.0	0.0	7.80684	7.0008	-11.0073	 	16.33434	0.59477	1.68132	198.09227	162.84261	76.3505	0.29726	 	6.033010000000001E41	 	2.41206E-42	 	3757.9	 	 
