T (C)	Fraction solid (wt)-TOTAL	Fraction liquid (wt)-LIQUID	Density (g/(cm)^3)-TOTAL	Molar volume (cm^3)-TOTAL	Volume change (%)-  	Average expansion coeff. (10e-6 1/K)-  	Thermal conductivity (W/(m*K))-TOTAL	Electrical resistivity (10e-6 Ohm*m)-TOTAL	Electrical conductivity (10e6 1/(Ohm*m))-TOTAL	Young's modulus (GPa)-TOTAL	Bulk modulus (GPa)-TOTAL	Shear modulus(GPa)-TOTAL	Poisson's ratio-TOTAL	Liquid viscosity (mPa s)-  	Total viscosity (mPa s)-  	Liquid diffusivity (10e-9 (m^2)/s)-  	Total diffusivity (10e-9 (m^2)/s)-  	Surface Tension (mN/m)-  	Enthalpy (J/mole)-TOTAL	Specific heat (J/(mole K))-TOTAL	Latent heat (J/mole)-TOTAL
700.0	1.0E-5	0.99999	1.61631	15.19644	0.0	53.21083	79.76743	0.2989	3.34564	2.08662E-20	25.58407	6.9554E-21	0.5	1.23089	1.23089	3.85874	3.85874	546.96019	27451.18	 	0.0
695.0	2.0E-5	0.99998	1.61759	15.18449	-0.0785951	53.17477	79.42941	0.29863	3.34867	2.12473E-19	25.65204	7.08244E-20	0.5	1.24529	1.24529	3.79453	3.79453	548.69374	27280.057	34.2246	0.235
690.0	2.0E-5	0.99998	1.61887	15.17243	-0.15794	53.13401	79.09056	0.29836	3.3517	8.24047E-19	25.71972	2.74683E-19	0.5	1.26001	1.26001	3.73083	3.73083	550.42755	27108.953	34.2208	0.454
685.0	3.0E-5	0.99997	1.62014	15.16059	-0.23586	53.10062	78.75254	0.29808	3.35479	2.09735E-18	25.7877	6.99118E-19	0.5	1.27506	1.27506	3.66765	3.66765	552.16156	26937.869	34.2168	0.654
680.0	3.0E-5	0.99997	1.62141	15.14865	-0.31445	53.0629	78.41375	0.29781	3.35788	4.2133E-18	25.85544	1.40444E-18	0.5	1.29046	1.29046	3.60499	3.60499	553.89581	26766.802	34.2134	0.835
675.81	4.0E-5	0.99996	1.62248	15.13868	-0.38004	53.03258	78.12972	0.29758	3.3605	6.71249E-18	25.91227	2.2375E-18	0.49999	1.30363	1.30363	3.55286	3.55286	555.35006	26623.383	34.2103	0.975
675.0	1.0E-4	0.9999	1.62269	15.13677	-0.3926	53.0271	78.07631	0.29753	3.36106	5.50734E-17	25.92306	1.83579E-17	0.49999	1.30613	1.30613	3.54306	3.54306	555.62602	26594.217	36.1086	2.535
670.0	4.9E-4	0.99951	1.62399	15.12465	-0.47239	52.98142	77.74387	0.29722	3.36449	1.18469E-13	25.98945	3.9491E-14	0.49995	1.32178	1.32178	3.48265	3.48265	557.33484	26413.904	36.0626	11.962
665.0	8.7E-4	0.99913	1.62528	15.11257	-0.55185	52.93685	77.4111	0.29692	3.36794	1.31478E-12	26.05593	4.38287E-13	0.4999	1.33781	1.33781	3.42268	3.42268	559.04453	26233.985	35.9838	20.993
660.0	0.00123	0.99877	1.62657	15.10054	-0.63102	52.89333	77.07799	0.29661	3.37142	5.56841E-12	26.1225	1.85631E-12	0.49986	1.35423	1.35423	3.36315	3.36315	560.75506	26054.448	35.9074	29.643
655.0	0.00158	0.99842	1.62786	15.08871	-0.70891	52.85661	76.74528	0.2963	3.37495	1.5469E-11	26.18939	5.15693E-12	0.49983	1.37105	1.37105	3.30409	3.30409	562.46638	25875.291	35.8314	37.923
650.0	0.00191	0.99809	1.62914	15.07676	-0.78755	52.81483	76.41146	0.29599	3.37847	3.38775E-11	26.2561	1.12941E-11	0.49979	1.38829	1.38829	3.24548	3.24548	564.17852	25696.51	35.7562	45.847
645.0	0.00222	0.99778	1.63041	15.06498	-0.86504	52.77929	76.07798	0.29568	3.38204	6.36657E-11	26.32307	2.12254E-11	0.49976	1.40596	1.40596	3.18734	3.18734	565.88781	25518.408	35.6204	53.425
640.0	0.00252	0.99748	1.63169	15.05323	-0.94238	52.74403	75.74408	0.29537	3.38564	1.07508E-10	26.39006	3.58428E-11	0.49972	1.42407	1.42407	3.12966	3.12966	567.6017	25341.314	35.4188	60.67
635.0	0.00281	0.99719	1.63295	15.04166	-1.01853	52.71535	75.41055	0.29505	3.38929	1.67869E-10	26.45734	5.59677E-11	0.49969	1.44264	1.44264	3.07247	3.07247	569.31627	25165.208	35.2212	67.592
630.0	0.00309	0.99691	1.63422	15.02996	-1.09552	52.68115	75.07589	0.29473	3.39293	2.46672E-10	26.52444	8.22426E-11	0.49966	1.46168	1.46168	3.01575	3.01575	571.03156	24990.069	35.0278	74.203
625.0	0.00335	0.99665	1.63547	15.01841	-1.1715	52.65254	74.7415	0.29441	3.39662	3.45482E-10	26.59171	1.15189E-10	0.49963	1.4812	1.4812	2.95952	2.95952	572.74751	24815.877	34.8384	80.513
620.0	0.0036	0.9964	1.63673	15.00688	-1.24735	52.62429	74.4067	0.29409	3.40033	4.65521E-10	26.65904	1.55215E-10	0.4996	1.50123	1.50123	2.90379	2.90379	574.46412	24642.613	34.6528	86.532
616.82	0.00375	0.99625	1.63752	14.99963	-1.29507	52.60958	74.19378	0.29388	3.40273	5.53193E-10	26.70199	1.84448E-10	0.49959	1.51425	1.51425	2.86856	2.86856	575.5571	24532.81	 	90.208
615.0	0.0771704	0.92283	1.64233	14.95575	-1.58382	50.96446	77.27174	0.2816	3.55114	7.25705E-4	26.71751	2.43931E-4	0.48752	1.52168	1.78453	2.84872	2.42912	576.4236	23872.443	154.034	690.084
614.43	0.097971	0.90203	1.6437	14.94325	-1.66606	50.49823	78.15845	0.27823	3.59419	0.00197675	26.7438	6.65983E-4	0.48408	1.52401	2.00463	2.84254	2.16104	576.69359	23683.86	 	859.839
614.43	0.097971	0.90203	1.6437	14.94325	-1.6661	50.49802	78.15857	0.27823	3.59419	0.00197698	26.74381	6.66061E-4	0.48408	1.52401	2.00463	2.84254	2.16104	576.69359	23683.825	 	859.874
610.0	0.23869	0.76131	1.65315	14.85783	-2.22817	47.33296	84.36376	0.25647	3.89902	0.0785619	26.94015	0.0268923	0.46068	1.54256	12.96571	2.79433	0.33245	578.80645	22395.455	295.398	2001.072
605.0	0.3566	0.6434	1.66134	14.78454	-2.71049	44.67033	90.1094	0.23876	4.18828	0.40997	27.14456	0.14227	0.4408	1.56405	62.54952	2.74033	0.0685222	581.19031	21282.744	222.542	2948.391
600.0	0.44544	0.55456	1.66775	14.72773	-3.08431	42.65822	94.90835	0.2254	4.43659	1.02787	27.33609	0.36049	0.42564	1.58614	164.57058	2.6868	0.0258954	583.5749	20411.749	174.199	3654.593
595.0	0.51443	0.48557	1.67293	14.68207	-3.3848	41.08579	98.89854	0.21507	4.64974	1.86958	27.51781	0.66122	0.41372	1.60881	321.20513	2.63376	0.0131916	585.95962	19705.344	141.281	4196.795
590.0	0.56934	0.43066	1.67724	14.64438	-3.63277	39.8288	102.2745	0.20677	4.83632	2.85616	27.6921	1.01705	0.40414	1.63209	531.15561	2.58124	0.00793142	588.34398	19115.416	117.986	4623.1
585.0	0.6139	0.3861	1.68088	14.61249	-3.84266	38.80045	105.09507	0.20005	4.99865	3.92185	27.86011	1.40441	0.39627	1.65598	793.34607	2.52927	0.00527943	590.72767	18610.545	100.974	4964.923
583.35	0.6267	0.3733	1.68197	14.60309	-3.90452	38.50631	105.92008	0.19811	5.04762	4.27934	27.91459	1.53493	0.39399	1.66402	890.84976	2.5122	0.00469253	591.5162	18459.201	 	5062.446
575.0	0.68187	0.31813	1.68684	14.56077	-4.18297	37.22119	109.39811	0.18995	5.26467	6.12802	28.18258	2.21377	0.38407	1.70565	1481.2735	2.42699	0.00279463	595.49147	17774.691	83.5854	5476.36
570.0	0.70794	0.29206	1.68931	14.53937	-4.32383	36.60836	111.02093	0.18607	5.37445	7.20249	28.33774	2.61094	0.37929	1.73147	1910.36411	2.37671	0.00215415	597.87203	17420.787	70.7808	5668.879
565.0	0.7303	0.2697	1.69154	14.52008	-4.45077	36.07927	112.36811	0.18274	5.47212	8.24321	28.48977	2.9972	0.37515	1.75798	2404.21888	2.32699	0.00170151	600.25151	17097.123	64.7328	5831.691
560.0	0.74964	0.25036	1.69358	14.5025	-4.56644	35.61814	113.48494	0.17987	5.55967	9.24368	28.6389	3.36988	0.37151	1.78519	2970.53497	2.27785	0.00136891	602.62993	16797.811	59.8624	5970.682
555.0	0.76651	0.23349	1.69546	14.48629	-4.67312	35.21094	114.40751	0.17735	5.63871	10.20074	28.78536	3.72754	0.3683	1.81313	3618.55083	2.22928	0.00111702	605.00736	16518.361	55.89	6090.327
550.0	0.78136	0.21864	1.6972	14.47127	-4.77193	34.85129	115.16662	0.17511	5.7106	11.11371	28.92947	4.06969	0.36542	1.84184	4359.62377	2.1813	9.21545E-4	607.38376	16255.301	52.612	6194.092
545.0	0.79451	0.20549	1.69884	14.45719	-4.86458	34.52852	115.78808	0.17312	5.7765	11.98387	29.07127	4.39666	0.36284	1.87132	5207.59798	2.13388	7.668E-4	609.75931	16005.904	49.8794	6284.691
542.14	0.80135	0.19865	1.69973	14.44954	-4.91494	34.3601	116.09196	0.17206	5.812	12.46188	29.15155	4.57661	0.36147	1.88857	5746.65073	2.10699	6.9244E-4	611.11944	15868.526	 	6331.346
542.14	0.80135	0.19865	1.69973	14.44954	-4.91494	34.36009	116.09196	0.17206	5.812	12.46188	29.15155	4.57661	0.36147	1.88857	5746.65073	2.10699	6.9244E-4	611.11944	15868.526	 	6331.346
540.0	0.80624	0.19376	1.70039	14.44395	-4.95174	34.23877	116.3001	0.1713	5.83772	12.81335	29.21087	4.70908	0.36049	1.90156	6178.64219	2.08712	6.42339E-4	612.13281	15767.581	47.6646	6364.713
535.0	0.81687	0.18313	1.70186	14.43131	-5.03487	33.97256	116.71159	0.16965	5.89462	13.61089	29.34841	5.01013	0.35834	1.93257	7295.16837	2.041	5.40684E-4	614.50447	15538.123	45.8916	6436.368
530.0	0.82641	0.17359	1.70326	14.41932	-5.11384	33.73154	117.0349	0.16813	5.94775	14.36991	29.48413	5.29722	0.35636	1.96449	8575.41984	1.99542	4.57118E-4	616.87623	15317.428	44.139	6499.742
525.0	0.83505	0.16495	1.70461	14.40783	-5.18945	33.51048	117.28183	0.16673	5.99764	15.0934	29.6181	5.57139	0.35455	1.99735	10045.26891	1.95037	3.87802E-4	619.24808	15104.226	42.6404	6556.098
520.0	0.84289	0.15711	1.7059	14.3968	-5.262	33.30778	117.4634	0.16543	6.04479	15.78406	29.75038	5.83357	0.35286	2.03117	11735.41277	1.90588	3.29871E-4	621.61989	14897.485	41.3482	6606.464
515.0	0.85004	0.14996	1.70714	14.38618	-5.33188	33.121	117.588	0.16421	6.08959	16.44418	29.88103	6.08458	0.3513	2.066	13681.43537	1.86194	2.81167E-4	623.99165	14696.357	40.2256	6651.685
510.0	0.85661	0.14339	1.70835	14.37589	-5.39957	32.94711	117.66276	0.16307	6.13236	17.07662	30.01002	6.32544	0.34984	2.10186	15925.58572	1.81856	2.40014E-4	626.36343	14500.136	39.2442	6692.468
505.0	0.86264	0.13736	1.70952	14.36592	-5.46521	32.78542	117.69449	0.16198	6.17343	17.68401	30.13746	6.55709	0.34846	2.13881	18518.01379	1.77574	2.05095E-4	628.73523	14308.235	38.3802	6729.38
500.0	0.8682	0.1318	1.71066	14.35622	-5.52904	32.63432	117.68858	0.16095	6.21304	18.26822	30.26339	6.78023	0.34717	2.17687	21517.20655	1.73348	1.75374E-4	631.10712	14120.159	37.6152	6762.9
495.0	0.87337	0.12663	1.71177	14.34675	-5.59135	32.49196	117.64766	0.15997	6.25131	18.83044	30.38776	6.99526	0.34594	2.2161	24990.89766	1.69178	1.50021E-4	633.47921	13935.489	36.934	6793.487
490.0	0.87817	0.12183	1.71286	14.33752	-5.6521	32.35891	117.57743	0.15902	6.28851	19.37322	30.51072	7.20312	0.34478	2.25653	29022.30156	1.65065	1.28341E-4	635.85147	13753.866	36.3246	6821.471
485.0	0.88264	0.11736	1.71393	14.32848	-5.71155	32.23344	117.48024	0.15811	6.32475	19.89757	30.63223	7.40417	0.34367	2.29823	33707.12108	1.61008	1.09779E-4	638.22404	13574.984	35.7764	6847.16
480.0	0.88683	0.11317	1.71498	14.31962	-5.76985	32.11451	117.35824	0.15723	6.36013	20.4047	30.75235	7.59886	0.34262	2.34124	39159.34543	1.57008	9.38713E-5	640.59705	13398.578	35.2812	6870.788
475.0	0.89076	0.10924	1.716	14.31091	-5.82718	32.00091	117.21466	0.15638	6.3948	20.8969	30.87104	7.78804	0.3416	2.38561	45517.23755	1.53065	8.02231E-5	642.97069	13224.419	34.8318	6892.612
470.0	0.89445	0.10555	1.71702	14.30237	-5.88341	31.89388	117.05194	0.15555	6.42889	21.37457	30.98837	7.97184	0.34063	2.43141	52942.51112	1.49178	6.85107E-5	645.34488	13052.306	34.4226	6912.811
465.0	0.89794	0.10206	1.71801	14.29393	-5.93895	31.79026	116.87059	0.15474	6.46241	21.83903	31.10429	8.15077	0.33969	2.4787	61628.58174	1.45348	5.84587E-5	647.72001	12882.067	34.0478	6931.552
460.0	0.90123	0.0987722	1.719	14.28564	-5.99348	31.69279	116.67315	0.15395	6.49549	22.29188	31.21893	8.32541	0.33879	2.52753	71810.6633	1.41574	4.983E-5	650.09587	12713.546	33.7042	6948.986
455.0	0.90433	0.095666	1.71997	14.27746	-6.04734	31.59876	116.46073	0.15318	6.52819	22.73292	31.33223	8.49567	0.33791	2.57799	83763.15666	1.37856	4.24282E-5	652.47285	12546.61	33.3872	6965.236
450.0	0.9073	0.0927033	1.72093	14.26938	-6.10051	31.50853	116.23418	0.15243	6.56054	23.16362	31.44423	8.66213	0.33706	2.63013	97822.37635	1.34195	3.60809E-5	654.85101	12381.138	33.0944	6980.415
445.0	0.91011	0.0898905	1.72188	14.2614	-6.153	31.42217	115.9953	0.15168	6.59264	23.58445	31.55491	8.82493	0.33624	2.68405	114390.0768	1.3059	3.06417E-5	657.23044	12217.024	32.8228	6994.632
444.39	0.91044	0.0895569	1.72199	14.26043	-6.15938	31.4119	115.96507	0.15159	6.59655	23.63525	31.5684	8.84459	0.33614	2.69078	116615.4407	1.30152	3.00314E-5	657.52227	12197.002	 	6996.302
435.0	0.9154	0.0846024	1.72375	14.24568	-6.25646	31.25677	115.47332	0.15025	6.65565	24.40464	31.77257	9.1427	0.33465	2.7975	157125.754	1.2355	2.19971E-5	661.99339	11892.303	32.4721	7020.706
433.99	0.9159	0.0841002	1.72394	14.24411	-6.26675	31.2413	115.41914	0.1501	6.66205	24.48512	31.79435	9.17391	0.3345	2.80943	162310.2547	1.22849	2.1264E-5	662.47623	11859.699	 	7023.144
432.43	0.95725	0.042747	1.72676	14.21983	-6.42657	29.91218	116.2754	0.14867	6.72628	29.02233	31.88419	10.92785	0.32791	2.84254	201797.804	1.21151	1.70654E-5	662.68492	11551.676	 	7284.857
430.0	0.98475	0.0152535	1.72874	14.20204	-6.5436	29.02471	116.79002	0.14751	6.77941	32.41559	31.97669	12.24694	0.32342	2.89646	242294.0923	1.18486	1.41642E-5	663.27798	11305.569	117.347	7458.677
425.0	1.0	0.0	1.73018	14.18757	-6.63884	28.50841	116.88836	0.14633	6.83371	34.54563	32.10513	13.07889	0.32066	 	299426.4426	 	1.13801E-5	 	11062.423	48.6292	7553.438
420.0	1.0	0.0	1.73099	14.18095	-6.68238	28.46224	116.60048	0.14564	6.86605	34.72538	32.20836	13.15048	0.32031	 	349528.6964	 	9.67901E-6	 	10857.6	40.9646	 
415.0	1.0	0.0	1.73179	14.17436	-6.7258	28.41607	116.31259	0.14495	6.89886	34.90422	32.31035	13.22176	0.31995	 	408932.8026	 	8.2133E-6	 	10710.958	29.3284	 
410.0	1.0	0.0	1.7326	14.16778	-6.76909	28.36989	116.02467	0.14426	6.93215	35.08214	32.41111	13.29273	0.3196	 	479533.47	 	6.95319E-6	 	10564.607	29.2702	 
405.0	1.0	0.0	1.7334	14.16122	-6.81225	28.32372	115.73674	0.14356	6.96593	35.25914	32.51066	13.3634	0.31924	 	563645.2317	 	5.87228E-6	 	10418.545	29.2124	 
400.0	1.0	0.0	1.7342	14.15468	-6.8553	28.27756	115.44878	0.14285	7.00022	35.43523	32.60898	13.43375	0.31889	 	664102.9562	 	4.94724E-6	 	10272.771	29.1548	 
395.0	1.0	0.0	1.735	14.14815	-6.89821	28.23139	115.16081	0.14215	7.03501	35.61041	32.70611	13.5038	0.31853	 	784388.2173	 	4.15747E-6	 	10127.284	29.0974	 
390.0	1.0	0.0	1.7358	14.14165	-6.941	28.18522	114.87281	0.14144	7.07033	35.78467	32.80203	13.57353	0.31818	 	928788.6391	 	3.48483E-6	 	9982.081	29.0406	 
385.0	1.0	0.0	1.7366	14.13517	-6.98367	28.13906	114.58479	0.14072	7.10618	35.95801	32.89676	13.64295	0.31782	 	1102599.42	 	2.91336E-6	 	9837.162	28.9838	 
380.0	1.0	0.0	1.73739	14.1287	-7.02621	28.0929	114.29675	0.14001	7.14258	36.13044	32.99031	13.71206	0.31747	 	1312378.976	 	2.42907E-6	 	9692.526	28.9272	 
375.0	1.0	0.0	1.73818	14.12226	-7.06863	28.04674	114.00868	0.13928	7.17953	36.30196	33.08268	13.78086	0.31711	 	1566274.243	 	2.01974E-6	 	9548.17	28.8712	 
370.0	1.0	0.0	1.73897	14.11583	-7.11092	28.00058	113.72059	0.13856	7.21707	36.47256	33.17388	13.84935	0.31676	 	1874435.943	 	1.67467E-6	 	9404.095	28.815	 
365.0	1.0	0.0	1.73976	14.10942	-7.15308	27.95442	113.43248	0.13783	7.25519	36.64224	33.26391	13.91753	0.31641	 	2249550.399	 	1.38457E-6	 	9260.299	28.7592	 
360.0	1.0	0.0	1.74055	14.10303	-7.19512	27.90826	113.14435	0.1371	7.29391	36.81101	33.35279	13.98539	0.31605	 	2707522.89	 	1.14136E-6	 	9116.781	28.7036	 
355.0	1.0	0.0	1.74134	14.09666	-7.23704	27.86211	112.85619	0.13637	7.33324	36.97887	33.44052	14.05294	0.3157	 	3268358.684	 	9.38038E-7	 	8973.54	28.6482	 
350.0	1.0	0.0	1.74212	14.09031	-7.27883	27.81595	112.56801	0.13563	7.3732	37.14581	33.52711	14.12018	0.31534	 	3957302.883	 	7.68564E-7	 	8830.575	28.593	 
345.0	1.0	0.0	1.74291	14.08398	-7.32049	27.7698	112.2798	0.13488	7.41381	37.31183	33.61255	14.18711	0.31499	 	4806320.338	 	6.27723E-7	 	8687.884	28.5382	 
340.0	1.0	0.0	1.74369	14.07767	-7.36203	27.72365	111.99157	0.13414	7.45508	37.47694	33.69687	14.25372	0.31464	 	5856024.049	 	5.11035E-7	 	8545.466	28.4836	 
335.0	1.0	0.0	1.74447	14.07138	-7.40345	27.6775	111.70331	0.13339	7.49703	37.64114	33.78007	14.32002	0.31428	 	7158197.295	 	4.14662E-7	 	8403.321	28.429	 
330.0	1.0	0.0	1.74525	14.0651	-7.44474	27.63135	111.41503	0.13263	7.53967	37.80442	33.86215	14.38601	0.31393	 	8779104.805	 	3.35322E-7	 	8261.448	28.3746	 
325.0	1.0	0.0	1.74602	14.05885	-7.4859	27.58521	111.12672	0.13187	7.58302	37.96678	33.94312	14.45168	0.31358	 	1.080385671E7	 	2.7022E-7	 	8119.846	28.3204	 
320.0	1.0	0.0	1.7468	14.05261	-7.52694	27.53906	110.83839	0.13111	7.6271	38.12823	34.02298	14.51704	0.31322	 	1.334218283E7	 	2.16982E-7	 	7978.514	28.2664	 
315.0	1.0	0.0	1.74757	14.04639	-7.56786	27.49292	110.55003	0.13035	7.67193	38.28877	34.10175	14.58209	0.31287	 	1.653610431E7	 	1.73597E-7	 	7837.451	28.2126	 
310.0	1.0	0.0	1.74834	14.04019	-7.60865	27.44677	110.26164	0.12958	7.71753	38.44839	34.17943	14.64682	0.31252	 	2.057016823E7	 	1.38366E-7	 	7696.656	28.159	 
305.0	1.0	0.0	1.74911	14.03401	-7.64931	27.40063	109.97322	0.1288	7.76391	38.60709	34.25602	14.71123	0.31216	 	2.568516009E7	 	1.09861E-7	 	7556.128	28.1056	 
300.0	1.0	0.0	1.74988	14.02785	-7.68985	27.3545	109.68478	0.12802	7.8111	38.76488	34.33154	14.77533	0.31181	 	3.219655601E7	 	8.68852E-8	 	7415.867	28.0522	 
295.0	1.0	0.0	1.75065	14.02171	-7.73026	27.30836	109.39631	0.12724	7.85911	38.92176	34.40598	14.83911	0.31146	 	4.051946431E7	 	6.84362E-8	 	7275.873	27.9988	 
290.0	1.0	0.0	1.75141	14.01559	-7.77055	27.26222	109.10781	0.12645	7.90798	39.07772	34.47935	14.90258	0.31111	 	5.120249332E7	 	5.36809E-8	 	7136.143	27.946	 
285.0	1.0	0.0	1.75217	14.00949	-7.81072	27.21609	108.81928	0.12566	7.95772	39.23276	34.55167	14.96573	0.31075	 	6.497395666E7	 	4.19274E-8	 	6996.679	27.8928	 
280.0	1.0	0.0	1.75294	14.0034	-7.85076	27.16995	108.53072	0.12487	8.00836	39.38689	34.62293	15.02857	0.3104	 	8.280521417E7	 	3.26041E-8	 	6857.478	27.8402	 
275.0	1.0	0.0	1.7537	13.99734	-7.89067	27.12382	108.24213	0.12407	8.05992	39.5401	34.69314	15.09109	0.31005	 	1.059979332E8	 	2.524E-8	 	6718.542	27.7872	 
270.0	1.0	0.0	1.75445	13.99129	-7.93046	27.07769	107.95351	0.12327	8.11243	39.6924	34.76232	15.15329	0.3097	 	1.36304914E8	 	1.94489E-8	 	6579.868	27.7348	 
265.0	1.0	0.0	1.75521	13.98526	-7.97012	27.03156	107.66486	0.12246	8.16591	39.84379	34.83045	15.21517	0.30934	 	1.760982601E8	 	1.49154E-8	 	6441.458	27.682	 
260.0	1.0	0.0	1.75596	13.97925	-8.00966	26.98544	107.37617	0.12165	8.22039	39.99426	34.89756	15.27674	0.30899	 	2.286046979E8	 	1.13828E-8	 	6303.31	27.6296	 
255.0	1.0	0.0	1.75672	13.97326	-8.04908	26.93931	107.08746	0.12083	8.2759	40.14381	34.96364	15.33799	0.30864	 	2.982366624E8	 	8.64337E-9	 	6165.424	27.5772	 
250.0	1.0	0.0	1.75747	13.96729	-8.08837	26.89319	106.79871	0.12001	8.33247	40.29245	35.0287	15.39892	0.30829	 	3.910607499E8	 	6.52933E-9	 	6027.8	27.5248	 
245.0	1.0	0.0	1.75822	13.96134	-8.12753	26.84706	106.50993	0.11919	8.39013	40.44018	35.09275	15.45953	0.30794	 	5.154643633E8	 	4.90618E-9	 	5890.437	27.4726	 
240.0	1.0	0.0	1.75896	13.95541	-8.16657	26.80094	106.22112	0.11836	8.44891	40.58699	35.15579	15.51983	0.30759	 	6.831100453E8	 	3.6664E-9	 	5753.336	27.4202	 
235.0	1.0	0.0	1.75971	13.9495	-8.20548	26.75482	105.93227	0.11752	8.50884	40.73288	35.21783	15.5798	0.30723	 	9.103099939E8	 	2.72452E-9	 	5616.497	27.3678	 
230.0	1.0	0.0	1.76045	13.9436	-8.24427	26.7087	105.64339	0.11669	8.56996	40.87786	35.27887	15.63946	0.30688	 	1.220018198E9	 	2.01288E-9	 	5479.918	27.3158	 
225.0	1.0	0.0	1.7612	13.93773	-8.28294	26.66259	105.35447	0.11584	8.6323	41.02193	35.33892	15.6988	0.30653	 	1.644736357E9	 	1.47826E-9	 	5343.602	27.2632	 
220.0	1.0	0.0	1.76194	13.93187	-8.32147	26.61647	105.06552	0.115	8.69591	41.16508	35.39799	15.75781	0.30618	 	2.230780894E9	 	1.07897E-9	 	5207.546	27.2112	 
215.0	1.0	0.0	1.76268	13.92603	-8.35989	26.57036	104.77653	0.11414	8.76082	41.30731	35.45608	15.81651	0.30583	 	3.044591384E9	 	7.82548E-10	 	5071.753	27.1586	 
210.0	1.0	0.0	1.76341	13.92021	-8.39818	26.52425	104.4875	0.11329	8.82706	41.44863	35.51319	15.87489	0.30548	 	4.18212267E9	 	5.63861E-10	 	4936.221	27.1064	 
205.0	1.0	0.0	1.76415	13.91441	-8.43634	26.47813	104.19844	0.11243	8.89469	41.58904	35.56933	15.93295	0.30513	 	5.782929244E9	 	4.03555E-10	 	4800.952	27.0538	 
200.0	1.0	0.0	1.76488	13.90863	-8.47438	26.43202	103.90934	0.11156	8.96375	41.72853	35.62451	15.99068	0.30478	 	8.051443637E9	 	2.86822E-10	 	4665.946	27.0012	 
195.0	1.0	0.0	1.76561	13.90287	-8.51229	26.38592	103.62019	0.11069	9.03427	41.8671	35.67874	16.0481	0.30443	 	1.12894E10	 	2.02396E-10	 	4531.203	26.9486	 
190.0	1.0	0.0	1.76634	13.89713	-8.55008	26.33981	103.33101	0.10981	9.10632	42.00476	35.732	16.10519	0.30407	 	1.5945399999999998E10	 	1.41766E-10	 	4396.724	26.8958	 
185.0	1.0	0.0	1.76707	13.8914	-8.58775	26.2937	103.04179	0.10893	9.17994	42.14151	35.78433	16.16197	0.30372	 	2.26921E10	 	9.85418E-11	 	4262.509	26.843	 
180.0	1.0	0.0	1.76779	13.8857	-8.62529	26.2476	102.75253	0.10805	9.25517	42.27734	35.8357	16.21842	0.30337	 	3.2545799999999996E10	 	6.7957E-11	 	4128.56	26.7898	 
175.0	1.0	0.0	1.76852	13.88001	-8.6627	26.2015	102.46323	0.10716	9.33208	42.41225	35.88614	16.27455	0.30302	 	4.705539999999999E10	 	4.64837E-11	 	3994.877	26.7366	 
170.0	1.0	0.0	1.76924	13.87435	-8.69999	26.1554	102.17388	0.10626	9.41072	42.54625	35.93565	16.33035	0.30267	 	6.860219999999999E10	 	3.15282E-11	 	3861.461	26.6832	 
165.0	1.0	0.0	1.76996	13.8687	-8.73716	26.1093	101.8845	0.10536	9.49116	42.67934	35.98423	16.38584	0.30232	 	1.0088E11	 	2.11986E-11	 	3728.313	26.6296	 
160.0	1.0	0.0	1.77068	13.86307	-8.7742	26.0632	101.59506	0.10446	9.57344	42.81151	36.03189	16.441	0.30197	 	1.4967E11	 	1.41251E-11	 	3595.435	26.5756	 
155.0	1.0	0.0	1.7714	13.85746	-8.81111	26.01711	101.30559	0.10354	9.65765	42.94276	36.07863	16.49584	0.30162	 	2.24113E11	 	9.32428E-12	 	3462.828	26.5214	 
150.0	1.0	0.0	1.77211	13.85187	-8.8479	25.97101	101.01606	0.10263	9.74384	43.0731	36.12445	16.55035	0.30127	 	3.388E11	 	6.09589E-12	 	3330.494	26.4668	 
145.0	1.0	0.0	1.77283	13.8463	-8.88457	25.92492	100.7265	0.10171	9.83208	43.20253	36.16937	16.60454	0.30092	 	5.17264E11	 	3.94554E-12	 	3198.433	26.4122	 
140.0	1.0	0.0	1.77354	13.84075	-8.92111	25.87882	100.43688	0.10078	9.92246	43.33104	36.21339	16.65841	0.30058	 	7.97865E11	 	2.52735E-12	 	3066.647	26.3572	 
135.0	1.0	0.0	1.77425	13.83521	-8.95752	25.83273	100.14722	0.0998498	10.01505	43.45864	36.25651	16.71195	0.30023	 	1.24382E12	 	1.60158E-12	 	2935.14	26.3014	 
130.0	1.0	0.0	1.77495	13.8297	-8.99381	25.78664	99.8575	0.0989127	10.10993	43.58532	36.29873	16.76517	0.29988	 	1.96051E12	 	1.00366E-12	 	2803.911	26.2458	 
125.0	1.0	0.0	1.77566	13.8242	-9.02998	25.74056	99.56774	0.0979702	10.20718	43.71108	36.34007	16.81807	0.29953	 	3.12567E12	 	6.21714E-13	 	2672.965	26.1892	 
120.0	1.0	0.0	1.77636	13.81872	-9.06602	25.69447	99.27793	0.0970223	10.30691	43.83593	36.38052	16.87063	0.29918	 	5.04278E12	 	3.80518E-13	 	2542.303	26.1324	 
115.0	1.0	0.0	1.77706	13.81327	-9.10194	25.64839	98.98806	0.0960689	10.40919	43.95987	36.42009	16.92288	0.29883	 	8.23662E12	 	2.30005E-13	 	2411.928	26.075	 
110.0	1.0	0.0	1.77776	13.80783	-9.13773	25.60231	98.69814	0.0951099	10.51415	44.08289	36.45879	16.9748	0.29848	 	1.36266E13	 	1.37236E-13	 	2281.842	26.0172	 
105.0	1.0	0.0	1.77846	13.80241	-9.17339	25.55622	98.40817	0.0941454	10.62187	44.205	36.49662	17.02639	0.29813	 	2.2846E13	 	8.07868E-14	 	2152.049	25.9586	 
100.0	1.0	0.0	1.77916	13.79701	-9.20893	25.51014	98.11814	0.0931752	10.73247	44.32619	36.53358	17.07765	0.29778	 	3.88371E13	 	4.68947E-14	 	2022.551	25.8996	 
95.0	1.0	0.0	1.77985	13.79162	-9.24435	25.46406	97.82805	0.0921993	10.84607	44.44646	36.56968	17.12859	0.29743	 	6.69795E13	 	2.68268E-14	 	1893.354	25.8394	 
90.0	1.0	0.0	1.78055	13.78626	-9.27964	25.41799	97.53791	0.0912176	10.9628	44.56582	36.60492	17.1792	0.29709	 	1.17261E14	 	1.51153E-14	 	1764.459	25.779	 
85.0	1.0	0.0	1.78124	13.78092	-9.31481	25.37191	97.24771	0.0902301	11.08277	44.68427	36.63932	17.22949	0.29674	 	2.08525E14	 	8.38287E-15	 	1635.873	25.7172	 
80.0	1.0	0.0	1.78192	13.77559	-9.34985	25.32584	96.95745	0.0892368	11.20614	44.8018	36.67286	17.27945	0.29639	 	3.76914E14	 	4.57302E-15	 	1507.598	25.655	 
75.0	1.0	0.0	1.78261	13.77029	-9.38477	25.27976	96.66713	0.0882376	11.33304	44.91842	36.70556	17.32908	0.29604	 	6.92963E14	 	2.45213E-15	 	1379.64	25.5916	 
70.0	1.0	0.0	1.7833	13.765	-9.41956	25.23369	96.37674	0.0872324	11.46363	45.03412	36.73742	17.37838	0.29569	 	1.29683E15	 	1.29148E-15	 	1252.005	25.527	 
65.0	1.0	0.0	1.78398	13.75973	-9.45423	25.18763	96.08629	0.0862212	11.59808	45.14891	36.76845	17.42736	0.29535	 	2.47234E15	 	6.67557E-16	 	1124.697	25.4616	 
60.0	1.0	0.0	1.78466	13.75448	-9.48877	25.14156	95.79578	0.0852039	11.73655	45.26278	36.79865	17.476	0.295	 	4.80555E15	 	3.38364E-16	 	997.724	25.3946	 
55.0	1.0	0.0	1.78534	13.74925	-9.52319	25.09549	95.50519	0.0841805	11.87924	45.37573	36.82802	17.52432	0.29465	 	9.53177E15	 	1.6803E-16	 	871.091	25.3266	 
50.0	1.0	0.0	1.78602	13.74404	-9.55748	25.04942	95.21454	0.0831509	12.02633	45.48778	36.85657	17.57231	0.2943	 	1.93112E16	 	8.16738E-17	 	744.807	25.2568	 
45.0	1.0	0.0	1.78669	13.73885	-9.59165	25.00337	94.92382	0.0821151	12.17803	45.5989	36.88431	17.61997	0.29396	 	4.0002E16	 	3.88184E-17	 	618.879	25.1856	 
40.0	1.0	0.0	1.78736	13.73367	-9.6257	24.9573	94.63302	0.0810729	12.33458	45.70911	36.91123	17.6673	0.29361	 	8.48113E16	 	1.80213E-17	 	493.316	25.1126	 
35.0	1.0	0.0	1.78803	13.72852	-9.65962	24.91124	94.34216	0.0800244	12.49619	45.81841	36.93734	17.7143	0.29326	 	1.84254E17	 	8.16265E-18	 	368.126	25.038	 
30.0	1.0	0.0	1.7887	13.72338	-9.69341	24.86519	94.05121	0.0789695	12.66312	45.92679	36.96264	17.76097	0.29291	 	4.10674E17	 	3.60286E-18	 	243.321	24.961	 
25.0	1.0	0.0	1.78937	13.71827	-9.72708	 	93.76019	0.0779081	12.83564	46.03426	36.98715	17.80731	0.29257	 	9.40266E17	 	1.54764E-18	 	118.912	 	 
