T (C)	Fraction solid (wt)-TOTAL	Fraction liquid (wt)-LIQUID	Density (g/(cm)^3)-TOTAL	Molar volume (cm^3)-TOTAL	Volume change (%)-  	Average expansion coeff. (10e-6 1/K)-  	Thermal conductivity (W/(m*K))-TOTAL	Electrical resistivity (10e-6 Ohm*m)-TOTAL	Electrical conductivity (10e6 1/(Ohm*m))-TOTAL	Young's modulus (GPa)-TOTAL	Bulk modulus (GPa)-TOTAL	Shear modulus(GPa)-TOTAL	Poisson's ratio-TOTAL	Liquid viscosity (mPa s)-  	Total viscosity (mPa s)-  	Liquid diffusivity (10e-9 (m^2)/s)-  	Total diffusivity (10e-9 (m^2)/s)-  	Surface Tension (mN/m)-  	Enthalpy (J/mole)-TOTAL	Specific heat (J/(mole K))-TOTAL	Latent heat (J/mole)-TOTAL
700.0	0.0	1.0	1.63853	15.13308	0.0	53.43029	79.40666	0.30025	3.33051	0.0	25.77118	0.0	0.5	1.24227	1.24227	3.8234	3.8234	547.69611	27260.795	 	0.0
695.0	0.0	1.0	1.63982	15.1211	-0.0791438	53.39267	79.06997	0.29998	3.33352	0.0	25.84023	0.0	0.5	1.25678	1.25678	3.75983	3.75983	549.42289	27089.728	34.2134	0.0
690.0	0.0	1.0	1.64112	15.10917	-0.15797	53.35625	78.73328	0.29971	3.33656	0.0	25.90927	0.0	0.5	1.27162	1.27162	3.69678	3.69678	551.14974	26918.652	34.2152	0.0
685.0	0.0	1.0	1.64241	15.09729	-0.23648	53.32106	78.3966	0.29943	3.33962	0.0	25.97831	0.0	0.5	1.28679	1.28679	3.63424	3.63424	552.87667	26747.566	34.2172	0.0
680.0	0.0	1.0	1.6437	15.08546	-0.31467	53.28712	78.05991	0.29916	3.34273	0.0	26.04735	0.0	0.5	1.3023	1.3023	3.57221	3.57221	554.60367	26576.471	34.219	0.0
677.18	0.0	1.0	1.64442	15.0788	-0.35866	53.26853	77.86987	0.299	3.34449	0.0	26.08631	0.0	0.5	1.31121	1.31121	3.53743	3.53743	555.57847	26479.897	34.2205	0.0
675.0	1.7E-4	0.99983	1.645	15.07357	-0.39324	53.2505	77.72615	0.29887	3.34599	2.73183E-15	26.1158	9.1062E-16	0.49998	1.31796	1.31796	3.51124	3.51124	556.32342	26401.209	36.1304	4.156
670.0	5.6E-4	0.99944	1.64631	15.06142	-0.47353	53.20347	77.39508	0.29856	3.3494	2.98843E-13	26.18336	9.96187E-14	0.49994	1.33373	1.33373	3.45142	3.45142	558.03417	26220.823	36.0772	13.428
665.0	9.3E-4	0.99907	1.64763	15.04946	-0.55257	53.16288	77.0644	0.29825	3.35286	2.29293E-12	26.2512	7.64364E-13	0.4999	1.34989	1.34989	3.39204	3.39204	559.74555	26040.808	36.003	22.32
660.0	0.00129	0.99871	1.64893	15.03754	-0.63135	53.12324	76.73336	0.29794	3.35635	8.40552E-12	26.31912	2.80211E-12	0.49986	1.36644	1.36644	3.33311	3.33311	561.45756	25861.15	35.9316	30.844
655.0	0.00163	0.99837	1.65023	15.02566	-0.70987	53.08444	76.40197	0.29763	3.35985	2.16241E-11	26.38711	7.2089E-12	0.49982	1.38339	1.38339	3.27462	3.27462	563.17018	25681.853	35.8594	39.011
650.0	0.00195	0.99805	1.65153	15.01395	-0.78722	53.05194	76.07092	0.29732	3.36341	4.51522E-11	26.45536	1.50529E-11	0.49978	1.40076	1.40076	3.21659	3.21659	564.88338	25502.913	35.788	46.834
645.0	0.00227	0.99773	1.65282	15.00212	-0.86536	53.01419	75.73876	0.297	3.36696	8.21385E-11	26.52343	2.73841E-11	0.49975	1.41856	1.41856	3.15903	3.15903	566.59577	25324.631	35.6564	54.322
640.0	0.00256	0.99744	1.65411	14.99047	-0.94238	52.98261	75.40692	0.29669	3.37057	1.35535E-10	26.59176	4.51868E-11	0.49971	1.4368	1.4368	3.10193	3.10193	568.31019	25147.331	35.46	61.486
635.0	0.00285	0.99715	1.6554	14.97883	-1.0193	52.95106	75.07466	0.29637	3.37419	2.07913E-10	26.66009	6.93189E-11	0.49968	1.45551	1.45551	3.0453	3.0453	570.02515	24970.994	35.2674	68.336
630.0	0.00312	0.99688	1.65668	14.96721	-1.09606	52.92	74.74201	0.29605	3.37784	3.01352E-10	26.72847	1.00474E-10	0.49965	1.47469	1.47469	2.98915	2.98915	571.74062	24795.602	35.0784	74.882
625.0	0.00338	0.99662	1.65795	14.95576	-1.17175	52.89501	74.40967	0.29572	3.38154	4.17428E-10	26.79708	1.39178E-10	0.49962	1.49435	1.49435	2.93348	2.93348	573.45657	24621.134	34.8936	81.135
620.0	0.00363	0.99637	1.65922	14.9443	-1.24747	52.8694	74.07684	0.2954	3.38526	5.5747E-10	26.86563	1.85874E-10	0.49959	1.51453	1.51453	2.87829	2.87829	575.17301	24447.572	34.7124	87.103
615.0	0.00386	0.99614	1.66049	14.93285	-1.3231	52.84397	73.74361	0.29507	3.389	7.21939E-10	26.93422	2.40716E-10	0.49957	1.53522	1.53522	2.8236	2.8236	576.88992	24274.896	34.5352	92.797
610.0	0.00409	0.99591	1.66175	14.92155	-1.39777	52.82408	73.41062	0.29474	3.3928	9.10948E-10	27.00297	3.03742E-10	0.49954	1.55645	1.55645	2.7694	2.7694	578.60726	24103.089	34.3614	98.225
607.44	0.0042	0.9958	1.66239	14.91574	-1.4362	52.81239	73.23993	0.29457	3.39474	1.0169E-9	27.03808	3.39074E-10	0.49953	1.56753	1.57286	2.74186	2.73257	579.48602	24015.523	 	100.903
605.0	0.0757904	0.92421	1.66731	14.87176	-1.72679	51.18397	76.11744	0.28265	3.53793	7.02084E-4	27.06147	2.35986E-4	0.48755	1.57916	1.86187	2.71411	2.302	580.63587	23349.904	150.637	685.624
600.0	0.19704	0.80296	1.67584	14.79604	-2.22718	48.41438	81.1083	0.26375	3.79149	0.037915	27.26401	0.0129219	0.46708	1.6035	8.36234	2.6577	0.50962	582.98884	22201.114	229.758	1669.213
595.0	0.29154	0.70846	1.68272	14.7356	-2.62653	46.251	85.24612	0.24951	4.00787	0.19094	27.45468	0.0658	0.45093	1.62851	35.98449	2.6019	0.11775	585.34003	21276.492	184.924	2429.211
590.0	0.36698	0.63302	1.68841	14.68586	-2.95526	44.51107	88.77361	0.23821	4.19789	0.49423	27.63606	0.17186	0.43789	1.65419	96.2899	2.54676	0.0437514	587.68922	20511.267	153.045	3030.379
585.0	0.42844	0.57156	1.69321	14.64426	-3.23017	43.09509	91.81734	0.22898	4.36712	0.93914	27.81061	0.32902	0.42717	1.68055	195.7161	2.49229	0.0214005	590.03621	19862.945	129.664	3515.205
580.0	0.47932	0.52068	1.69734	14.60857	-3.466	41.91366	94.45071	0.2213	4.5187	1.49895	27.97911	0.52847	0.4182	1.7076	338.08248	2.43852	0.0123166	592.38103	19302.587	112.072	3912.616
575.0	0.52207	0.47793	1.70094	14.5775	-3.67132	40.9157	96.68767	0.21492	4.65299	2.14349	28.14266	0.75979	0.41059	1.73535	526.4267	2.38546	0.0078636	594.72369	18809.875	98.5424	4242.925
570.0	0.55843	0.44157	1.70413	14.55016	-3.85199	40.0665	98.65464	0.20939	4.77581	2.84565	28.30213	1.01337	0.40405	1.76383	764.03602	2.33311	0.00538614	597.06417	18370.157	87.9436	4520.775
565.0	0.58969	0.41031	1.70699	14.52566	-4.01387	39.33012	100.35039	0.20463	4.88687	3.58335	28.45779	1.28126	0.39837	1.79305	1055.04726	2.28147	0.00387736	599.40262	17972.632	79.505	4756.959
560.0	0.61681	0.38319	1.70957	14.50355	-4.15994	38.68912	101.81085	0.20049	4.98775	4.33983	28.61033	1.55729	0.39339	1.82304	1404.80695	2.23056	0.00289463	601.73906	17609.18	72.6904	4959.589
555.0	0.64054	0.35946	1.71194	14.48337	-4.29331	38.12452	103.06542	0.19686	5.0797	5.10212	28.75986	1.83663	0.38899	1.85382	1819.89172	2.18035	0.00222101	604.0736	17273.592	67.1176	5134.867
550.0	0.66146	0.33854	1.71412	14.46482	-4.41588	37.62524	104.14184	0.19365	5.16393	5.86153	28.9067	2.11598	0.38506	1.88542	2308.60524	2.13087	0.00174027	606.4063	16961.048	62.5088	5287.606
545.0	0.68004	0.31996	1.71614	14.44758	-4.52984	37.17745	105.06263	0.19079	5.24142	6.6116	29.05112	2.39285	0.38154	1.91787	2881.02707	2.08209	0.00138603	608.7373	16667.754	58.6588	5421.592
540.0	0.69664	0.30336	1.71803	14.4315	-4.63607	36.7764	105.8476	0.18822	5.31305	7.34762	29.19321	2.66537	0.37835	1.9512	3548.98429	2.03402	0.00111829	611.06662	16390.691	55.4126	5539.837
535.0	0.71154	0.28846	1.71982	14.4164	-4.73585	36.41427	106.51443	0.18589	5.3796	8.06717	29.33323	2.93256	0.37545	1.98545	4326.97362	1.98665	9.11579E-4	613.39435	16127.427	52.6528	5644.766
531.37	0.72143	0.27857	1.72104	14.40593	-4.80506	36.17033	106.9338	0.18433	5.42515	8.57716	29.43341	3.12237	0.3735	2.01089	4969.59304	1.9527	7.90138E-4	615.08304	15943.955	 	5713.614
531.37	0.72143	0.27857	1.72104	14.40593	-4.80506	36.17032	106.9338	0.18433	5.42515	8.57716	29.43341	3.12237	0.3735	2.01089	4969.59304	1.9527	7.90138E-4	615.08303	15943.953	 	5713.616
530.0	0.72501	0.27499	1.7215	14.40208	-4.83049	36.08253	107.08283	0.18376	5.44198	8.76881	29.47101	3.19378	0.37279	2.0206	5232.19558	1.94001	7.49203E-4	615.72039	15875.657	50.354	5738.677
525.0	0.73738	0.26262	1.72311	14.38844	-4.92059	35.77767	107.56448	0.18179	5.5007	9.458	29.60683	3.451	0.37033	2.05667	6289.32193	1.89411	6.19395E-4	618.04423	15632.835	48.5644	5824.11
521.77	0.74473	0.25527	1.72411	14.37998	-4.97654	35.59464	107.83271	0.18061	5.53686	9.89173	29.69372	3.61317	0.36884	2.08057	7062.00038	1.86477	5.49389E-4	619.54723	15480.872	 	5874.49
520.0	0.74892	0.25108	1.72466	14.3754	-5.0068	35.49574	107.98161	0.17996	5.55685	10.14381	29.74326	3.70752	0.368	2.09345	7530.05461	1.84918	5.14096E-4	620.37123	15394.887	47.5896	5905.13
515.0	0.76009	0.23991	1.72615	14.36269	-5.09077	35.2249	108.34397	0.17823	5.61086	10.84474	29.88168	3.97028	0.36574	2.13067	9001.56213	1.80542	4.27344E-4	622.70468	15157.654	47.4466	5985.892
510.0	0.77026	0.22974	1.72759	14.35056	-5.17095	34.97739	108.6343	0.17662	5.66182	11.52224	30.01785	4.22477	0.36365	2.16902	10712.95584	1.76226	3.56798E-4	625.03683	14929.22	45.6868	6058.305
505.0	0.77956	0.22044	1.72897	14.33891	-5.24793	34.7493	108.8616	0.17513	5.71012	12.17707	30.15176	4.47124	0.36171	2.20852	12704.83201	1.71968	2.98938E-4	627.36774	14708.442	44.1556	6123.504
500.0	0.7881	0.2119	1.7303	14.32767	-5.32221	34.53744	109.03255	0.17373	5.75607	12.81021	30.28357	4.70998	0.3599	2.24923	15024.59859	1.67771	2.51158E-4	629.6975	14494.368	42.8148	6182.437
495.0	0.79598	0.20402	1.73159	14.31682	-5.39385	34.34177	109.15454	0.17241	5.80002	13.4228	30.4134	4.94138	0.3582	2.29119	17729.66794	1.63633	2.11462E-4	632.02607	14286.199	41.6338	6235.896
490.0	0.80327	0.19673	1.73283	14.30631	-5.46336	34.15882	109.23252	0.17117	5.84219	14.01562	30.54129	5.16568	0.35661	2.33446	20886.82105	1.59555	1.7833E-4	634.35359	14083.261	40.5876	6284.55
485.0	0.81004	0.18996	1.73405	14.29605	-5.53112	33.986	109.27137	0.16999	5.88281	14.59015	30.66723	5.38341	0.3551	2.37908	24576.44739	1.55537	1.50565E-4	636.68019	13884.978	39.6566	6328.966
480.0	0.81634	0.18366	1.73523	14.28608	-5.59698	33.82475	109.2757	0.16886	5.9221	15.14742	30.79145	5.59491	0.35368	2.42511	28894.33168	1.51578	1.2722E-4	639.00582	13690.859	38.8238	6369.632
475.0	0.82222	0.17778	1.73639	14.27639	-5.66104	33.6747	109.24841	0.16778	5.96019	15.68788	30.91407	5.80033	0.35233	2.4726	33952.84596	1.4768	1.07547E-4	641.33048	13500.481	38.0756	6406.964
470.0	0.82773	0.17227	1.73752	14.26686	-5.72402	33.53029	109.19183	0.16674	5.99719	16.21281	31.03487	6.00013	0.35104	2.52164	39886.78217	1.4384	9.09357E-5	643.65451	13313.478	37.4006	6441.324
465.0	0.83291	0.16709	1.73863	14.25756	-5.78545	33.39562	109.11111	0.16575	6.03335	16.7241	31.15417	6.19499	0.34981	2.57227	46862.91865	1.4006	7.6878E-5	645.97773	13129.53	36.7896	6473.025
460.0	0.83777	0.16223	1.73971	14.24844	-5.84573	33.26758	109.00649	0.16478	6.06867	17.22145	31.27186	6.38479	0.34863	2.62457	55071.48404	1.36339	6.4976E-5	648.30035	12948.36	36.234	6502.339
455.0	0.84235	0.15765	1.74078	14.23949	-5.90488	33.14628	108.88047	0.16385	6.10328	17.70562	31.38808	6.56979	0.3475	2.67861	64745.81884	1.32678	5.48903E-5	650.62238	12769.723	35.7274	6529.505
450.0	0.84669	0.15331	1.74183	14.23067	-5.96318	33.0295	108.73564	0.16294	6.1373	18.1787	31.50272	6.75078	0.34642	2.73448	76171.71449	1.29075	4.63363E-5	652.94406	12593.405	35.2636	6554.734
445.0	0.85079	0.14921	1.74287	14.22201	-6.02036	32.91978	108.57246	0.16205	6.17076	18.64038	31.616	6.92761	0.34537	2.79224	89684.73916	1.2553	3.90826E-5	655.26524	12419.215	34.838	6578.21
440.0	0.85469	0.14531	1.74389	14.21348	-6.07675	32.81448	108.39303	0.16119	6.20375	19.09131	31.72784	7.10052	0.34436	2.852	105694.4449	1.22045	3.29318E-5	657.58618	12246.985	34.446	6600.097
435.0	0.8584	0.1416	1.7449	14.20506	-6.1324	32.71328	108.19818	0.16035	6.23632	19.53247	31.83826	7.26989	0.34338	2.91384	124698.128	1.18617	2.77174E-5	659.90695	12076.564	34.0842	6620.54
430.0	0.86193	0.13807	1.74589	14.19677	-6.18721	32.61723	107.99039	0.15953	6.26861	19.96544	31.94732	7.43629	0.34243	2.97785	147308.2939	1.15248	2.32974E-5	662.22758	11907.82	33.7488	6639.667
428.21	0.86316	0.13684	1.74624	14.19382	-6.20669	32.58341	107.91331	0.15923	6.2801	20.11696	31.98596	7.49457	0.3421	3.00129	156393.0662	1.14057	2.18883E-5	663.05756	11847.877	 	6646.19
428.21	0.86316	0.13684	1.74624	14.19382	-6.20669	32.58341	107.9133	0.15923	6.2801	20.11696	31.98596	7.49457	0.3421	3.00129	156393.1138	1.14057	2.18883E-5	663.05757	11847.877	 	6646.19
425.0	0.8653	0.1347	1.74687	14.18857	-6.24138	32.52467	107.77105	0.15871	6.30068	20.38802	32.05498	7.59888	0.34151	3.04414	174235.5566	1.11936	1.95568E-5	664.54831	11740.652	33.4336	6657.575
420.53	0.86818	0.13182	1.74774	14.18133	-6.2892	32.44545	107.56319	0.158	6.32903	20.7599	32.15013	7.7421	0.34071	3.1054	202694.771	1.09026	1.67034E-5	666.62186	11592.482	 	6672.678
420.0	0.87429	0.12571	1.74819	14.17741	-6.31511	32.24684	107.67519	0.15772	6.34048	21.32371	32.17014	7.95827	0.33972	3.11755	211663.8932	1.08518	1.59833E-5	666.82977	11538.053	40.5198	6711.264
415.0	0.91628	0.0837177	1.75141	14.14888	-6.50363	30.87462	108.41646	0.15551	6.43052	25.54521	32.33679	9.58347	0.33277	3.23329	295960.1431	1.03878	1.13485E-5	668.81271	11126.895	82.2316	6973.862
410.0	0.93927	0.0607345	1.7534	14.13052	-6.62499	30.11121	108.7076	0.15397	6.49498	28.16465	32.47527	10.59769	0.32881	3.35184	381187.847	0.99476	8.74709E-6	670.8306	10837.01	57.977	7115.534
405.0	0.95354	0.0464587	1.75482	14.11678	-6.71573	29.62535	108.78166	0.15273	6.54732	29.94221	32.59956	11.2886	0.32621	3.47339	474285.3218	0.95292	6.97867E-6	672.86961	10602.342	46.9336	7202.332
400.0	0.96318	0.0368213	1.75596	14.10552	-6.79018	29.28695	108.74684	0.15166	6.59384	31.23514	32.71551	11.79264	0.32435	3.59816	580334.4867	0.9131	5.66135E-6	674.92295	10397.034	41.0616	7260.109
395.0	0.97008	0.0299222	1.75693	14.0957	-6.85508	29.03478	108.64215	0.15068	6.63679	32.22828	32.82591	12.1808	0.32291	3.7264	704010.2038	0.87513	4.63214E-6	676.98703	10209.064	37.594	7300.885
392.19	0.97312	0.0268783	1.75742	14.09061	-6.88867	28.91944	108.56065	0.15015	6.65987	32.69245	32.8862	12.36255	0.32224	3.80018	783137.2839	0.85452	4.14657E-6	678.15262	10108.542	 	7318.691
390.0	0.97653	0.023468	1.75784	14.08624	-6.91753	28.80047	108.52702	0.14971	6.67975	33.18591	32.93618	12.55604	0.32151	3.85359	854206.5838	0.83991	3.7891E-6	679.05362	10023.775	37.0578	7339.31
385.0	0.98258	0.017422	1.75868	14.0771	-6.97793	28.5807	108.40274	0.14875	6.72279	34.10709	33.04674	12.91787	0.32015	3.9783	1036926.685	0.80745	3.09787E-6	681.12325	9841.474	36.4602	7375.077
380.0	0.98682	0.0131812	1.75944	14.06884	-7.03256	28.41484	108.22967	0.14785	6.76343	34.81109	33.15278	13.19505	0.3191	4.10654	1253489.901	0.77629	2.54319E-6	683.20185	9670.836	34.1276	7399.504
375.0	0.98996	0.0100409	1.76014	14.06111	-7.08359	28.28211	108.02679	0.147	6.80283	35.38002	33.2555	13.41956	0.31823	4.23844	1513123.977	0.74637	2.09068E-6	685.28741	9507.374	32.6924	7417.077
370.0	0.99238	0.00761658	1.76081	14.05375	-7.13223	28.17123	107.80378	0.14617	6.84157	35.85968	33.35556	13.60924	0.31748	4.37416	1826693.637	0.71764	1.71844E-6	687.37856	9348.642	31.7464	7430.238
365.0	0.99432	0.00567576	1.76146	14.04665	-7.17919	28.07532	107.5672	0.14535	6.88004	36.27826	33.45342	13.7751	0.31681	4.51395	2207496.221	0.69001	1.41094E-6	689.47423	9193.187	31.091	7440.436
361.57	0.99544	0.00456082	1.76189	14.04189	-7.21065	28.01616	107.39858	0.14479	6.90637	36.53804	33.51938	13.87821	0.31638	4.61231	2515858.52	0.67166	1.23135E-6	690.91399	9088.032	 	7446.134
361.57	0.99544	0.00456082	1.76189	14.04189	-7.21065	28.01616	107.39858	0.14479	6.90637	36.53804	33.51938	13.87821	0.31638	4.61231	2515858.52	0.67166	1.23135E-6	690.91399	9088.032	 	7446.134
360.0	0.99854	0.00145674	1.76207	14.03892	-7.23028	27.93103	107.38636	0.14445	6.92271	36.95976	33.55639	14.0445	0.31581	4.67519	2694711.33	0.66099	1.14678E-6	691.47654	9025.93	33.4514	7462.749
359.0	1.0	0.0	1.76216	14.0372	-7.24159	27.88921	107.36544	0.14425	6.93228	37.16706	33.57861	14.12635	0.31552	 	2810392.456	 	1.09785E-6	 	8989.375	 	7470.446
350.0	1.0	0.0	1.7636	14.02581	-7.31688	27.80604	106.83558	0.1429	6.99773	37.47126	33.73768	14.24883	0.31489	 	3957302.883	 	7.68564E-7	 	8699.652	32.6278	 
345.0	1.0	0.0	1.76439	14.01951	-7.35852	27.75985	106.54126	0.14215	7.0349	37.6389	33.82442	14.3164	0.31454	 	4806320.338	 	6.27723E-7	 	8556.7	28.5904	 
340.0	1.0	0.0	1.76518	14.01323	-7.40004	27.71366	106.24689	0.14139	7.07267	37.80561	33.91002	14.38365	0.31419	 	5856024.049	 	5.11035E-7	 	8414.028	28.5344	 
335.0	1.0	0.0	1.76597	14.00696	-7.44142	27.66747	105.95247	0.14063	7.11106	37.9714	33.99449	14.45059	0.31384	 	7158197.295	 	4.14662E-7	 	8271.607	28.4842	 
330.0	1.0	0.0	1.76676	14.00072	-7.48269	27.62129	105.658	0.13986	7.15008	38.13626	34.07784	14.51721	0.31348	 	8779104.805	 	3.35322E-7	 	8129.446	28.4322	 
325.0	1.0	0.0	1.76754	13.99449	-7.52382	27.57511	105.36348	0.13909	7.18975	38.3002	34.16007	14.58351	0.31313	 	1.080385671E7	 	2.7022E-7	 	7987.553	28.3786	 
320.0	1.0	0.0	1.76833	13.98829	-7.56484	27.52893	105.06891	0.13831	7.23009	38.46321	34.24119	14.64949	0.31278	 	1.334218283E7	 	2.16982E-7	 	7845.929	28.3248	 
315.0	1.0	0.0	1.76911	13.9821	-7.60572	27.48275	104.77429	0.13753	7.27111	38.6253	34.32121	14.71516	0.31243	 	1.653610431E7	 	1.73597E-7	 	7704.575	28.2708	 
310.0	1.0	0.0	1.76989	13.97593	-7.64648	27.43658	104.47961	0.13675	7.31283	38.78646	34.40013	14.7805	0.31208	 	2.057016823E7	 	1.38366E-7	 	7563.49	28.217	 
305.0	1.0	0.0	1.77067	13.96978	-7.68712	27.3904	104.18488	0.13596	7.35526	38.9467	34.47795	14.84553	0.31173	 	2.568516009E7	 	1.09861E-7	 	7422.673	28.1634	 
300.0	1.0	0.0	1.77145	13.96365	-7.72763	27.34423	103.8901	0.13516	7.39843	39.106	34.5547	14.91024	0.31138	 	3.219655601E7	 	8.68852E-8	 	7282.123	28.11	 
295.0	1.0	0.0	1.77222	13.95754	-7.76802	27.29806	103.59527	0.13437	7.44236	39.26439	34.63036	14.97462	0.31103	 	4.051946431E7	 	6.84362E-8	 	7141.842	28.0562	 
290.0	1.0	0.0	1.773	13.95145	-7.80828	27.25189	103.30037	0.13356	7.48707	39.42185	34.70496	15.03869	0.31068	 	5.120249332E7	 	5.36809E-8	 	7001.826	28.0032	 
285.0	1.0	0.0	1.77377	13.94537	-7.84842	27.20573	103.00542	0.13276	7.53257	39.57838	34.77848	15.10243	0.31033	 	6.497395666E7	 	4.19274E-8	 	6862.077	27.9498	 
280.0	1.0	0.0	1.77454	13.93932	-7.88843	27.15956	102.71041	0.13195	7.57889	39.73399	34.85095	15.16586	0.30998	 	8.280521417E7	 	3.26041E-8	 	6722.594	27.8966	 
275.0	1.0	0.0	1.77531	13.93328	-7.92831	27.1134	102.41535	0.13113	7.62605	39.88867	34.92236	15.22897	0.30963	 	1.059979332E8	 	2.524E-8	 	6583.376	27.8436	 
270.0	1.0	0.0	1.77607	13.92727	-7.96807	27.06724	102.12022	0.13031	7.67407	40.04243	34.99273	15.29175	0.30928	 	1.36304914E8	 	1.94489E-8	 	6444.423	27.7906	 
265.0	1.0	0.0	1.77684	13.92127	-8.00771	27.02108	101.82503	0.12948	7.72298	40.19526	35.06205	15.35421	0.30893	 	1.760982601E8	 	1.49154E-8	 	6305.734	27.7378	 
260.0	1.0	0.0	1.7776	13.91529	-8.04722	26.97493	101.52978	0.12865	7.77281	40.34716	35.13033	15.41635	0.30858	 	2.286046979E8	 	1.13828E-8	 	6167.31	27.6848	 
255.0	1.0	0.0	1.77836	13.90933	-8.08661	26.92877	101.23446	0.12782	7.82357	40.49815	35.19759	15.47817	0.30823	 	2.982366624E8	 	8.64337E-9	 	6029.15	27.632	 
250.0	1.0	0.0	1.77912	13.90339	-8.12587	26.88262	100.93908	0.12698	7.8753	40.6482	35.26381	15.53967	0.30789	 	3.910607499E8	 	6.52933E-9	 	5891.253	27.5794	 
245.0	1.0	0.0	1.77988	13.89746	-8.165	26.83647	100.64364	0.12613	7.92802	40.79733	35.32902	15.60084	0.30754	 	5.154643633E8	 	4.90618E-9	 	5753.621	27.5264	 
240.0	1.0	0.0	1.78064	13.89156	-8.20401	26.79032	100.34812	0.12529	7.98176	40.94554	35.39322	15.66169	0.30719	 	6.831100453E8	 	3.6664E-9	 	5616.253	27.4736	 
235.0	1.0	0.0	1.78139	13.88568	-8.2429	26.74418	100.05254	0.12443	8.03656	41.09282	35.45641	15.72222	0.30684	 	9.103099939E8	 	2.72452E-9	 	5479.149	27.4208	 
230.0	1.0	0.0	1.78215	13.87981	-8.28166	26.69803	99.75689	0.12357	8.09244	41.23917	35.51859	15.78243	0.30649	 	1.220018198E9	 	2.01288E-9	 	5342.308	27.3682	 
225.0	1.0	0.0	1.7829	13.87396	-8.32029	26.65189	99.46117	0.12271	8.14943	41.3846	35.57978	15.84231	0.30614	 	1.644736357E9	 	1.47826E-9	 	5205.732	27.3152	 
220.0	1.0	0.0	1.78365	13.86814	-8.3588	26.60575	99.16537	0.12184	8.20758	41.52911	35.63998	15.90187	0.30579	 	2.230780894E9	 	1.07897E-9	 	5069.421	27.2622	 
215.0	1.0	0.0	1.78439	13.86233	-8.39719	26.55961	98.8695	0.12096	8.26691	41.67269	35.69919	15.9611	0.30545	 	3.044591384E9	 	7.82548E-10	 	4933.374	27.2094	 
210.0	1.0	0.0	1.78514	13.85654	-8.43545	26.51348	98.57356	0.12008	8.32746	41.81534	35.75742	16.02001	0.3051	 	4.18212267E9	 	5.63861E-10	 	4797.593	27.1562	 
205.0	1.0	0.0	1.78588	13.85077	-8.47359	26.46734	98.27753	0.1192	8.38927	41.95707	35.81468	16.0786	0.30475	 	5.782929244E9	 	4.03555E-10	 	4662.077	27.1032	 
200.0	1.0	0.0	1.78663	13.84501	-8.5116	26.42121	97.98143	0.11831	8.45238	42.09788	35.87097	16.13686	0.3044	 	8.051443637E9	 	2.86822E-10	 	4526.828	27.0498	 
195.0	1.0	0.0	1.78737	13.83928	-8.54948	26.37508	97.68525	0.11741	8.51683	42.23775	35.92629	16.19479	0.30405	 	1.12894E10	 	2.02396E-10	 	4391.846	26.9964	 
190.0	1.0	0.0	1.7881	13.83357	-8.58724	26.32895	97.38899	0.11651	8.58266	42.37671	35.98065	16.2524	0.30371	 	1.5945399999999998E10	 	1.41766E-10	 	4257.132	26.9428	 
185.0	1.0	0.0	1.78884	13.82787	-8.62488	26.28283	97.09264	0.11561	8.64993	42.51474	36.03406	16.30969	0.30336	 	2.26921E10	 	9.85418E-11	 	4122.687	26.889	 
180.0	1.0	0.0	1.78957	13.82219	-8.66239	26.2367	96.79621	0.1147	8.71867	42.65184	36.08652	16.36664	0.30301	 	3.2545799999999996E10	 	6.7957E-11	 	3988.512	26.835	 
175.0	1.0	0.0	1.79031	13.81654	-8.69977	26.19058	96.49969	0.11378	8.78894	42.78802	36.13804	16.42328	0.30266	 	4.705539999999999E10	 	4.64837E-11	 	3854.607	26.781	 
170.0	1.0	0.0	1.79104	13.8109	-8.73703	26.14446	96.20308	0.11286	8.86078	42.92328	36.18861	16.47958	0.30232	 	6.860219999999999E10	 	3.15282E-11	 	3720.975	26.7264	 
165.0	1.0	0.0	1.79177	13.80528	-8.77417	26.09834	95.90637	0.11193	8.93426	43.05761	36.23826	16.53556	0.30197	 	1.0088E11	 	2.11986E-11	 	3587.616	26.6718	 
160.0	1.0	0.0	1.79249	13.79968	-8.81118	26.05222	95.60958	0.11099	9.00942	43.19101	36.28697	16.59121	0.30162	 	1.4967E11	 	1.41251E-11	 	3454.533	26.6166	 
155.0	1.0	0.0	1.79322	13.7941	-8.84807	26.00611	95.31269	0.11006	9.08633	43.32349	36.33476	16.64654	0.30128	 	2.24113E11	 	9.32428E-12	 	3321.726	26.5614	 
150.0	1.0	0.0	1.79394	13.78853	-8.88483	25.96	95.0157	0.10911	9.16505	43.45505	36.38164	16.70154	0.30093	 	3.388E11	 	6.09589E-12	 	3189.197	26.5058	 
145.0	1.0	0.0	1.79467	13.78299	-8.92146	25.91388	94.71861	0.10816	9.24564	43.58568	36.4276	16.75621	0.30058	 	5.17264E11	 	3.94554E-12	 	3056.948	26.4498	 
140.0	1.0	0.0	1.79539	13.77746	-8.95797	25.86778	94.42142	0.1072	9.32817	43.71538	36.47265	16.81055	0.30024	 	7.97865E11	 	2.52735E-12	 	2924.982	26.3932	 
135.0	1.0	0.0	1.7961	13.77196	-8.99436	25.82167	94.12412	0.10624	9.41272	43.84416	36.51679	16.86456	0.29989	 	1.24382E12	 	1.60158E-12	 	2793.3	26.3364	 
130.0	1.0	0.0	1.79682	13.76647	-9.03062	25.77556	93.82672	0.10527	9.49935	43.97202	36.56004	16.91825	0.29954	 	1.96051E12	 	1.00366E-12	 	2661.905	26.279	 
125.0	1.0	0.0	1.79753	13.761	-9.06676	25.72946	93.5292	0.1043	9.58814	44.09895	36.60239	16.9716	0.2992	 	3.12567E12	 	6.21714E-13	 	2530.8	26.221	 
120.0	1.0	0.0	1.79824	13.75555	-9.10277	25.68336	93.23158	0.10331	9.67918	44.22496	36.64385	17.02463	0.29885	 	5.04278E12	 	3.80518E-13	 	2399.986	26.1628	 
115.0	1.0	0.0	1.79896	13.75012	-9.13866	25.63726	92.93383	0.10233	9.77256	44.35004	36.68443	17.07733	0.29851	 	8.23662E12	 	2.30005E-13	 	2269.467	26.1038	 
110.0	1.0	0.0	1.79966	13.74471	-9.17442	25.59116	92.63597	0.10133	9.86835	44.4742	36.72413	17.12969	0.29816	 	1.36266E13	 	1.37236E-13	 	2139.247	26.044	 
105.0	1.0	0.0	1.80037	13.73931	-9.21006	25.54507	92.33798	0.10033	9.96667	44.59743	36.76295	17.18173	0.29782	 	2.2846E13	 	8.07868E-14	 	2009.327	25.984	 
100.0	1.0	0.0	1.80107	13.73394	-9.24557	25.49898	92.03987	0.0993284	10.06761	44.71974	36.8009	17.23344	0.29747	 	3.88371E13	 	4.68947E-14	 	1879.712	25.923	 
95.0	1.0	0.0	1.80178	13.72859	-9.28096	25.45289	91.74163	0.0983161	10.17128	44.84112	36.83798	17.28482	0.29712	 	6.69795E13	 	2.68268E-14	 	1750.406	25.8612	 
90.0	1.0	0.0	1.80248	13.72325	-9.31622	25.4068	91.44326	0.0972972	10.27779	44.96158	36.8742	17.33586	0.29678	 	1.17261E14	 	1.51153E-14	 	1621.412	25.7988	 
85.0	1.0	0.0	1.80318	13.71793	-9.35136	25.36071	91.14475	0.0962719	10.38725	45.08111	36.90956	17.38658	0.29643	 	2.08525E14	 	8.38287E-15	 	1492.735	25.7354	 
80.0	1.0	0.0	1.80387	13.71263	-9.38637	25.31462	90.8461	0.0952399	10.4998	45.19972	36.94407	17.43696	0.29609	 	3.76914E14	 	4.57302E-15	 	1364.38	25.671	 
75.0	1.0	0.0	1.80457	13.70735	-9.42126	25.26854	90.5473	0.0942013	10.61556	45.3174	36.97773	17.48701	0.29574	 	6.92963E14	 	2.45213E-15	 	1236.35	25.606	 
70.0	1.0	0.0	1.80526	13.70209	-9.45602	25.22246	90.24836	0.093156	10.73468	45.43416	37.01054	17.53673	0.2954	 	1.29683E15	 	1.29148E-15	 	1108.653	25.5394	 
65.0	1.0	0.0	1.80595	13.69685	-9.49066	25.17638	89.94926	0.0921039	10.85731	45.55	37.04251	17.58612	0.29506	 	2.47234E15	 	6.67557E-16	 	981.292	25.4722	 
60.0	1.0	0.0	1.80664	13.69163	-9.52518	25.1303	89.65001	0.0910449	10.98359	45.66491	37.07365	17.63518	0.29471	 	4.80555E15	 	3.38364E-16	 	854.275	25.4034	 
55.0	1.0	0.0	1.80733	13.68642	-9.55957	25.08422	89.35059	0.089979	11.11371	45.7789	37.10396	17.6839	0.29437	 	9.53177E15	 	1.6803E-16	 	727.608	25.3334	 
50.0	1.0	0.0	1.80801	13.68124	-9.59383	25.03815	89.051	0.0889061	11.24783	45.89196	37.13343	17.73229	0.29402	 	1.93112E16	 	8.16738E-17	 	601.298	25.262	 
45.0	1.0	0.0	1.8087	13.67607	-9.62797	24.99208	88.75124	0.0878261	11.38614	46.00409	37.16209	17.78035	0.29368	 	4.0002E16	 	3.88184E-17	 	475.352	25.1892	 
40.0	1.0	0.0	1.80938	13.67092	-9.66198	24.94601	88.4513	0.086739	11.52884	46.11531	37.18992	17.82807	0.29333	 	8.48113E16	 	1.80213E-17	 	349.779	25.1146	 
35.0	1.0	0.0	1.81006	13.6658	-9.69588	24.89995	88.15117	0.0856446	11.67615	46.2256	37.21695	17.87546	0.29299	 	1.84254E17	 	8.16265E-18	 	224.589	25.038	 
30.0	1.0	0.0	1.81073	13.66069	-9.72964	24.85389	87.85085	0.084543	11.8283	46.33496	37.24315	17.92252	0.29265	 	4.10674E17	 	3.60286E-18	 	99.79	24.9598	 
25.0	1.0	0.0	1.81141	13.65559	-9.76328	 	87.55033	0.083434	11.98552	46.4434	37.26856	17.96924	0.2923	 	9.40266E17	 	1.54764E-18	 	-24.606	 	 
