T (C)	Fraction solid (wt)-TOTAL	Fraction liquid (wt)-LIQUID	Density (g/(cm)^3)-TOTAL	Molar volume (cm^3)-TOTAL	Volume change (%)-  	Average expansion coeff. (10e-6 1/K)-  	Thermal conductivity (W/(m*K))-TOTAL	Electrical resistivity (10e-6 Ohm*m)-TOTAL	Electrical conductivity (10e6 1/(Ohm*m))-TOTAL	Young's modulus (GPa)-TOTAL	Bulk modulus (GPa)-TOTAL	Shear modulus(GPa)-TOTAL	Poisson's ratio-TOTAL	Liquid viscosity (mPa s)-  	Total viscosity (mPa s)-  	Liquid diffusivity (10e-9 (m^2)/s)-  	Total diffusivity (10e-9 (m^2)/s)-  	Surface Tension (mN/m)-  	Enthalpy (J/mole)-TOTAL	Specific heat (J/(mole K))-TOTAL	Latent heat (J/mole)-TOTAL
700.0	8.8E-4	0.99912	1.63395	15.16048	0.0	53.23099	79.66165	0.29929	3.34121	2.7177E-12	25.57893	9.05967E-13	0.49989	1.24083	1.24083	3.82784	3.82784	547.11059	27287.184	 	0.0
695.0	8.9E-4	0.99911	1.63525	15.14842	-0.0795832	53.18962	79.32353	0.29902	3.34421	2.82148E-12	25.648	9.40566E-13	0.49989	1.25532	1.25532	3.76421	3.76421	548.83827	27115.793	34.2782	0.236
690.0	8.9E-4	0.99911	1.63654	15.13654	-0.15789	53.1547	78.98614	0.29875	3.34727	2.92075E-12	25.71724	9.73657E-13	0.49989	1.27014	1.27014	3.70109	3.70109	550.56603	26944.414	34.2758	0.456
685.0	9.0E-4	0.9991	1.63783	15.12458	-0.23681	53.11586	78.64802	0.29848	3.35033	3.01572E-12	25.7863	1.00532E-12	0.49989	1.28528	1.28528	3.63849	3.63849	552.2939	26773.045	34.2738	0.656
680.0	9.0E-4	0.9991	1.63911	15.11267	-0.31539	53.07833	78.3099	0.2982	3.35343	3.10631E-12	25.85536	1.03552E-12	0.49988	1.30077	1.30077	3.5764	3.5764	554.02188	26601.684	34.2722	0.838
675.0	9.1E-4	0.99909	1.64039	15.10096	-0.39261	53.04791	77.97256	0.29792	3.35659	3.19271E-12	25.92466	1.06432E-12	0.49989	1.31662	1.31662	3.51483	3.51483	555.74994	26430.329	34.271	1.003
670.0	9.1E-4	0.99909	1.64167	15.08916	-0.47045	53.01354	77.6345	0.29764	3.35976	3.27494E-12	25.99378	1.09173E-12	0.49988	1.33283	1.33283	3.45377	3.45377	557.47812	26258.981	34.2696	1.153
665.0	9.2E-4	0.99908	1.64295	15.0774	-0.54801	52.98017	77.2964	0.29736	3.36295	3.35311E-12	26.06284	1.11779E-12	0.49988	1.34941	1.34941	3.39324	3.39324	559.20642	26087.636	34.269	1.289
660.0	9.2E-4	0.99908	1.64422	15.0657	-0.62518	52.94859	76.95835	0.29707	3.36619	3.42777E-12	26.13196	1.14268E-12	0.49988	1.36639	1.36639	3.33323	3.33323	560.93482	25916.294	34.2684	1.412
655.0	9.2E-4	0.99908	1.64549	15.05405	-0.70202	52.91846	76.62029	0.29678	3.36945	3.49884E-12	26.20108	1.16637E-12	0.49988	1.38376	1.38376	3.27374	3.27374	562.66333	25744.967	34.2654	1.523
653.7	9.2E-4	0.99908	1.64582	15.05104	-0.7219	52.91099	76.53251	0.29671	3.37031	3.51664E-12	26.21905	1.17231E-12	0.49988	1.38834	1.38834	3.25838	3.25838	563.11225	25700.475	34.2631	1.55
650.0	0.00117	0.99883	1.64678	15.04226	-0.77977	52.88242	76.28622	0.29648	3.37293	3.58058E-12	26.26936	1.19365E-12	0.49985	1.40124	1.40124	3.21549	3.21549	564.38104	25567.729	35.8631	7.555
645.0	0.0015	0.9985	1.64807	15.0306	-0.85668	52.85081	75.95398	0.29616	3.37653	3.95368E-12	26.33768	1.31805E-12	0.49982	1.41904	1.41904	3.15795	3.15795	566.09409	25389.041	35.7376	15.359
640.0	0.0018	0.9982	1.64936	15.01881	-0.93447	52.81342	75.62057	0.29585	3.38012	5.49467E-12	26.40578	1.83182E-12	0.49978	1.43729	1.43729	3.10088	3.10088	567.80924	25211.357	35.5368	22.82
635.0	0.0021	0.9979	1.65064	15.00719	-1.01112	52.78233	75.28752	0.29553	3.38376	9.4974E-12	26.47413	3.16632E-12	0.49975	1.456	1.456	3.04428	3.04428	569.52495	25034.656	35.3402	29.95
630.0	0.00238	0.99762	1.65191	14.9956	-1.08759	52.75181	74.95409	0.29521	3.38742	1.74563E-11	26.54254	5.81985E-12	0.49972	1.47518	1.47518	2.98815	2.98815	571.24122	24858.919	35.1474	36.759
625.0	0.00265	0.99735	1.65319	14.98402	-1.16397	52.72133	74.62024	0.29489	3.39111	3.09053E-11	26.61095	1.03039E-11	0.49969	1.49485	1.49485	2.9325	2.9325	572.95805	24684.125	34.9588	43.259
620.0	0.0029	0.9971	1.65445	14.9726	-1.23927	52.69703	74.28669	0.29456	3.39485	5.12823E-11	26.6796	1.70979E-11	0.49966	1.51503	1.51503	2.87733	2.87733	574.67537	24510.252	34.7746	49.459
615.0	0.00315	0.99685	1.65572	14.96105	-1.31546	52.6668	73.95202	0.29424	3.39858	7.98764E-11	26.74804	2.6632E-11	0.49963	1.53573	1.53573	2.82266	2.82266	576.39323	24337.283	34.5938	55.372
611.13	0.00333	0.99667	1.65669	14.95236	-1.37277	52.65304	73.69416	0.29399	3.40153	1.08308E-10	26.80128	3.6112E-11	0.49961	1.5521	1.5521	2.78073	2.78073	577.72145	24204.187	 	59.746
610.27	0.03219	0.96781	1.65864	14.93469	-1.48935	51.99512	74.88762	0.28902	3.46	1.80472E-5	26.7761	6.03661E-6	0.49481	1.55616	1.62536	2.77078	2.6528	578.12717	23938.28	 	296.966
610.27	0.03219	0.96781	1.65864	14.93469	-1.48935	51.99512	74.88762	0.28902	3.46	1.80472E-5	26.7761	6.03661E-6	0.49481	1.55616	1.62536	2.77078	2.6528	578.12717	23938.279	 	296.967
610.0	0.04096	0.95904	1.65924	14.92933	-1.52471	51.79606	75.24995	0.28754	3.47781	5.22285E-5	26.78788	1.7487E-5	0.49335	1.55744	1.6514	2.76765	2.61017	578.25512	23857.235	96.0096	368.967
605.0	0.18181	0.81819	1.66895	14.84256	-2.09704	48.59882	81.17767	0.26503	3.77313	0.0271921	26.99695	0.00925076	0.46972	1.5814	6.15085	2.71027	0.69682	580.60506	22541.008	263.245	1519.336
600.0	0.2885	0.7115	1.67656	14.77507	-2.5422	46.16261	86.00827	0.24872	4.02055	0.18142	27.19192	0.0624919	0.45158	1.60605	31.57918	2.65348	0.13495	582.95419	21511.822	205.837	2383.252
595.0	0.37174	0.62826	1.68272	14.72098	-2.89897	44.25624	90.09322	0.23609	4.23576	0.51548	27.37671	0.17933	0.43727	1.63138	91.92168	2.59732	0.046096	585.30178	20679.27	166.51	3051.111
590.0	0.43827	0.56173	1.68783	14.67645	-3.19271	42.72813	93.59715	0.22594	4.42599	1.01865	27.55363	0.35724	0.4257	1.65739	193.81241	2.54184	0.0217366	587.64748	19986.633	138.527	3579.623
585.0	0.49252	0.50748	1.69215	14.6388	-3.44105	41.47204	96.61122	0.21762	4.59513	1.65465	27.72395	0.5842	0.41617	1.68408	340.20083	2.48706	0.0123116	589.99116	19396.684	117.99	4006.009
580.0	0.53749	0.46251	1.69588	14.60653	-3.65392	40.4294	99.16795	0.21078	4.74438	2.38407	27.88919	0.8465	0.40819	1.71148	533.02597	2.433	0.00781203	592.33268	18884.059	102.525	4355.621
575.0	0.57529	0.42471	1.69915	14.57831	-3.84003	39.54737	101.39165	0.20494	4.87937	3.17256	28.04991	1.13192	0.40141	1.73958	774.47231	2.37966	0.00534507	594.67206	18430.939	90.624	4646.274
574.3	0.58007	0.41993	1.69957	14.57465	-3.86419	39.43549	101.6777	0.2042	4.89718	3.28537	28.07198	1.17289	0.40055	1.74358	812.19785	2.37224	0.00509258	595.00007	18371.633	 	4682.833
565.0	0.63555	0.36445	1.70468	14.53067	-4.15429	38.13079	104.92195	0.19571	5.1095	4.84062	28.36047	1.74068	0.39044	1.79804	1421.03959	2.27515	0.00287874	599.34408	17652.592	77.8347	5101.28
560.0	0.65954	0.34046	1.70705	14.51032	-4.28854	37.56054	106.31461	0.192	5.20839	5.67436	28.51084	2.04703	0.38599	1.8284	1833.17803	2.22402	0.00221822	601.67729	17313.549	67.8086	5279.434
555.0	0.68056	0.31944	1.70922	14.49169	-4.41138	37.05897	107.50402	0.18873	5.29846	6.49759	28.65858	2.3507	0.38206	1.85956	2314.86495	2.17363	0.0017461	604.0086	16999.064	62.897	5433.541
550.0	0.69908	0.30092	1.71123	14.4745	-4.52478	36.61432	108.51765	0.18584	5.3809	7.30383	28.80387	2.64912	0.37854	1.89155	2875.07389	2.12396	0.00139739	606.33806	16704.904	58.832	5567.822
545.0	0.71554	0.28446	1.7131	14.45846	-4.63057	36.21516	109.37911	0.18326	5.45677	8.08913	28.94677	2.9407	0.37537	1.92439	3524.75534	2.07504	0.0011329	608.66582	16427.739	55.433	5685.602
540.0	0.73025	0.26975	1.71486	14.44348	-4.72942	35.85797	110.10941	0.18093	5.52698	8.85117	29.08766	3.22444	0.37251	1.95813	4277.05897	2.02683	9.27923E-4	610.99186	16164.914	52.565	5789.526
535.0	0.74346	0.25654	1.71652	14.42929	-4.82299	35.53201	110.72515	0.17882	5.59227	9.58891	29.22626	3.49986	0.3699	1.99278	5147.43592	1.97934	7.6628E-4	613.31638	15914.293	50.1242	5881.72
530.0	0.7554	0.2446	1.71809	14.41588	-4.91147	35.23685	111.24187	0.17689	5.65335	10.30223	29.36309	3.76678	0.36751	2.02839	6154.38465	1.93256	6.3694E-4	615.63935	15674.138	48.031	5963.914
529.62	0.75625	0.24375	1.71821	14.41489	-4.91798	35.21582	111.27747	0.17675	5.65784	10.35501	29.37345	3.78656	0.36734	2.03114	6236.84946	1.92903	6.28221E-4	615.81619	15656.266	 	5969.776
529.62	0.75625	0.24375	1.71821	14.41489	-4.91798	35.21582	111.27747	0.17675	5.65784	10.35501	29.37345	3.78656	0.36734	2.03114	6236.84946	1.92903	6.28221E-4	615.81619	15656.266	 	5969.776
527.45	0.76108	0.23892	1.71887	14.40928	-4.955	35.0955	111.47654	0.17595	5.68328	10.65783	29.43192	3.90008	0.36636	2.04684	6727.43642	1.90906	5.80838E-4	616.821	15554.855	 	6002.959
525.0	0.76682	0.23318	1.71961	14.40287	-4.99726	34.95565	111.70623	0.17505	5.71251	11.02517	29.50103	4.03792	0.36521	2.06439	7341.30291	1.88703	5.30638E-4	617.96611	15435.276	47.7724	6045.287
520.0	0.77771	0.22229	1.72109	14.39033	-5.07997	34.69171	112.10586	0.17334	5.76908	11.75401	29.64021	4.31184	0.36299	2.10094	8738.38143	1.84259	4.43007E-4	620.29773	15199.039	47.2474	6124.491
515.0	0.78759	0.21241	1.72249	14.37836	-5.15895	34.4505	112.42708	0.17175	5.82232	12.45449	29.77695	4.57565	0.36095	2.13857	10355.75959	1.79876	3.71461E-4	622.62803	14971.819	45.444	6195.127
510.0	0.79658	0.20342	1.72384	14.36684	-5.23494	34.22716	112.67952	0.17028	5.87265	13.12759	29.91141	4.82964	0.35906	2.17733	12229.55488	1.75552	3.12551E-4	624.95709	14752.393	43.8852	6258.415
505.0	0.80481	0.19519	1.72514	14.35579	-5.30784	34.02283	112.87304	0.1689	5.92053	13.77572	30.04389	5.07465	0.35731	2.21726	14403.87984	1.7129	2.63676E-4	627.28482	14539.751	42.5284	6315.357
500.0	0.81237	0.18763	1.7264	14.34505	-5.37863	33.83064	113.0127	0.16761	5.96619	14.39926	30.17419	5.31077	0.35567	2.25841	16927.90741	1.67089	2.22919E-4	629.61143	14333.055	41.3392	6366.788
495.0	0.81934	0.18066	1.72762	14.3347	-5.44696	33.65371	113.10748	0.16639	6.01007	15.00099	30.30266	5.539	0.35412	2.30081	19864.24901	1.62949	1.88739E-4	631.93678	14131.6	40.291	6413.408
490.0	0.82579	0.17421	1.7288	14.32464	-5.51329	33.4888	113.16006	0.16523	6.05225	15.581	30.42936	5.75932	0.35268	2.34453	23281.77384	1.5887	1.59985E-4	634.26098	13934.793	39.3614	6455.808
485.0	0.83178	0.16822	1.72996	14.31482	-5.57808	33.33272	113.17664	0.16412	6.09306	16.14213	30.55419	5.9728	0.3513	2.38961	27267.44134	1.54851	1.35706E-4	636.58422	13742.127	38.5332	6494.49
480.0	0.83736	0.16264	1.73109	14.30524	-5.64123	33.18655	113.1607	0.16306	6.13265	16.6848	30.67732	6.17954	0.35	2.43611	31920.95867	1.50894	1.15158E-4	638.90643	13553.168	37.7918	6529.885
475.0	0.84255	0.15745	1.73219	14.29587	-5.70303	33.04817	113.11477	0.16204	6.17113	17.21035	30.79878	6.38003	0.34877	2.4841	37361.6486	1.46996	9.77348E-5	641.22774	13367.544	37.1248	6562.367
470.0	0.84743	0.15257	1.73327	14.28673	-5.76333	32.91915	113.04363	0.16106	6.20874	17.72028	30.91868	6.57481	0.34759	2.53362	43734.87834	1.4316	8.29345E-5	643.5481	13184.932	36.5224	6592.241
465.0	0.85201	0.14799	1.73433	14.27775	-5.82257	32.79605	112.94806	0.16011	6.24551	18.21524	31.03702	6.76412	0.34646	2.58476	51209.42293	1.39383	7.03528E-5	645.86773	13005.051	35.9762	6619.775
460.0	0.8563	0.1437	1.73538	14.26891	-5.88091	32.67779	112.83064	0.1592	6.28157	18.69627	31.15374	6.94833	0.34538	2.63758	59990.0921	1.35667	5.96486E-5	648.18674	12827.655	35.4792	6645.239
455.0	0.86036	0.13964	1.7364	14.26024	-5.9381	32.56661	112.69361	0.1583	6.31702	19.16447	31.26904	7.12784	0.34434	2.69216	70323.92102	1.3201	5.05364E-5	650.50502	12652.53	35.025	6668.827
450.0	0.8642	0.1358	1.73741	14.25169	-5.99447	32.45996	112.53887	0.15743	6.35196	19.62061	31.38288	7.30292	0.34334	2.74857	82505.92885	1.28413	4.27789E-5	652.8228	12479.485	34.609	6690.726
445.0	0.86783	0.13217	1.73841	14.24328	-6.04993	32.3588	112.36748	0.15658	6.38645	20.06549	31.49528	7.47388	0.34237	2.80689	96892.41076	1.24875	3.61753E-5	655.14005	12308.355	34.226	6711.089
440.0	0.87128	0.12872	1.73939	14.23499	-6.1046	32.26222	112.18077	0.15575	6.42054	20.50015	31.60632	7.6411	0.34144	2.86722	113914.8602	1.21396	3.05553E-5	657.4569	12138.989	33.8732	6730.06
435.0	0.87455	0.12545	1.74037	14.22681	-6.1586	32.16925	111.98015	0.15494	6.45431	20.9247	31.71596	7.80461	0.34054	2.92966	134091.0946	1.17976	2.57758E-5	659.77347	11971.255	33.5468	6747.774
430.0	0.87767	0.12233	1.74132	14.21871	-6.21198	32.07975	111.7668	0.15413	6.48782	21.34037	31.82421	7.96487	0.33966	2.99428	158056.1799	1.14615	2.17132E-5	662.08986	11805.035	33.244	6764.34
427.57	0.87913	0.12087	1.74179	14.21481	-6.23772	32.03696	111.65933	0.15375	6.50402	21.53823	31.87624	8.04121	0.33924	3.02647	171266.7466	1.13005	1.99692E-5	663.21398	11724.906	 	6771.975
420.0	0.88352	0.11648	1.74322	14.20281	-6.31687	31.91131	111.30157	0.15258	6.55402	22.1476	32.03682	8.27657	0.33797	3.13056	220598.177	1.08067	1.5336E-5	666.72214	11476.653	32.8382	6794.47
418.49	0.88436	0.11564	1.7435	14.20042	-6.33264	31.88608	111.22787	0.15235	6.56402	22.26591	32.06854	8.32232	0.33772	3.15204	232133.5229	1.07096	1.45421E-5	667.42352	11427.406	 	6798.694
415.0	0.91137	0.0886271	1.74557	14.18177	-6.45564	31.0065	111.69285	0.15095	6.62485	25.00078	32.17989	9.3759	0.33325	3.23291	290386.8953	1.03891	1.15663E-5	668.81095	11155.519	64.2268	6967.022
410.0	0.93568	0.0643155	1.74761	14.16276	-6.58108	30.20611	112.02223	0.14941	6.69302	27.71495	32.31892	10.42631	0.32909	3.35129	376153.5248	0.99493	8.86416E-6	670.82871	10857.849	59.534	7116.458
405.0	0.95078	0.0492192	1.74906	14.14862	-6.67432	29.69748	112.12829	0.14818	6.74875	29.55902	32.4435	11.14281	0.32637	3.47264	469599.5284	0.95313	7.04831E-6	672.86763	10618.497	47.8704	7207.921
400.0	0.96097	0.0390329	1.75021	14.13707	-6.7505	29.34334	112.1071	0.14711	6.79759	30.9005	32.55957	11.66564	0.32442	3.59717	575865.8178	0.91335	5.70528E-6	674.92107	10410.13	41.6734	7268.739
395.0	0.96826	0.0317426	1.75119	14.12706	-6.81654	29.08074	112.01772	0.14613	6.843	31.92954	32.67003	12.06773	0.32293	3.72513	699654.718	0.87543	4.66098E-6	676.98507	10220.045	38.017	7311.61
391.5	0.9722	0.0277992	1.7518	14.12066	-6.85879	28.93306	111.92449	0.14549	6.87335	32.52096	32.74491	12.29929	0.32207	3.81696	799428.9003	0.84988	4.05786E-6	678.43663	10094.173	 	7334.512
390.0	0.9746	0.0253984	1.75208	14.11764	-6.8787	28.85023	111.90456	0.14519	6.88763	32.86381	32.77904	12.43371	0.32156	3.85358	848660.4064	0.83991	3.81386E-6	679.05362	10035.824	36.8442	7348.951
385.0	0.98106	0.0189413	1.75293	14.10831	-6.94023	28.61984	111.79712	0.14423	6.93329	33.82675	32.88985	12.81185	0.32014	3.9783	1031764.718	0.80745	3.11337E-6	681.12325	9851.256	36.9136	7386.968
380.0	0.98559	0.0144117	1.75368	14.09991	-6.99564	28.44652	111.63747	0.14334	6.97639	34.56088	32.99603	13.10083	0.31903	4.10654	1248568.132	0.77629	2.55322E-6	683.20185	9679.094	34.4324	7412.903
375.0	0.98894	0.0110571	1.75438	14.09209	-7.04724	28.30854	111.44562	0.14249	7.01813	35.15244	33.09879	13.3342	0.31813	4.23844	1508347.357	0.74637	2.0973E-6	685.28741	9514.557	32.9074	7431.535
374.22	0.98937	0.0106279	1.75449	14.09091	-7.05499	28.28964	111.41265	0.14236	7.02448	35.23316	33.11448	13.36609	0.31801	4.25928	1553217.428	0.74183	2.03427E-6	685.6124	9489.532	 	7433.89
370.0	0.9915	0.00849704	1.75504	14.08466	-7.09625	28.19423	111.23071	0.14166	7.05905	35.64627	33.19875	13.52945	0.31736	4.37416	1821829.937	0.71764	1.72302E-6	687.37856	9355.172	31.877	7445.327
370.0	0.9915	0.00849704	1.75504	14.08466	-7.09625	28.19423	111.2307	0.14166	7.05905	35.64628	33.19875	13.52945	0.31736	4.37416	1821840.49	0.71764	1.72301E-6	687.37862	9355.167	 	7445.328
365.0	0.99358	0.00642005	1.75568	14.07748	-7.14356	28.09507	111.00244	0.14085	7.09976	36.07948	33.29658	13.70106	0.31667	4.51395	2202679.726	0.69001	1.41403E-6	689.47423	9199.11	31.2124	7456.119
360.0	1.0	0.0	1.75633	14.06914	-7.19858	27.90782	110.88214	0.1399	7.14807	37.0084	33.40444	14.06787	0.31535	 	2707522.89	 	1.14136E-6	 	9020.401	35.7418	7489.864
355.0	1.0	0.0	1.75712	14.06279	-7.2405	27.86167	110.59121	0.13916	7.18607	37.1774	33.49314	14.13589	0.315	 	3268358.684	 	9.38038E-7	 	8843.356	35.409	 
350.0	1.0	0.0	1.75791	14.05645	-7.28228	27.81553	110.30025	0.13841	7.22467	37.34546	33.5807	14.2036	0.31465	 	3957302.883	 	7.68564E-7	 	8700.297	28.6118	 
345.0	1.0	0.0	1.7587	14.05014	-7.32395	27.76938	110.00925	0.13767	7.26389	37.51261	33.66712	14.27098	0.3143	 	4806320.338	 	6.27723E-7	 	8557.515	28.5564	 
340.0	1.0	0.0	1.75949	14.04384	-7.36548	27.72324	109.71822	0.13692	7.30375	37.67882	33.7524	14.33805	0.31394	 	5856024.049	 	5.11035E-7	 	8414.978	28.5074	 
335.0	1.0	0.0	1.76028	14.03756	-7.4069	27.6771	109.42714	0.13616	7.34426	37.84412	33.83655	14.40481	0.31359	 	7158197.295	 	4.14662E-7	 	8272.701	28.4554	 
330.0	1.0	0.0	1.76106	14.0313	-7.44818	27.63096	109.13603	0.1354	7.38545	38.00849	33.91959	14.47124	0.31324	 	8779104.805	 	3.35322E-7	 	8130.692	28.4018	 
325.0	1.0	0.0	1.76185	14.02506	-7.48934	27.58482	108.84488	0.13464	7.42731	38.17194	34.0015	14.53736	0.31289	 	1.080385671E7	 	2.7022E-7	 	7988.952	28.348	 
320.0	1.0	0.0	1.76263	14.01884	-7.53038	27.53868	108.55369	0.13387	7.46989	38.33446	34.08231	14.60316	0.31254	 	1.334218283E7	 	2.16982E-7	 	7847.482	28.294	 
315.0	1.0	0.0	1.76341	14.01264	-7.57129	27.49255	108.26245	0.1331	7.51318	38.49606	34.16202	14.66864	0.31219	 	1.653610431E7	 	1.73597E-7	 	7706.279	28.2406	 
310.0	1.0	0.0	1.76419	14.00645	-7.61208	27.44642	107.97118	0.13232	7.55721	38.65674	34.24063	14.73381	0.31184	 	2.057016823E7	 	1.38366E-7	 	7565.344	28.187	 
305.0	1.0	0.0	1.76496	14.00029	-7.65274	27.40029	107.67987	0.13154	7.602	38.81649	34.31815	14.79865	0.31149	 	2.568516009E7	 	1.09861E-7	 	7424.677	28.1334	 
300.0	1.0	0.0	1.76574	13.99414	-7.69328	27.35416	107.38851	0.13076	7.64757	38.97532	34.39458	14.86318	0.31114	 	3.219655601E7	 	8.68852E-8	 	7284.276	28.0802	 
295.0	1.0	0.0	1.76651	13.98802	-7.73369	27.30803	107.09711	0.12997	7.69394	39.13322	34.46994	14.92739	0.31079	 	4.051946431E7	 	6.84362E-8	 	7144.14	28.0272	 
290.0	1.0	0.0	1.76728	13.98191	-7.77398	27.2619	106.80567	0.12918	7.74113	39.2902	34.54423	14.99128	0.31044	 	5.120249332E7	 	5.36809E-8	 	7004.269	27.9742	 
285.0	1.0	0.0	1.76805	13.97582	-7.81414	27.21578	106.51418	0.12838	7.78916	39.44626	34.61746	15.05485	0.31008	 	6.497395666E7	 	4.19274E-8	 	6864.663	27.9212	 
280.0	1.0	0.0	1.76882	13.96975	-7.85417	27.16966	106.22265	0.12758	7.83805	39.60139	34.68962	15.1181	0.30973	 	8.280521417E7	 	3.26041E-8	 	6725.321	27.8684	 
275.0	1.0	0.0	1.76959	13.9637	-7.89409	27.12354	105.93107	0.12678	7.88784	39.7556	34.76073	15.18103	0.30938	 	1.059979332E8	 	2.524E-8	 	6586.242	27.8158	 
270.0	1.0	0.0	1.77035	13.95767	-7.93387	27.07742	105.63945	0.12597	7.93853	39.90888	34.8308	15.24363	0.30903	 	1.36304914E8	 	1.94489E-8	 	6447.427	27.763	 
265.0	1.0	0.0	1.77112	13.95166	-7.97353	27.0313	105.34778	0.12515	7.99017	40.06125	34.89982	15.30592	0.30868	 	1.760982601E8	 	1.49154E-8	 	6308.874	27.7106	 
260.0	1.0	0.0	1.77188	13.94566	-8.01307	26.98519	105.05606	0.12434	8.04277	40.21269	34.96781	15.36789	0.30833	 	2.286046979E8	 	1.13828E-8	 	6170.583	27.6582	 
255.0	1.0	0.0	1.77264	13.93969	-8.05248	26.93907	104.7643	0.12351	8.09636	40.3632	35.03477	15.42954	0.30799	 	2.982366624E8	 	8.64337E-9	 	6032.554	27.6058	 
250.0	1.0	0.0	1.77339	13.93373	-8.09177	26.89296	104.47249	0.12268	8.15098	40.51279	35.1007	15.49086	0.30764	 	3.910607499E8	 	6.52933E-9	 	5894.788	27.5532	 
245.0	1.0	0.0	1.77415	13.92779	-8.13093	26.84685	104.18063	0.12185	8.20664	40.66146	35.16562	15.55186	0.30729	 	5.154643633E8	 	4.90618E-9	 	5757.282	27.5012	 
240.0	1.0	0.0	1.7749	13.92188	-8.16996	26.80075	103.88872	0.12102	8.26338	40.80921	35.22952	15.61254	0.30694	 	6.831100453E8	 	3.6664E-9	 	5620.039	27.4486	 
235.0	1.0	0.0	1.77566	13.91598	-8.20888	26.75464	103.59675	0.12017	8.32124	40.95603	35.29242	15.6729	0.30659	 	9.103099939E8	 	2.72452E-9	 	5483.057	27.3964	 
230.0	1.0	0.0	1.77641	13.9101	-8.24766	26.70854	103.30474	0.11933	8.38024	41.10193	35.35431	15.73294	0.30624	 	1.220018198E9	 	2.01288E-9	 	5346.337	27.344	 
225.0	1.0	0.0	1.77716	13.90423	-8.28632	26.66243	103.01267	0.11848	8.44043	41.2469	35.41521	15.79265	0.30589	 	1.644736357E9	 	1.47826E-9	 	5209.879	27.2916	 
220.0	1.0	0.0	1.7779	13.89839	-8.32486	26.61633	102.72055	0.11762	8.50183	41.39095	35.47512	15.85204	0.30554	 	2.230780894E9	 	1.07897E-9	 	5073.683	27.2392	 
215.0	1.0	0.0	1.77865	13.89257	-8.36327	26.57024	102.42838	0.11676	8.56448	41.53408	35.53405	15.91111	0.30519	 	3.044591384E9	 	7.82548E-10	 	4937.749	27.1868	 
210.0	1.0	0.0	1.77939	13.88676	-8.40156	26.52414	102.13615	0.1159	8.62842	41.67628	35.59199	15.96985	0.30484	 	4.18212267E9	 	5.63861E-10	 	4802.077	27.1344	 
205.0	1.0	0.0	1.78013	13.88098	-8.43972	26.47804	101.84387	0.11503	8.6937	41.81756	35.64896	16.02827	0.30449	 	5.782929244E9	 	4.03555E-10	 	4666.669	27.0816	 
200.0	1.0	0.0	1.78087	13.87521	-8.47776	26.43195	101.55153	0.11415	8.76035	41.95792	35.70497	16.08637	0.30415	 	8.051443637E9	 	2.86822E-10	 	4531.524	27.029	 
195.0	1.0	0.0	1.78161	13.86946	-8.51567	26.38586	101.25913	0.11327	8.82842	42.09736	35.76001	16.14414	0.3038	 	1.12894E10	 	2.02396E-10	 	4396.643	26.9762	 
190.0	1.0	0.0	1.78235	13.86374	-8.55346	26.33977	100.96668	0.11239	8.89796	42.23587	35.81409	16.20159	0.30345	 	1.5945399999999998E10	 	1.41766E-10	 	4262.028	26.923	 
185.0	1.0	0.0	1.78308	13.85803	-8.59112	26.29368	100.67416	0.1115	8.969	42.37346	35.86721	16.25871	0.3031	 	2.26921E10	 	9.85418E-11	 	4127.678	26.87	 
180.0	1.0	0.0	1.78382	13.85234	-8.62866	26.24759	100.38159	0.1106	9.04161	42.51012	35.91939	16.3155	0.30275	 	3.2545799999999996E10	 	6.7957E-11	 	3993.595	26.8166	 
175.0	1.0	0.0	1.78455	13.84666	-8.66607	26.20151	100.08895	0.1097	9.11584	42.64586	35.97063	16.37198	0.3024	 	4.705539999999999E10	 	4.64837E-11	 	3859.78	26.763	 
170.0	1.0	0.0	1.78527	13.84101	-8.70336	26.15543	99.79625	0.10879	9.19173	42.78068	36.02093	16.42812	0.30206	 	6.860219999999999E10	 	3.15282E-11	 	3726.234	26.7092	 
165.0	1.0	0.0	1.786	13.83538	-8.74052	26.10935	99.50349	0.10788	9.26935	42.91458	36.0703	16.48394	0.30171	 	1.0088E11	 	2.11986E-11	 	3592.958	26.6552	 
160.0	1.0	0.0	1.78673	13.82976	-8.77756	26.06327	99.21066	0.10697	9.34876	43.04755	36.11874	16.53943	0.30136	 	1.4967E11	 	1.41251E-11	 	3459.954	26.6008	 
155.0	1.0	0.0	1.78745	13.82417	-8.81447	26.01719	98.91777	0.10604	9.43001	43.1796	36.16625	16.5946	0.30101	 	2.24113E11	 	9.32428E-12	 	3327.223	26.5462	 
150.0	1.0	0.0	1.78817	13.81859	-8.85126	25.97111	98.62481	0.10512	9.51318	43.31072	36.21285	16.64944	0.30067	 	3.388E11	 	6.09589E-12	 	3194.767	26.4912	 
145.0	1.0	0.0	1.78889	13.81303	-8.88792	25.92504	98.33179	0.10418	9.59833	43.44093	36.25854	16.70395	0.30032	 	5.17264E11	 	3.94554E-12	 	3062.588	26.4358	 
140.0	1.0	0.0	1.78961	13.80749	-8.92446	25.87897	98.03869	0.10325	9.68554	43.57021	36.30332	16.75814	0.29997	 	7.97865E11	 	2.52735E-12	 	2930.688	26.38	 
135.0	1.0	0.0	1.79032	13.80197	-8.96087	25.8329	97.74553	0.1023	9.77487	43.69856	36.34719	16.812	0.29962	 	1.24382E12	 	1.60158E-12	 	2799.069	26.3238	 
130.0	1.0	0.0	1.79104	13.79647	-8.99716	25.78683	97.45229	0.10135	9.86641	43.826	36.39017	16.86553	0.29928	 	1.96051E12	 	1.00366E-12	 	2667.733	26.2672	 
125.0	1.0	0.0	1.79175	13.79099	-9.03333	25.74076	97.15898	0.1004	9.96025	43.95251	36.43225	16.91873	0.29893	 	3.12567E12	 	6.21714E-13	 	2536.682	26.2102	 
120.0	1.0	0.0	1.79246	13.78552	-9.06937	25.69469	96.8656	0.0994386	10.05646	44.0781	36.47344	16.9716	0.29858	 	5.04278E12	 	3.80518E-13	 	2405.921	26.1522	 
115.0	1.0	0.0	1.79317	13.78008	-9.10528	25.64863	96.57214	0.0984722	10.15515	44.20276	36.51375	17.02415	0.29824	 	8.23662E12	 	2.30005E-13	 	2275.45	26.0942	 
110.0	1.0	0.0	1.79388	13.77465	-9.14107	25.60257	96.27861	0.0975001	10.2564	44.3265	36.55318	17.07637	0.29789	 	1.36266E13	 	1.37236E-13	 	2145.275	26.035	 
105.0	1.0	0.0	1.79458	13.76924	-9.17673	25.55651	95.985	0.0965221	10.36032	44.44932	36.59173	17.12825	0.29754	 	2.2846E13	 	8.07868E-14	 	2015.397	25.9756	 
100.0	1.0	0.0	1.79528	13.76386	-9.21227	25.51045	95.6913	0.0955382	10.46702	44.57122	36.62942	17.17981	0.2972	 	3.88371E13	 	4.68947E-14	 	1885.82	25.9154	 
95.0	1.0	0.0	1.79598	13.75849	-9.24769	25.4644	95.39753	0.0945483	10.5766	44.69219	36.66623	17.23104	0.29685	 	6.69795E13	 	2.68268E-14	 	1756.548	25.8544	 
90.0	1.0	0.0	1.79668	13.75314	-9.28298	25.41834	95.10367	0.0935524	10.6892	44.81224	36.70219	17.28194	0.29651	 	1.17261E14	 	1.51153E-14	 	1627.586	25.7924	 
85.0	1.0	0.0	1.79738	13.74781	-9.31815	25.37229	94.80973	0.0925504	10.80493	44.93137	36.73729	17.33251	0.29616	 	2.08525E14	 	8.38287E-15	 	1498.937	25.7298	 
80.0	1.0	0.0	1.79807	13.74249	-9.35319	25.32624	94.51571	0.0915422	10.92392	45.04957	36.77153	17.38274	0.29581	 	3.76914E14	 	4.57302E-15	 	1370.606	25.6662	 
75.0	1.0	0.0	1.79877	13.7372	-9.3881	25.28019	94.22159	0.0905278	11.04633	45.16686	36.80493	17.43265	0.29547	 	6.92963E14	 	2.45213E-15	 	1242.598	25.6016	 
70.0	1.0	0.0	1.79946	13.73192	-9.4229	25.23414	93.92739	0.0895072	11.17229	45.28321	36.83748	17.48222	0.29512	 	1.29683E15	 	1.29148E-15	 	1114.919	25.5358	 
65.0	1.0	0.0	1.80015	13.72667	-9.45756	25.1881	93.63309	0.0884802	11.30196	45.39865	36.8692	17.53147	0.29478	 	2.47234E15	 	6.67557E-16	 	987.575	25.4688	 
60.0	1.0	0.0	1.80083	13.72143	-9.4921	25.14205	93.3387	0.0874468	11.43552	45.51316	36.90008	17.58038	0.29443	 	4.80555E15	 	3.38364E-16	 	860.571	25.4008	 
55.0	1.0	0.0	1.80152	13.71621	-9.52652	25.09601	93.04422	0.086407	11.57313	45.62676	36.93012	17.62896	0.29409	 	9.53177E15	 	1.6803E-16	 	733.914	25.3314	 
50.0	1.0	0.0	1.8022	13.71102	-9.56081	25.04997	92.74964	0.0853607	11.71499	45.73942	36.95935	17.67721	0.29374	 	1.93112E16	 	8.16738E-17	 	607.611	25.2606	 
45.0	1.0	0.0	1.80288	13.70584	-9.59498	25.00393	92.45495	0.0843078	11.8613	45.85117	36.98774	17.72513	0.29339	 	4.0002E16	 	3.88184E-17	 	481.671	25.188	 
40.0	1.0	0.0	1.80356	13.70067	-9.62903	24.9579	92.16017	0.0832483	12.01226	45.96199	37.01532	17.77271	0.29305	 	8.48113E16	 	1.80213E-17	 	356.101	25.114	 
35.0	1.0	0.0	1.80424	13.69553	-9.66294	24.91186	91.86528	0.082182	12.16811	46.07189	37.04209	17.81996	0.2927	 	1.84254E17	 	8.16265E-18	 	230.911	25.038	 
30.0	1.0	0.0	1.80491	13.69041	-9.69674	24.8658	91.57029	0.081109	12.32909	46.18087	37.06805	17.86688	0.29236	 	4.10674E17	 	3.60286E-18	 	106.111	24.96	 
25.0	1.0	0.0	1.80559	13.6853	-9.73041	 	91.27518	0.0800291	12.49545	46.28893	37.0932	17.91346	0.29202	 	9.40266E17	 	1.54764E-18	 	-18.288	 	 
