T (C)	Fraction solid (wt)-TOTAL	Fraction liquid (wt)-LIQUID	Density (g/(cm)^3)-TOTAL	Molar volume (cm^3)-TOTAL	Volume change (%)-  	Average expansion coeff. (10e-6 1/K)-  	Thermal conductivity (W/(m*K))-TOTAL	Electrical resistivity (10e-6 Ohm*m)-TOTAL	Electrical conductivity (10e6 1/(Ohm*m))-TOTAL	Young's modulus (GPa)-TOTAL	Bulk modulus (GPa)-TOTAL	Shear modulus(GPa)-TOTAL	Poisson's ratio-TOTAL	Liquid viscosity (mPa s)-  	Total viscosity (mPa s)-  	Liquid diffusivity (10e-9 (m^2)/s)-  	Total diffusivity (10e-9 (m^2)/s)-  	Surface Tension (mN/m)-  	Enthalpy (J/mole)-TOTAL	Specific heat (J/(mole K))-TOTAL	Latent heat (J/mole)-TOTAL
700.0	4.9E-4	0.99951	1.64962	15.02769	0.0	53.86629	78.52032	0.30364	3.29334	2.76236E-13	26.51478	9.20827E-14	0.49994	1.2403	1.2403	3.82949	3.82949	549.88076	27050.113	 	0.0
695.12	5.0E-4	0.9995	1.65089	15.01603	-0.0775593	53.83086	78.19628	0.30337	3.29628	2.94496E-13	26.58148	9.81696E-14	0.49993	1.25441	1.25441	3.76741	3.76741	551.56071	26883.341	34.1586	0.243
695.12	5.0E-4	0.9995	1.65089	15.01603	-0.0775604	53.83085	78.19628	0.30337	3.29628	2.94496E-13	26.58148	9.81696E-14	0.49993	1.25441	1.25441	3.76741	3.76741	551.56071	26883.34	 	0.243
695.0	5.0E-4	0.9995	1.65093	15.01575	-0.0794226	53.83004	78.18847	0.30337	3.29635	2.94548E-13	26.58309	9.81871E-14	0.49993	1.25475	1.25475	3.76592	3.76592	551.60121	26879.318	34.1743	0.251
690.0	5.1E-4	0.99949	1.65223	15.004	-0.15762	53.80004	77.85735	0.30308	3.29944	2.96769E-13	26.65161	9.89273E-14	0.49993	1.26953	1.26953	3.70286	3.70286	553.32151	26708.475	34.1686	0.548
685.0	5.2E-4	0.99948	1.65352	14.99216	-0.23642	53.76622	77.52551	0.3028	3.30252	2.98999E-13	26.71995	9.96709E-14	0.49993	1.28464	1.28464	3.64031	3.64031	555.04201	26537.655	34.164	0.816
683.06	5.2E-4	0.99948	1.65403	14.98772	-0.26593	53.75928	77.39728	0.30269	3.30376	2.99849E-13	26.74676	9.99538E-14	0.49993	1.29061	1.29061	3.61613	3.61613	555.71087	26471.258	 	0.91
680.0	7.7E-4	0.99923	1.65484	14.98023	-0.31582	53.72852	77.1977	0.3025	3.3058	3.13407E-13	26.78754	1.04476E-13	0.4999	1.29982	1.29982	3.57903	3.57903	556.75244	26361.049	35.3212	6.865
675.0	0.00117	0.99883	1.65617	14.96825	-0.39555	53.68837	76.87215	0.30219	3.30922	8.41114E-13	26.85477	2.80398E-13	0.49986	1.31518	1.31518	3.51868	3.51868	558.45692	26181.069	35.996	16.281
670.0	0.00155	0.99845	1.65749	14.95631	-0.47496	53.64935	76.54629	0.30187	3.31266	3.74266E-12	26.92209	1.24771E-12	0.49981	1.3309	1.3309	3.45876	3.45876	560.16205	26001.481	35.9176	25.301
665.0	0.00191	0.99809	1.6588	14.94457	-0.55307	53.61733	76.22084	0.30155	3.31616	1.19618E-11	26.98976	3.98786E-12	0.49978	1.34701	1.34701	3.39928	3.39928	561.8678	25822.27	35.8422	33.938
660.0	0.00226	0.99774	1.66011	14.93272	-0.63195	53.58028	75.8943	0.30124	3.31964	2.9036E-11	27.05724	9.68039E-12	0.49973	1.36351	1.36351	3.34025	3.34025	563.57421	25643.421	35.7698	42.206
655.0	0.00259	0.99741	1.66142	14.92089	-0.71064	53.54371	75.56736	0.30092	3.32315	5.86978E-11	27.12475	1.95699E-11	0.49969	1.38042	1.38042	3.28167	3.28167	565.28121	25464.942	35.6958	50.117
650.0	0.00291	0.99709	1.66272	14.90925	-0.78812	53.51382	75.2408	0.3006	3.32671	1.04622E-10	27.19257	3.48819E-11	0.49966	1.39774	1.39774	3.22354	3.22354	566.98878	25286.834	35.6216	57.683
645.0	0.00322	0.99678	1.66402	14.89764	-0.86539	53.48463	74.91387	0.30027	3.33029	1.70164E-10	27.26044	5.67357E-11	0.49962	1.41549	1.41549	3.16588	3.16588	568.6943	25109.386	35.4896	64.916
640.0	0.00351	0.99649	1.66532	14.88604	-0.94255	53.45562	74.58652	0.29995	3.3339	2.58298E-10	27.32832	8.6123E-11	0.49959	1.43368	1.43368	3.10869	3.10869	570.40316	24932.912	35.2948	71.827
635.0	0.00379	0.99621	1.6666	14.87461	-1.01863	53.4327	74.25948	0.29962	3.33755	3.71479E-10	27.39643	1.23863E-10	0.49956	1.45233	1.45233	3.05197	3.05197	572.11253	24757.395	35.1034	78.428
630.0	0.00405	0.99595	1.66789	14.86304	-1.09564	53.40369	73.93129	0.29929	3.3412	5.11608E-10	27.4643	1.7059E-10	0.49952	1.47145	1.47145	2.99572	2.99572	573.82244	24582.814	34.9162	84.729
625.0	0.0043	0.9957	1.66917	14.85179	-1.17052	53.38738	73.60415	0.29896	3.34493	6.79828E-10	27.53269	2.26685E-10	0.4995	1.49106	1.49106	2.93996	2.93996	575.5328	24409.148	34.7332	90.74
620.0	0.00455	0.99545	1.67044	14.84037	-1.24646	53.36417	73.27581	0.29863	3.34865	8.77031E-10	27.60076	2.92447E-10	0.49947	1.51117	1.51117	2.88469	2.88469	577.24368	24236.38	34.5536	96.471
615.0	0.00477	0.99523	1.67171	14.82912	-1.32136	53.34704	72.94775	0.29829	3.35243	1.1033E-9	27.66906	3.67904E-10	0.49944	1.5318	1.5318	2.8299	2.8299	578.95501	24064.49	34.378	101.933
610.0	0.00499	0.99501	1.67298	14.81786	-1.39629	53.3295	72.61923	0.29795	3.35623	1.35839E-9	27.73734	4.52972E-10	0.49942	1.55296	1.55296	2.77562	2.77562	580.66681	23893.459	34.2062	107.134
605.0	0.0052	0.9948	1.67424	14.80674	-1.4703	53.31752	72.29094	0.29761	3.36008	1.64129E-9	27.80577	5.47319E-10	0.49939	1.57469	1.57469	2.72183	2.72183	582.37903	23723.269	34.038	112.085
600.0	0.0054	0.9946	1.6755	14.79562	-1.54427	53.30553	71.96223	0.29727	3.36395	1.95097E-9	27.87422	6.50598E-10	0.49937	1.59698	1.59698	2.66855	2.66855	584.0917	23553.904	33.873	116.794
595.0	0.00559	0.99441	1.67675	14.78447	-1.61846	53.29196	71.63298	0.29693	3.36785	2.28596E-9	27.94253	7.62321E-10	0.49934	1.61988	1.61988	2.61577	2.61577	585.8048	23385.344	33.712	121.269
592.93	0.00566	0.99434	1.67727	14.78002	-1.64806	53.29375	71.4972	0.29678	3.3695	2.43138E-9	27.97111	8.10817E-10	0.49934	1.62954	1.62954	2.59405	2.59405	586.5149	23315.719	 	123.057
590.0	0.0685803	0.93142	1.68178	14.74041	-1.91167	51.845	73.74298	0.28677	3.48713	4.40685E-4	27.97977	1.48008E-4	0.48872	1.64405	1.89904	2.56247	2.2184	587.89512	22717.186	133.632	625.91
585.0	0.16057	0.83943	1.68852	14.68153	-2.30343	49.72162	77.02594	0.27296	3.6636	0.0165328	28.17134	0.00561173	0.47306	1.66935	5.71853	2.50901	0.73243	590.25086	21824.236	178.59	1355.898
580.0	0.23653	0.76347	1.69426	14.63177	-2.63459	47.96368	79.79499	0.26195	3.81754	0.0830719	28.35437	0.0284492	0.46	1.69533	21.72626	2.45617	0.19166	592.60489	21064.107	152.026	1953.615
578.87	0.25168	0.74832	1.69544	14.62169	-2.70168	47.61338	80.36231	0.25976	3.84977	0.10755	28.39455	0.0369	0.45738	1.70127	27.89505	2.44436	0.14908	593.13484	20908.823	 	2072.399
570.0	0.35492	0.64508	1.70363	14.55124	-3.17044	45.20889	84.24378	0.24521	4.07819	0.44883	28.70078	0.15591	0.43938	1.74939	125.37269	2.35236	0.0328238	597.30702	19822.571	124.154	2871.94
565.0	0.40117	0.59883	1.7075	14.51834	-3.38936	44.1287	86.05528	0.23862	4.19073	0.74823	28.86582	0.2614	0.4312	1.77751	226.01767	2.30143	0.0180995	599.65561	19307.774	102.959	3225.924
560.0	0.44124	0.55876	1.71095	14.48891	-3.5852	43.18787	87.64383	0.2329	4.2937	1.11456	29.02618	0.39133	0.42406	1.80637	367.10434	2.25114	0.011077	602.00248	18843.925	92.7698	3529.475
555.0	0.47624	0.52376	1.71408	14.46235	-3.76197	42.36228	89.03645	0.22788	4.38826	1.53611	29.18278	0.54174	0.41776	1.83602	554.40506	2.2015	0.00729069	604.34769	18421.646	84.4558	3791.967
550.0	0.50706	0.49294	1.71694	14.43823	-3.92248	41.63547	90.21996	0.22353	4.4736	2.00147	29.33613	0.70865	0.41217	1.86647	794.39962	2.15251	0.00505739	606.69125	18033.664	77.5964	4020.664
548.88	0.5134	0.4866	1.71755	14.43317	-3.95613	41.48681	90.47215	0.22261	4.49221	2.10969	29.36994	0.74758	0.41102	1.87339	855.73403	2.14164	0.00468853	607.21505	17951.248	 	4067.534
545.0	0.53703	0.46297	1.71968	14.41523	-4.0755	40.94785	91.38852	0.21933	4.55924	2.54859	29.50236	0.90587	0.40671	1.89654	1116.22261	2.10551	0.00357741	609.04856	17640.635	78.6058	4254.903
540.0	0.56437	0.43563	1.72222	14.39382	-4.21802	40.32239	92.42281	0.21555	4.63919	3.14353	29.66813	1.12133	0.4017	1.9271	1522.53334	2.05946	0.0026067	611.40862	17268.06	74.515	4469.174
536.62	0.58105	0.41895	1.72384	14.38032	-4.30783	39.93984	93.04101	0.21323	4.68972	3.55802	29.77743	1.27198	0.39862	1.94825	1846.71806	2.02864	0.00214017	613.00353	17031.824	 	4598.646
536.62	0.58105	0.41895	1.72384	14.38032	-4.30783	39.93984	93.04101	0.21323	4.68972	3.55802	29.77743	1.27198	0.39862	1.94825	1846.71806	2.02864	0.00214017	613.00353	17031.824	 	4598.646
535.0	0.58869	0.41131	1.72458	14.37404	-4.3496	39.7639	93.32127	0.21217	4.71327	3.76131	29.82881	1.34602	0.3972	1.95847	2018.66303	2.01402	0.00195396	613.76664	16921.485	69.315	4657.924
530.0	0.61068	0.38932	1.7268	14.35555	-4.47264	39.25684	94.09645	0.20912	4.78201	4.40042	29.98506	1.57937	0.39309	1.99066	2622.08378	1.96919	0.00149498	616.12228	16595.074	65.2822	4826.985
525.0	0.63041	0.36959	1.72886	14.33829	-4.58749	38.80025	94.75485	0.20637	4.84564	5.04628	30.13737	1.81603	0.38937	2.02382	3345.07068	1.92486	0.00116457	618.47706	16288.775	61.2598	4976.402
520.0	0.64819	0.35181	1.7308	14.32207	-4.69546	38.38579	95.31038	0.20388	4.90477	5.69382	30.28617	2.05408	0.38598	2.05798	4206.5993	1.88105	9.20261E-4	620.83093	15999.549	57.8452	5109.205
515.0	0.66431	0.33569	1.73264	14.30682	-4.79693	38.01186	95.77548	0.20161	4.95997	6.33884	30.43199	2.29191	0.38288	2.09317	5229.5915	1.83777	7.35576E-4	623.18379	15724.939	54.922	5227.843
510.0	0.679	0.321	1.73438	14.29233	-4.89333	37.66897	96.16079	0.19953	5.01172	6.97891	30.57476	2.52856	0.38002	2.12944	6441.78863	1.79501	5.93369E-4	625.53576	15462.939	52.4	5334.317
505.0	0.69243	0.30757	1.73605	14.27855	-4.98506	37.35485	96.47465	0.19761	5.06039	7.61128	30.71485	2.76297	0.37737	2.16682	7875.10742	1.75278	4.82274E-4	627.88683	15211.89	50.2098	5430.278
500.0	0.70478	0.29522	1.73764	14.2653	-5.07321	37.06198	96.7256	0.19583	5.10636	8.23539	30.85213	2.99487	0.37491	2.20536	9569.34112	1.71108	3.94338E-4	630.23718	14970.412	48.2956	5517.1
495.0	0.71615	0.28385	1.73917	14.25266	-5.1573	36.79484	96.92046	0.19418	5.14995	8.84939	30.98731	3.22353	0.37262	2.24509	11570.29531	1.66993	3.24032E-4	632.58665	14737.349	46.6126	5595.932
490.0	0.72668	0.27332	1.74064	14.24043	-5.23868	36.54348	97.06482	0.19263	5.19142	9.45339	31.12002	3.44895	0.37047	2.28607	13933.75689	1.62932	2.67318E-4	634.93557	14511.715	45.1268	5667.753
485.0	0.73646	0.26354	1.74207	14.22867	-5.31694	36.31168	97.16409	0.19117	5.231	10.04619	31.25066	3.67062	0.36846	2.32835	16725.41111	1.58925	2.21241E-4	637.28383	14292.681	43.8068	5733.385
480.0	0.74557	0.25443	1.74345	14.21726	-5.39287	36.09376	97.22271	0.18979	5.2689	10.62842	31.37918	3.88876	0.36656	2.37199	20025.00111	1.54973	1.83567E-4	639.63166	14079.533	42.6296	5793.538
475.0	0.75406	0.24594	1.74479	14.20625	-5.46614	35.89289	97.24506	0.18849	5.30533	11.19953	31.50595	4.10311	0.36476	2.41702	23927.31715	1.51076	1.52609E-4	641.97896	13871.655	41.5756	5848.822
470.0	0.76203	0.23797	1.74609	14.19549	-5.53776	35.70118	97.23379	0.18725	5.34041	11.76024	31.63066	4.31393	0.36305	2.46353	28545.92421	1.47233	1.27063E-4	644.32612	13668.516	40.6278	5899.772
465.0	0.76952	0.23048	1.74737	14.18503	-5.60735	35.52215	97.19216	0.18607	5.37428	12.31015	31.75368	4.52102	0.36143	2.51156	34016.78538	1.43446	1.0591E-4	646.67303	13469.653	39.7726	5946.829
460.0	0.77656	0.22344	1.74861	14.1748	-5.67545	35.35174	97.1227	0.18494	5.40707	12.84992	31.87488	4.72463	0.35989	2.56119	40504.61202	1.39713	8.83436E-5	649.01996	13274.662	38.9982	5990.374
455.0	0.7832	0.2168	1.74982	14.16482	-5.74185	35.19195	97.02839	0.18386	5.43891	13.38018	31.99451	4.92494	0.35841	2.61248	48209.69771	1.36036	7.37179E-5	651.36688	13083.189	38.2946	6030.812
450.0	0.78949	0.21051	1.75101	14.15506	-5.80683	35.04073	96.91094	0.18282	5.46989	13.90097	32.11251	5.12197	0.35699	2.66551	57370.66258	1.32414	6.15213E-5	653.71397	12894.921	37.6536	6068.427
445.0	0.79545	0.20455	1.75218	14.14546	-5.8707	34.89561	96.77196	0.18182	5.50007	14.41264	32.22885	5.31583	0.35563	2.72037	68276.98483	1.28847	5.13367E-5	656.06146	12709.584	37.0674	6103.501
440.0	0.80112	0.19888	1.75333	14.13608	-5.93308	34.76042	96.61363	0.18085	5.52957	14.91615	32.34382	5.50685	0.35433	2.77711	81285.00199	1.25335	4.2821E-5	658.40923	12526.932	36.5304	6136.254
439.42	0.80175	0.19825	1.75346	14.13499	-5.94032	34.74456	96.59453	0.18073	5.53299	14.97355	32.35705	5.52865	0.35418	2.78384	82948.12721	1.24931	4.19283E-5	658.68214	12505.89	 	6139.877
430.0	0.81174	0.18826	1.75557	14.11773	-6.05522	34.50372	96.2335	0.17901	5.58614	15.90529	32.56939	5.88286	0.35183	2.89667	115449.425	1.18477	2.97264E-5	663.10641	12168.459	35.8473	6196.015
429.61	0.81213	0.18787	1.75566	14.11701	-6.05996	34.49357	96.21837	0.17894	5.58836	15.94275	32.57802	5.89712	0.35174	2.90148	117038.7462	1.18216	2.93066E-5	663.28907	12154.733	 	6198.14
425.0	0.92699	0.0730121	1.76371	14.04949	-6.50928	30.73843	98.57859	0.17351	5.76325	26.51121	32.86495	9.94264	0.33321	3.00198	224203.9811	1.13508	1.51982E-5	664.88636	11284.592	176.773	6931.074
420.0	0.96314	0.0368551	1.76655	14.02398	-6.67908	29.53839	99.14788	0.17128	5.83835	30.83294	33.03536	11.61662	0.3271	3.11299	303094.365	1.08677	1.11618E-5	666.79848	10909.691	74.9802	7157.574
415.0	0.97869	0.0213101	1.76803	14.00947	-6.77563	29.00184	99.23613	0.16989	5.886	32.93217	33.16962	12.43401	0.32428	3.22614	376960.871	1.04109	8.90991E-6	668.78036	10665.596	48.819	7253.618
410.0	0.98707	0.0129339	1.76905	13.99876	-6.84686	28.69451	99.14762	0.16881	5.9238	34.18152	33.29016	12.92217	0.32259	3.3415	456593.853	0.99784	7.30252E-6	670.79731	10466.786	39.762	7304.742
405.0	0.9922	0.00779712	1.76986	13.98979	-6.90656	28.49121	98.9785	0.16786	5.95729	35.02926	33.40369	13.25438	0.32142	3.45914	547325.8037	0.95685	6.04737E-6	672.83548	10288.452	35.6668	7335.716
400.0	0.99563	0.00436718	1.77057	13.98172	-6.96023	28.34199	98.76518	0.16698	5.98861	35.65983	33.51287	13.50215	0.32052	3.57922	653310.6811	0.91793	5.02897E-6	674.88838	10120.986	33.4932	7356.167
395.0	0.99806	0.00193512	1.77123	13.97421	-7.01027	28.22501	98.52649	0.16614	6.01884	36.16127	33.6189	13.69969	0.31978	3.70186	778734.6995	0.88093	4.18766E-6	676.952	9959.96	32.2052	7370.515
390.0	0.99987	1.3098E-4	1.77184	13.96704	-7.05796	28.12863	98.2718	0.16533	6.04855	36.58019	33.72242	13.86511	0.31915	3.82728	928333.7591	0.84568	3.48654E-6	679.02415	9803.076	31.3768	7381.054
389.57	1.0	0.0	1.77189	13.96644	-7.06193	28.12178	98.24937	0.16526	6.05112	36.61316	33.73124	13.87815	0.31909	 	942602.6367	 	3.43152E-6	 	9789.643	 	7381.823
380.0	1.0	0.0	1.77344	13.95422	-7.14323	28.03298	97.66911	0.16384	6.10349	36.94942	33.91476	14.01276	0.31842	 	1312378.976	 	2.42907E-6	 	9463.182	33.9894	 
375.0	1.0	0.0	1.77425	13.94787	-7.18554	27.98657	97.36574	0.16309	6.13147	37.1238	34.00895	14.08265	0.31807	 	1566274.243	 	2.01974E-6	 	9318.156	29.0052	 
370.0	1.0	0.0	1.77506	13.94153	-7.22772	27.94017	97.0623	0.16234	6.15988	37.29726	34.10195	14.15223	0.31772	 	1874435.943	 	1.67467E-6	 	9173.328	28.9656	 
365.0	1.0	0.0	1.77586	13.93521	-7.26978	27.89377	96.75879	0.16158	6.18873	37.46979	34.19378	14.22149	0.31737	 	2249550.399	 	1.38457E-6	 	9028.772	28.9112	 
360.0	1.0	0.0	1.77667	13.92891	-7.31171	27.84737	96.45521	0.16082	6.21803	37.64139	34.28444	14.29043	0.31701	 	2707522.89	 	1.14136E-6	 	8884.497	28.855	 
355.0	1.0	0.0	1.77747	13.92262	-7.35351	27.80097	96.15156	0.16006	6.2478	37.81206	34.37394	14.35905	0.31666	 	3268358.684	 	9.38038E-7	 	8740.501	28.7992	 
350.0	1.0	0.0	1.77827	13.91636	-7.39519	27.75457	95.84782	0.15929	6.27803	37.98179	34.46229	14.42735	0.31631	 	3957302.883	 	7.68564E-7	 	8596.785	28.7432	 
345.0	1.0	0.0	1.77907	13.91012	-7.43674	27.70818	95.54401	0.15851	6.30875	38.1506	34.54948	14.49533	0.31596	 	4806320.338	 	6.27723E-7	 	8453.347	28.6876	 
340.0	1.0	0.0	1.77986	13.90389	-7.47817	27.66179	95.24012	0.15773	6.33997	38.31848	34.63554	14.563	0.31561	 	5856024.049	 	5.11035E-7	 	8310.186	28.6322	 
335.0	1.0	0.0	1.78066	13.89768	-7.51947	27.6154	94.93615	0.15694	6.37169	38.48543	34.72047	14.63034	0.31526	 	7158197.295	 	4.14662E-7	 	8167.303	28.5766	 
330.0	1.0	0.0	1.78145	13.8915	-7.56065	27.56902	94.6321	0.15615	6.40394	38.65144	34.80426	14.69737	0.31491	 	8779104.805	 	3.35322E-7	 	8024.696	28.5214	 
325.0	1.0	0.0	1.78224	13.88533	-7.6017	27.52264	94.32797	0.15536	6.43672	38.81653	34.88694	14.76407	0.31456	 	1.080385671E7	 	2.7022E-7	 	7882.365	28.4662	 
320.0	1.0	0.0	1.78303	13.87918	-7.64262	27.47626	94.02374	0.15456	6.47004	38.98069	34.9685	14.83046	0.31421	 	1.334218283E7	 	2.16982E-7	 	7740.309	28.4112	 
315.0	1.0	0.0	1.78382	13.87305	-7.68342	27.42988	93.71944	0.15375	6.50392	39.14392	35.04896	14.89653	0.31386	 	1.653610431E7	 	1.73597E-7	 	7598.528	28.3562	 
310.0	1.0	0.0	1.78461	13.86693	-7.72409	27.38351	93.41504	0.15294	6.53838	39.30622	35.12832	14.96227	0.31351	 	2.057016823E7	 	1.38366E-7	 	7457.021	28.3014	 
305.0	1.0	0.0	1.78539	13.86084	-7.76464	27.33714	93.11055	0.15213	6.57343	39.46759	35.20658	15.0277	0.31316	 	2.568516009E7	 	1.09861E-7	 	7315.788	28.2466	 
300.0	1.0	0.0	1.78617	13.85477	-7.80506	27.29077	92.80596	0.15131	6.60909	39.62803	35.28376	15.0928	0.31281	 	3.219655601E7	 	8.68852E-8	 	7174.829	28.1918	 
295.0	1.0	0.0	1.78695	13.84871	-7.84536	27.2444	92.50128	0.15048	6.64536	39.78755	35.35985	15.15758	0.31246	 	4.051946431E7	 	6.84362E-8	 	7034.143	28.1372	 
290.0	1.0	0.0	1.78773	13.84267	-7.88553	27.19804	92.19651	0.14965	6.68227	39.94613	35.43487	15.22204	0.31211	 	5.120249332E7	 	5.36809E-8	 	6893.73	28.0826	 
285.0	1.0	0.0	1.78851	13.83666	-7.92558	27.15168	91.89163	0.14881	6.71984	40.10378	35.50883	15.28618	0.31177	 	6.497395666E7	 	4.19274E-8	 	6753.59	28.028	 
280.0	1.0	0.0	1.78929	13.83066	-7.9655	27.10532	91.58665	0.14797	6.75808	40.26051	35.58171	15.34999	0.31142	 	8.280521417E7	 	3.26041E-8	 	6613.723	27.9734	 
275.0	1.0	0.0	1.79006	13.82468	-8.00529	27.05897	91.28157	0.14712	6.797	40.4163	35.65355	15.41349	0.31107	 	1.059979332E8	 	2.524E-8	 	6474.127	27.9192	 
270.0	1.0	0.0	1.79083	13.81872	-8.04496	27.01262	90.97638	0.14627	6.83664	40.57117	35.72433	15.47666	0.31072	 	1.36304914E8	 	1.94489E-8	 	6334.804	27.8646	 
265.0	1.0	0.0	1.7916	13.81277	-8.0845	26.96627	90.67108	0.14541	6.877	40.72511	35.79407	15.53951	0.31037	 	1.760982601E8	 	1.49154E-8	 	6195.754	27.81	 
260.0	1.0	0.0	1.79237	13.80685	-8.12392	26.91992	90.36566	0.14455	6.91812	40.87812	35.86277	15.60203	0.31003	 	2.286046979E8	 	1.13828E-8	 	6056.976	27.7556	 
255.0	1.0	0.0	1.79314	13.80095	-8.16321	26.87358	90.06014	0.14368	6.96	41.0302	35.93044	15.66424	0.30968	 	2.982366624E8	 	8.64337E-9	 	5918.47	27.7012	 
250.0	1.0	0.0	1.7939	13.79506	-8.20238	26.82723	89.75449	0.1428	7.00267	41.18135	35.99708	15.72611	0.30933	 	3.910607499E8	 	6.52933E-9	 	5780.237	27.6466	 
245.0	1.0	0.0	1.79467	13.78919	-8.24142	26.78089	89.44873	0.14192	7.04616	41.33157	36.0627	15.78767	0.30898	 	5.154643633E8	 	4.90618E-9	 	5642.276	27.5922	 
240.0	1.0	0.0	1.79543	13.78334	-8.28033	26.73456	89.14284	0.14103	7.09049	41.48086	36.1273	15.8489	0.30864	 	6.831100453E8	 	3.6664E-9	 	5504.588	27.5376	 
235.0	1.0	0.0	1.79619	13.77752	-8.31912	26.68822	88.83683	0.14014	7.13567	41.62923	36.1909	15.9098	0.30829	 	9.103099939E8	 	2.72452E-9	 	5367.174	27.4828	 
230.0	1.0	0.0	1.79695	13.7717	-8.35779	26.64189	88.53068	0.13924	7.18175	41.77667	36.25349	15.97038	0.30794	 	1.220018198E9	 	2.01288E-9	 	5230.034	27.428	 
225.0	1.0	0.0	1.7977	13.76591	-8.39632	26.59556	88.2244	0.13834	7.22874	41.92317	36.31509	16.03064	0.3076	 	1.644736357E9	 	1.47826E-9	 	5093.168	27.3732	 
220.0	1.0	0.0	1.79846	13.76014	-8.43474	26.54924	87.91799	0.13743	7.27667	42.06875	36.37569	16.09057	0.30725	 	2.230780894E9	 	1.07897E-9	 	4956.577	27.3182	 
215.0	1.0	0.0	1.79921	13.75439	-8.47303	26.50292	87.61144	0.13651	7.32557	42.21341	36.43531	16.15017	0.3069	 	3.044591384E9	 	7.82548E-10	 	4820.261	27.2632	 
210.0	1.0	0.0	1.79996	13.74865	-8.51119	26.4566	87.30474	0.13558	7.37547	42.35713	36.49395	16.20945	0.30656	 	4.18212267E9	 	5.63861E-10	 	4684.221	27.208	 
205.0	1.0	0.0	1.80071	13.74294	-8.54923	26.41028	86.9979	0.13465	7.4264	42.49992	36.55161	16.26841	0.30621	 	5.782929244E9	 	4.03555E-10	 	4548.458	27.1526	 
200.0	1.0	0.0	1.80145	13.73724	-8.58714	26.36396	86.69091	0.13372	7.4784	42.64179	36.6083	16.32703	0.30586	 	8.051443637E9	 	2.86822E-10	 	4412.973	27.097	 
195.0	1.0	0.0	1.8022	13.73156	-8.62492	26.31765	86.38376	0.13278	7.53149	42.78273	36.66402	16.38533	0.30552	 	1.12894E10	 	2.02396E-10	 	4277.766	27.0414	 
190.0	1.0	0.0	1.80294	13.7259	-8.66258	26.27134	86.07645	0.13183	7.58572	42.92274	36.71879	16.44331	0.30517	 	1.5945399999999998E10	 	1.41766E-10	 	4142.84	26.9852	 
185.0	1.0	0.0	1.80368	13.72026	-8.70012	26.22503	85.76897	0.13087	7.64111	43.06182	36.7726	16.50095	0.30483	 	2.26921E10	 	9.85418E-11	 	4008.194	26.9292	 
180.0	1.0	0.0	1.80442	13.71464	-8.73753	26.17873	85.46133	0.12991	7.69771	43.19998	36.82546	16.55827	0.30448	 	3.2545799999999996E10	 	6.7957E-11	 	3873.83	26.8728	 
175.0	1.0	0.0	1.80516	13.70904	-8.77481	26.13243	85.15352	0.12894	7.75556	43.3372	36.87738	16.61526	0.30414	 	4.705539999999999E10	 	4.64837E-11	 	3739.75	26.816	 
170.0	1.0	0.0	1.8059	13.70345	-8.81197	26.08613	84.84552	0.12796	7.8147	43.4735	36.92836	16.67193	0.30379	 	6.860219999999999E10	 	3.15282E-11	 	3605.955	26.759	 
165.0	1.0	0.0	1.80663	13.69789	-8.84901	26.03983	84.53735	0.12698	7.87517	43.60887	36.9784	16.72826	0.30345	 	1.0088E11	 	2.11986E-11	 	3472.445	26.702	 
160.0	1.0	0.0	1.80736	13.69234	-8.88592	25.99353	84.22898	0.12599	7.93701	43.74331	37.02752	16.78427	0.3031	 	1.4967E11	 	1.41251E-11	 	3339.224	26.6442	 
155.0	1.0	0.0	1.80809	13.68681	-8.9227	25.94724	83.92042	0.125	8.00029	43.87683	37.07571	16.83995	0.30276	 	2.24113E11	 	9.32428E-12	 	3206.293	26.5862	 
150.0	1.0	0.0	1.80882	13.6813	-8.95936	25.90096	83.61166	0.12399	8.06504	44.00941	37.12299	16.8953	0.30242	 	3.388E11	 	6.09589E-12	 	3073.652	26.5282	 
145.0	1.0	0.0	1.80955	13.67581	-8.99589	25.85467	83.30269	0.12298	8.13132	44.14107	37.16935	16.95031	0.30207	 	5.17264E11	 	3.94554E-12	 	2941.306	26.4692	 
140.0	1.0	0.0	1.81027	13.67034	-9.0323	25.80839	82.99351	0.12196	8.19918	44.2718	37.2148	17.005	0.30173	 	7.97865E11	 	2.52735E-12	 	2809.254	26.4104	 
135.0	1.0	0.0	1.81099	13.66489	-9.06858	25.7621	82.68411	0.12094	8.26868	44.4016	37.25935	17.05937	0.30138	 	1.24382E12	 	1.60158E-12	 	2677.5	26.3508	 
130.0	1.0	0.0	1.81171	13.65946	-9.10474	25.71583	82.37448	0.11991	8.33988	44.53048	37.303	17.1134	0.30104	 	1.96051E12	 	1.00366E-12	 	2546.046	26.2908	 
125.0	1.0	0.0	1.81243	13.65404	-9.14077	25.66955	82.06462	0.11887	8.41285	44.65843	37.34576	17.1671	0.3007	 	3.12567E12	 	6.21714E-13	 	2414.895	26.2302	 
120.0	1.0	0.0	1.81315	13.64864	-9.17668	25.62328	81.75452	0.11782	8.48765	44.78545	37.38762	17.22047	0.30036	 	5.04278E12	 	3.80518E-13	 	2284.048	26.1694	 
115.0	1.0	0.0	1.81386	13.64327	-9.21246	25.57701	81.44417	0.11676	8.56435	44.91154	37.4286	17.2735	0.30001	 	8.23662E12	 	2.30005E-13	 	2153.509	26.1078	 
110.0	1.0	0.0	1.81458	13.63791	-9.24811	25.53074	81.13356	0.1157	8.64302	45.0367	37.46871	17.32621	0.29967	 	1.36266E13	 	1.37236E-13	 	2023.28	26.0458	 
105.0	1.0	0.0	1.81529	13.63257	-9.28364	25.48448	80.82268	0.11463	8.72375	45.16094	37.50793	17.37859	0.29933	 	2.2846E13	 	8.07868E-14	 	1893.364	25.9832	 
100.0	1.0	0.0	1.81599	13.62725	-9.31905	25.43822	80.51152	0.11355	8.8066	45.28425	37.54629	17.43063	0.29898	 	3.88371E13	 	4.68947E-14	 	1763.765	25.9198	 
95.0	1.0	0.0	1.8167	13.62195	-9.35433	25.39196	80.20008	0.11246	8.89168	45.40663	37.58378	17.48234	0.29864	 	6.69795E13	 	2.68268E-14	 	1634.487	25.8556	 
90.0	1.0	0.0	1.81741	13.61666	-9.38948	25.3457	79.88834	0.11137	8.97907	45.52809	37.6204	17.53372	0.2983	 	1.17261E14	 	1.51153E-14	 	1505.532	25.791	 
85.0	1.0	0.0	1.81811	13.6114	-9.42451	25.29944	79.5763	0.11027	9.06886	45.64861	37.65617	17.58477	0.29796	 	2.08525E14	 	8.38287E-15	 	1376.905	25.7254	 
80.0	1.0	0.0	1.81881	13.60615	-9.45942	25.25319	79.26393	0.10916	9.16116	45.76821	37.69109	17.63549	0.29762	 	3.76914E14	 	4.57302E-15	 	1248.611	25.6588	 
75.0	1.0	0.0	1.81951	13.60093	-9.4942	25.20695	78.95124	0.10804	9.25607	45.88689	37.72516	17.68587	0.29728	 	6.92963E14	 	2.45213E-15	 	1120.653	25.5916	 
70.0	1.0	0.0	1.82021	13.59572	-9.52885	25.1607	78.6382	0.10691	9.3537	46.00463	37.75838	17.73592	0.29693	 	1.29683E15	 	1.29148E-15	 	993.036	25.5234	 
65.0	1.0	0.0	1.8209	13.59053	-9.56338	25.11446	78.3248	0.10577	9.45418	46.12145	37.79077	17.78563	0.29659	 	2.47234E15	 	6.67557E-16	 	865.766	25.454	 
60.0	1.0	0.0	1.82159	13.58536	-9.59779	25.06821	78.01104	0.10463	9.55763	46.23734	37.82232	17.83501	0.29625	 	4.80555E15	 	3.38364E-16	 	738.849	25.3834	 
55.0	1.0	0.0	1.82228	13.58021	-9.63207	25.02198	77.69688	0.10347	9.66418	46.35231	37.85304	17.88406	0.29591	 	9.53177E15	 	1.6803E-16	 	612.291	25.3116	 
50.0	1.0	0.0	1.82297	13.57508	-9.66622	24.97574	77.38233	0.10231	9.77398	46.46634	37.88293	17.93277	0.29557	 	1.93112E16	 	8.16738E-17	 	486.098	25.2386	 
45.0	1.0	0.0	1.82366	13.56996	-9.70025	24.92951	77.06736	0.10114	9.88718	46.57945	37.912	17.98115	0.29523	 	4.0002E16	 	3.88184E-17	 	360.278	25.164	 
40.0	1.0	0.0	1.82435	13.56487	-9.73415	24.88328	76.75195	0.0999607	10.00394	46.69163	37.94025	18.02919	0.29489	 	8.48113E16	 	1.80213E-17	 	234.839	25.0878	 
35.0	1.0	0.0	1.82503	13.55979	-9.76793	24.83706	76.43608	0.0987711	10.12442	46.80289	37.96769	18.0769	0.29455	 	1.84254E17	 	8.16265E-18	 	109.79	25.0098	 
30.0	1.0	0.0	1.82571	13.55473	-9.80159	24.79081	76.11974	0.0975723	10.24881	46.91322	37.99431	18.12428	0.29421	 	4.10674E17	 	3.60286E-18	 	-14.86	24.93	 
25.0	1.0	0.0	1.82639	13.5497	-9.83512	 	75.8029	0.0963641	10.37731	47.02262	38.02014	18.17131	0.29387	 	9.40266E17	 	1.54764E-18	 	-139.1	 	 
