T (C)	Fraction solid (wt)-TOTAL	Fraction liquid (wt)-LIQUID	Density (g/(cm)^3)-TOTAL	Molar volume (cm^3)-TOTAL	Volume change (%)-  	Average expansion coeff. (10e-6 1/K)-  	Thermal conductivity (W/(m*K))-TOTAL	Electrical resistivity (10e-6 Ohm*m)-TOTAL	Electrical conductivity (10e6 1/(Ohm*m))-TOTAL	Young's modulus (GPa)-TOTAL	Bulk modulus (GPa)-TOTAL	Shear modulus(GPa)-TOTAL	Poisson's ratio-TOTAL	Liquid viscosity (mPa s)-  	Total viscosity (mPa s)-  	Liquid diffusivity (10e-9 (m^2)/s)-  	Total diffusivity (10e-9 (m^2)/s)-  	Surface Tension (mN/m)-  	Enthalpy (J/mole)-TOTAL	Specific heat (J/(mole K))-TOTAL	Latent heat (J/mole)-TOTAL
700.0	0.0	1.0	1.64217	15.06501	0.0	53.8383	78.7933	0.30259	3.30479	0.0	26.29698	0.0	0.5	1.23504	1.23504	3.8458	3.8458	549.24982	27131.703	 	0.0
695.0	1.0E-5	0.99999	1.64347	15.05303	-0.0795103	53.80138	78.45988	0.30232	3.3078	7.97996E-20	26.36524	2.65999E-20	0.5	1.24943	1.24943	3.78197	3.78197	550.97245	26960.807	34.1792	0.234
690.0	2.0E-5	0.99998	1.64477	15.04113	-0.15855	53.7665	78.1265	0.30204	3.31084	4.43338E-19	26.43338	1.4778E-19	0.5	1.26414	1.26414	3.71866	3.71866	552.6952	26789.927	34.176	0.453
685.0	2.0E-5	0.99998	1.64606	15.02941	-0.23631	53.73832	77.79385	0.30175	3.31395	1.3469E-18	26.50172	4.48966E-19	0.5	1.27918	1.27918	3.65585	3.65585	554.41807	26619.059	34.1736	0.653
684.88	2.0E-5	0.99998	1.64609	15.02914	-0.23812	53.73758	77.78612	0.30175	3.31402	1.37177E-18	26.5033	4.57256E-19	0.5	1.27953	1.27953	3.6544	3.6544	554.45805	26615.094	34.1693	0.657
684.88	2.0E-5	0.99998	1.64609	15.02914	-0.23812	53.73758	77.78612	0.30175	3.31402	1.37177E-18	26.5033	4.57256E-19	0.5	1.27953	1.27953	3.6544	3.6544	554.45806	26615.092	 	0.658
680.0	3.0E-5	0.99997	1.64735	15.0176	-0.31473	53.70595	77.46048	0.30147	3.31706	1.39278E-18	26.56988	4.64263E-19	0.5	1.29456	1.29456	3.59356	3.59356	556.14087	26448.154	34.1813	0.885
675.0	4.0E-5	0.99996	1.64863	15.00598	-0.39186	53.68039	77.12783	0.30118	3.32023	1.54254E-18	26.63823	5.14179E-19	0.5	1.31029	1.31029	3.53179	3.53179	557.86381	26277.266	34.1776	1.095
670.0	4.0E-5	0.99996	1.64992	14.99425	-0.46968	53.65051	76.79442	0.3009	3.3234	2.03718E-18	26.70635	6.79063E-19	0.49999	1.32639	1.32639	3.47054	3.47054	559.58694	26106.393	34.1746	1.284
665.0	5.0E-5	0.99995	1.6512	14.98259	-0.54708	53.62255	76.46106	0.30061	3.32661	3.07714E-18	26.77451	1.02572E-18	0.49999	1.34285	1.34285	3.40981	3.40981	561.31025	25935.534	34.1718	1.454
664.71	5.0E-5	0.99995	1.65127	14.98191	-0.55161	53.62101	76.44148	0.30059	3.3268	3.15845E-18	26.77853	1.05282E-18	0.49999	1.34383	1.34383	3.40626	3.40626	561.41151	25925.495	 	1.464
660.0	3.7E-4	0.99963	1.6525	14.97081	-0.62528	53.58955	76.13297	0.30029	3.33008	3.23395E-14	26.84187	1.07801E-14	0.49996	1.35933	1.35933	3.35052	3.35052	563.0193	25757.215	35.6638	9.078
655.0	6.9E-4	0.99931	1.6538	14.95901	-0.7036	53.55526	75.80467	0.29998	3.33359	5.40555E-13	26.90912	1.80194E-13	0.49992	1.37619	1.37619	3.29174	3.29174	564.72807	25578.782	35.6866	16.828
650.0	0.0010	0.999	1.6551	14.94726	-0.78165	53.52207	75.47604	0.29966	3.33711	2.63129E-12	26.97649	8.77165E-13	0.49988	1.39347	1.39347	3.23342	3.23342	566.43743	25400.712	35.614	24.238
645.0	0.0013	0.9987	1.65639	14.93566	-0.85864	53.49466	75.14769	0.29934	3.34069	7.83591E-12	27.04406	2.61223E-12	0.49985	1.41117	1.41117	3.17557	3.17557	568.14471	25223.298	35.4828	31.322
640.0	0.00159	0.99841	1.65768	14.92408	-0.93546	53.4678	74.81897	0.29902	3.34429	1.78819E-11	27.11167	5.96135E-12	0.49982	1.42931	1.42931	3.11819	3.11819	569.85538	25046.856	35.2884	38.09
635.0	0.00186	0.99814	1.65896	14.91252	-1.01221	53.44094	74.48981	0.29869	3.34791	3.45266E-11	27.17929	1.15105E-11	0.49979	1.44791	1.44791	3.06128	3.06128	571.56659	24871.37	35.0972	44.552
630.0	0.00212	0.99788	1.66024	14.90097	-1.0889	53.41398	74.16023	0.29837	3.35155	5.94035E-11	27.2469	1.98044E-11	0.49976	1.46698	1.46698	3.00485	3.00485	573.27834	24696.817	34.9106	50.72
625.0	0.00236	0.99764	1.66151	14.88957	-1.16454	53.39306	73.83093	0.29804	3.35524	9.39993E-11	27.31473	3.13388E-11	0.49973	1.48653	1.48653	2.94891	2.94891	574.99057	24523.18	34.7274	56.603
620.0	0.0026	0.9974	1.66278	14.87818	-1.24016	53.37191	73.5012	0.29771	3.35895	1.39514E-10	27.38256	4.65139E-11	0.4997	1.50659	1.50659	2.89346	2.89346	576.7033	24350.437	34.5486	62.212
615.0	0.00282	0.99718	1.66404	14.86694	-1.31478	53.35668	73.17173	0.29738	3.36272	1.96894E-10	27.45059	6.56455E-11	0.49968	1.52716	1.52716	2.8385	2.8385	578.4165	24178.572	34.373	67.555
610.0	0.00303	0.99697	1.6653	14.8557	-1.38941	53.34114	72.84182	0.29704	3.36651	2.66819E-10	27.51861	8.89604E-11	0.49965	1.54827	1.54827	2.78404	2.78404	580.13017	24007.564	34.2016	72.644
605.0	0.00324	0.99676	1.66656	14.84444	-1.46415	53.32462	72.5114	0.29671	3.37032	3.49699E-10	27.58655	1.16595E-10	0.49963	1.56993	1.56993	2.73008	2.73008	581.84431	23837.397	34.0334	77.486
600.0	0.00343	0.99657	1.66781	14.83332	-1.53792	53.31401	72.18124	0.29637	3.37419	4.45577E-10	27.65469	1.48565E-10	0.4996	1.59217	1.59217	2.67662	2.67662	583.55888	23668.052	33.869	82.091
597.54	0.00352	0.99648	1.66843	14.82785	-1.57428	53.30788	72.0189	0.2962	3.37609	4.97283E-10	27.68806	1.65806E-10	0.49959	1.6033	1.60794	2.65056	2.64292	584.40093	23585.197	 	84.268
595.0	0.0649602	0.93504	1.67273	14.78972	-1.82736	51.90449	74.26149	0.28642	3.49143	3.88471E-4	27.72625	1.30422E-4	0.48929	1.61532	1.8358	2.62316	2.30811	585.60531	23009.571	131.696	576.409
590.0	0.1679	0.8321	1.68012	14.72468	-2.25906	49.53928	78.03758	0.27099	3.69021	0.0203545	27.92374	0.00691447	0.47188	1.63941	6.05541	2.56972	0.69571	587.97046	22027.393	196.436	1394.993
585.0	0.25144	0.74856	1.6863	14.67072	-2.61728	47.61684	81.19766	0.25893	3.86202	0.10738	28.11149	0.0368347	0.4576	1.66414	24.86483	2.51687	0.16845	590.33417	21205.939	164.291	2053.411
581.0	0.30737	0.69263	1.69056	14.63377	-2.86257	46.32822	83.39041	0.25095	3.98487	0.24571	28.25569	0.084846	0.44795	1.68436	57.36672	2.47507	0.0726713	592.22199	20638.645	 	2490.814
575.0	0.37817	0.62183	1.69613	14.58561	-3.1822	44.68562	86.24485	0.24094	4.15044	0.57865	28.4644	0.20153	0.43562	1.71556	145.50309	2.41297	0.0284503	595.05655	19896.273	130.967	3038.652
570.0	0.42715	0.57285	1.70014	14.55119	-3.41073	43.54547	88.28429	0.23398	4.27378	0.95922	28.63209	0.33609	0.427	1.7423	261.23008	2.36194	0.0157532	597.4152	19359.993	107.256	3413.526
565.0	0.46915	0.53085	1.7037	14.52082	-3.61228	42.56883	90.06251	0.228	4.38587	1.41803	28.79524	0.49947	0.41955	1.76974	421.27354	2.31153	0.00971056	599.77212	18881.02	95.7946	3731.621
560.0	0.50552	0.49448	1.70689	14.49358	-3.79311	41.71719	91.58393	0.22288	4.48673	1.93859	28.95416	0.68596	0.41304	1.7979	630.98318	2.26174	0.00644454	602.12743	18448.188	86.5664	4004.094
555.0	0.53729	0.46271	1.70979	14.46891	-3.95686	40.96863	92.92981	0.21833	4.58015	2.50561	29.1092	0.89022	0.40729	1.82683	896.40849	2.21258	0.0045091	604.48119	18052.979	79.0418	4239.455
550.0	0.56525	0.43475	1.71244	14.44646	-4.10586	40.30961	94.09691	0.21432	4.66584	3.10543	29.26124	1.10735	0.40219	1.85653	1224.48453	2.16403	0.00328105	606.8334	17688.794	72.837	4444.296
545.0	0.59004	0.40996	1.71488	14.42582	-4.24286	39.72325	95.10677	0.21076	4.74474	3.72754	29.41025	1.33352	0.39763	1.88705	1623.74942	2.11611	0.00245924	609.18417	17350.451	67.6686	4623.789
540.0	0.61215	0.38785	1.71714	14.40671	-4.36971	39.19836	95.97683	0.20757	4.81759	4.36294	29.55652	1.56544	0.39352	1.9184	2104.05394	2.0688	0.00188626	611.5336	17033.833	63.3236	4782.043
538.79	0.6171	0.3829	1.71766	14.40237	-4.39858	39.08289	96.17004	0.20685	4.83447	4.51695	29.59161	1.62178	0.39259	1.92611	2233.31021	2.05746	0.00177444	612.10143	16960.338	 	4817.321
538.79	0.6171	0.3829	1.71766	14.40236	-4.39858	39.08285	96.16961	0.20685	4.83445	4.51677	29.59162	1.62172	0.39259	1.92611	2233.1656	2.05746	0.00177456	612.10144	16960.339	 	4817.32
535.0	0.63211	0.36789	1.71926	14.38889	-4.48802	38.72513	96.73673	0.20468	4.88577	5.00864	29.70011	1.80197	0.38977	1.95051	2679.69993	2.02222	0.00147195	613.88046	16733.823	60.002	4924.174
530.0	0.6502	0.3498	1.72126	14.37205	-4.59982	38.29013	97.38354	0.20206	4.94906	5.6581	29.84122	2.04067	0.38633	1.98353	3364.76548	1.97626	0.00116501	616.22626	16449.252	56.9142	5051.34
525.0	0.66655	0.33345	1.72314	14.35623	-4.70483	37.89659	97.93172	0.19968	5.0081	6.3044	29.98021	2.27892	0.3832	2.01752	4175.08427	1.93088	9.33052E-4	618.57137	16178.858	54.0788	5164.797
520.0	0.68141	0.31859	1.72492	14.34131	-4.80388	37.53973	98.39173	0.1975	5.06334	6.94389	30.11741	2.51532	0.38032	2.05249	5130.59473	1.88608	7.54526E-4	620.91575	15920.647	51.6422	5266.529
515.0	0.69497	0.30503	1.72662	14.32709	-4.89822	37.211	98.77383	0.19549	5.11525	7.57521	30.25261	2.74931	0.37766	2.0885	6255.79308	1.84187	6.14912E-4	623.2595	15672.985	49.5324	5358.165
510.0	0.70741	0.29259	1.72824	14.31353	-4.98824	36.90846	99.08647	0.19364	5.1642	8.19636	30.38604	2.98009	0.37519	2.12559	7579.25777	1.79826	5.04319E-4	625.6026	15434.516	47.6938	5441.053
505.0	0.71886	0.28114	1.72979	14.30058	-5.07419	36.63101	99.33792	0.19192	5.21057	8.80694	30.51778	3.20744	0.37289	2.16378	9135.64555	1.75524	4.15729E-4	627.94504	15204.108	46.0816	5516.319
500.0	0.72942	0.27058	1.73129	14.28811	-5.157	36.37211	99.53456	0.19031	5.25465	9.40644	30.64771	3.43115	0.37074	2.20313	10965.91144	1.71282	3.44117E-4	630.28699	14980.807	44.6602	5584.91
495.0	0.73922	0.26078	1.73273	14.27609	-5.23678	36.13157	99.68163	0.1888	5.29667	9.99439	30.77598	3.65099	0.36872	2.24368	13117.97009	1.67098	2.85803E-4	632.62844	14763.806	43.4002	5647.627
490.0	0.74834	0.25166	1.73412	14.26446	-5.31396	35.90649	99.78445	0.18738	5.33687	10.57058	30.90271	3.86684	0.36683	2.28547	15649.74017	1.62975	2.38007E-4	634.96951	14552.417	42.2778	5705.155
485.0	0.75684	0.24316	1.73548	14.25324	-5.38848	35.69793	99.84766	0.18603	5.37547	11.13556	31.02793	4.07886	0.36503	2.32857	18630.63508	1.58911	1.98616E-4	637.31015	14346.049	41.2736	5758.078
480.0	0.76479	0.23521	1.73679	14.2423	-5.46104	35.50063	99.87469	0.18475	5.41262	11.6894	31.15153	4.28707	0.36333	2.37302	22142.67666	1.54905	1.66011E-4	639.65061	14144.194	40.371	5806.901
477.54	0.7685	0.2315	1.73742	14.23708	-5.49575	35.40991	99.87712	0.18415	5.43047	11.95637	31.21183	4.38756	0.36253	2.39538	24090.21784	1.52959	1.52093E-4	640.80073	14046.572	 	5829.466
475.0	0.77243	0.22757	1.73808	14.23164	-5.53181	35.31376	99.87725	0.18352	5.44894	12.24401	31.27544	4.4959	0.36168	2.41851	26308.30751	1.50983	1.38798E-4	641.99477	13943.655	40.1078	5854.825
470.0	0.77983	0.22017	1.73933	14.22121	-5.60105	35.13535	99.85127	0.18234	5.48417	12.8026	31.39923	4.70657	0.36008	2.46512	31263.30992	1.47138	1.16019E-4	644.34228	13744.419	39.8472	5901.819
465.0	0.78677	0.21323	1.74056	14.21101	-5.66876	34.96571	99.79518	0.18122	5.51822	13.34906	31.52123	4.91298	0.35855	2.51326	37119.14546	1.43348	9.70585E-5	646.68969	13549.17	39.0498	5945.253
460.0	0.79331	0.20669	1.74177	14.20106	-5.7348	34.80639	99.71215	0.18014	5.55123	13.88396	31.64167	5.11533	0.35709	2.56301	44049.06463	1.39614	8.12349E-5	649.037	13357.532	38.3276	5985.475
455.0	0.79948	0.20052	1.74294	14.19134	-5.79937	34.65603	99.60493	0.1791	5.58334	14.40852	31.76041	5.31405	0.3557	2.61443	52263.75112	1.35935	6.79997E-5	651.38435	13169.177	37.671	6022.808
450.0	0.80531	0.19469	1.7441	14.18178	-5.86279	34.51206	99.47531	0.17811	5.61463	14.92315	31.87749	5.5093	0.35436	2.66759	62014.16426	1.32311	5.69147E-5	653.73196	12983.815	37.0724	6057.544
445.0	0.81085	0.18915	1.74523	14.17245	-5.92473	34.37778	99.32556	0.17714	5.64521	15.42796	31.9932	5.70107	0.35308	2.72258	73604.81259	1.28743	4.76207E-5	656.07975	12801.192	36.5246	6089.906
440.0	0.8161	0.1839	1.74635	14.16326	-5.98572	34.24865	99.15614	0.17621	5.67509	15.92352	32.10733	5.88958	0.35184	2.77947	87401.96607	1.25229	3.98241E-5	658.42804	12621.08	36.0224	6120.153
439.39	0.81673	0.18327	1.74648	14.16214	-5.99315	34.23303	99.13427	0.1761	5.67871	15.98282	32.12119	5.91215	0.35169	2.78658	89259.55043	1.24803	3.89619E-5	658.71579	12599.196	 	6123.703
430.0	0.82595	0.17405	1.74853	14.14531	-6.10486	34.00681	98.75686	0.17444	5.73262	16.89495	32.33148	6.2598	0.34948	2.89934	123553.5698	1.18368	2.77766E-5	663.12605	12267.258	35.3822	6175.359
429.48	0.82643	0.17357	1.74864	14.14436	-6.11116	33.99271	98.73461	0.17435	5.73555	16.94363	32.34281	6.27839	0.34936	2.90577	125788.4476	1.1802	2.72631E-5	663.36915	12249.224	 	6177.988
425.0	0.92654	0.0734573	1.75565	14.08504	-6.50497	30.73415	100.78911	0.16971	5.89249	26.2662	32.59516	9.85057	0.33323	3.00543	223914.86	1.13378	1.52178E-5	664.9285	11477.65	157.922	6816.203
420.0	0.96138	0.0386166	1.75839	14.06026	-6.66943	29.58408	101.3391	0.16758	5.96738	30.37857	32.75927	11.44322	0.32736	3.11922	301118.2141	1.08459	1.12351E-5	666.84177	11110.802	73.3696	7034.664
415.0	0.97674	0.0232646	1.75987	14.04588	-6.76491	29.05829	101.42687	0.16622	6.01594	32.4225	32.89035	12.23883	0.32457	3.23587	374262.7057	1.03796	8.97415E-6	668.82495	10867.731	48.6142	7129.694
410.0	0.98516	0.014841	1.76091	14.03519	-6.83583	28.75473	101.34263	0.16515	6.05494	33.65953	33.00853	12.722	0.32289	3.35552	453445.8093	0.99367	7.35322E-6	670.84291	10668.496	39.847	7181.242
405.0	0.99041	0.00959462	1.76175	14.02619	-6.89559	28.55168	101.17713	0.16421	6.08962	34.50979	33.12003	13.05506	0.3217	3.47839	543811.4684	0.95155	6.08645E-6	672.88203	10489.404	35.8184	7212.991
400.0	0.99395	0.00604515	1.76249	14.01811	-6.94925	28.40339	100.96812	0.16334	6.12218	35.1479	33.22721	13.30567	0.32079	3.60473	649440.0987	0.91143	5.05894E-6	674.93555	10321.145	33.6518	7234.253
395.96	0.99606	0.00393749	1.76304	14.01198	-6.98992	28.30774	100.77939	0.16266	6.14768	35.56688	33.31162	13.47059	0.32017	3.70963	748844.1119	0.88034	4.36104E-6	676.60452	10189.968	 	7246.766
395.0	0.99683	0.00317339	1.76317	14.01039	-7.00047	28.27548	100.74208	0.16249	6.15419	35.70228	33.33281	13.5239	0.31997	3.73239	775375.6962	0.87372	4.2058E-6	676.99603	10157.239	32.7812	7251.49
390.0	1.0	0.0	1.76383	14.00256	-7.05244	28.13647	100.52673	0.16162	6.18734	36.30101	33.44101	13.75998	0.31908	 	928788.6391	 	3.48483E-6	 	9991.644	33.119	7270.753
385.0	1.0	0.0	1.76464	13.99615	-7.09501	28.09011	100.22484	0.16089	6.21562	36.47672	33.5374	13.83029	0.31873	 	1102599.42	 	2.91336E-6	 	9800.666	38.1956	 
380.0	1.0	0.0	1.76544	13.98975	-7.13745	28.04374	99.92288	0.16015	6.24433	36.65151	33.6326	13.90028	0.31837	 	1312378.976	 	2.42907E-6	 	9655.289	29.0754	 
375.0	1.0	0.0	1.76625	13.98338	-7.17977	27.99738	99.62086	0.1594	6.27348	36.82537	33.72662	13.96996	0.31802	 	1566274.243	 	2.01974E-6	 	9510.198	29.0182	 
370.0	1.0	0.0	1.76705	13.97702	-7.22197	27.95102	99.31878	0.15865	6.30308	36.99831	33.81945	14.03932	0.31767	 	1874435.943	 	1.67467E-6	 	9365.39	28.9616	 
365.0	1.0	0.0	1.76785	13.97068	-7.26404	27.90466	99.01664	0.1579	6.33314	37.17032	33.91112	14.10836	0.31731	 	2249550.399	 	1.38457E-6	 	9220.863	28.9054	 
360.0	1.0	0.0	1.76865	13.96436	-7.30598	27.8583	98.71443	0.15714	6.36367	37.3414	34.00161	14.17709	0.31696	 	2707522.89	 	1.14136E-6	 	9076.614	28.8498	 
355.0	1.0	0.0	1.76945	13.95807	-7.3478	27.81195	98.41216	0.15638	6.39469	37.51157	34.09095	14.24551	0.31661	 	3268358.684	 	9.38038E-7	 	8932.645	28.7938	 
350.0	1.0	0.0	1.77025	13.95178	-7.38949	27.7656	98.10982	0.15561	6.42619	37.6808	34.17914	14.3136	0.31626	 	3957302.883	 	7.68564E-7	 	8788.955	28.738	 
345.0	1.0	0.0	1.77104	13.94552	-7.43106	27.71925	97.80741	0.15484	6.4582	37.84911	34.26619	14.38139	0.31591	 	4806320.338	 	6.27723E-7	 	8645.542	28.6826	 
340.0	1.0	0.0	1.77184	13.93928	-7.4725	27.6729	97.50493	0.15407	6.49073	38.0165	34.35209	14.44885	0.31555	 	5856024.049	 	5.11035E-7	 	8502.408	28.6268	 
335.0	1.0	0.0	1.77263	13.93306	-7.51381	27.62656	97.20238	0.15329	6.52379	38.18296	34.43687	14.51599	0.3152	 	7158197.295	 	4.14662E-7	 	8359.551	28.5714	 
330.0	1.0	0.0	1.77342	13.92685	-7.555	27.58022	96.89976	0.1525	6.55739	38.3485	34.52052	14.58282	0.31485	 	8779104.805	 	3.35322E-7	 	8216.97	28.5162	 
325.0	1.0	0.0	1.77421	13.92066	-7.59606	27.53388	96.59707	0.15171	6.59155	38.51311	34.60305	14.64933	0.3145	 	1.080385671E7	 	2.7022E-7	 	8074.664	28.4612	 
320.0	1.0	0.0	1.77499	13.9145	-7.637	27.48754	96.29429	0.15091	6.62628	38.67679	34.68447	14.71552	0.31415	 	1.334218283E7	 	2.16982E-7	 	7932.635	28.4058	 
315.0	1.0	0.0	1.77578	13.90835	-7.67782	27.44121	95.99144	0.15011	6.6616	38.83956	34.76479	14.7814	0.3138	 	1.653610431E7	 	1.73597E-7	 	7790.879	28.3512	 
310.0	1.0	0.0	1.77656	13.90222	-7.7185	27.39488	95.68851	0.14931	6.69751	39.00139	34.84401	14.84695	0.31345	 	2.057016823E7	 	1.38366E-7	 	7649.398	28.2962	 
305.0	1.0	0.0	1.77734	13.89611	-7.75906	27.34855	95.3855	0.1485	6.73404	39.1623	34.92213	14.91219	0.3131	 	2.568516009E7	 	1.09861E-7	 	7508.19	28.2416	 
300.0	1.0	0.0	1.77812	13.89002	-7.7995	27.30222	95.08241	0.14768	6.7712	39.32229	34.99917	14.97711	0.31275	 	3.219655601E7	 	8.68852E-8	 	7367.256	28.1868	 
295.0	1.0	0.0	1.7789	13.88394	-7.83981	27.2559	94.77923	0.14686	6.80901	39.48135	35.07514	15.0417	0.3124	 	4.051946431E7	 	6.84362E-8	 	7226.594	28.1324	 
290.0	1.0	0.0	1.77967	13.87789	-7.88	27.20958	94.47597	0.14604	6.84749	39.63949	35.15003	15.10598	0.31205	 	5.120249332E7	 	5.36809E-8	 	7086.205	28.0778	 
285.0	1.0	0.0	1.78045	13.87185	-7.92006	27.16326	94.17262	0.14521	6.88664	39.7967	35.22385	15.16994	0.3117	 	6.497395666E7	 	4.19274E-8	 	6946.088	28.0234	 
280.0	1.0	0.0	1.78122	13.86584	-7.95999	27.11694	93.86917	0.14437	6.9265	39.95299	35.29661	15.23357	0.31135	 	8.280521417E7	 	3.26041E-8	 	6806.243	27.969	 
275.0	1.0	0.0	1.78199	13.85984	-7.9998	27.07063	93.56563	0.14353	6.96708	40.10835	35.36832	15.29689	0.311	 	1.059979332E8	 	2.524E-8	 	6666.669	27.9148	 
270.0	1.0	0.0	1.78276	13.85386	-8.03948	27.02432	93.262	0.14269	7.0084	40.26279	35.43897	15.35989	0.31065	 	1.36304914E8	 	1.94489E-8	 	6527.366	27.8606	 
265.0	1.0	0.0	1.78353	13.8479	-8.07904	26.97801	92.95827	0.14183	7.05048	40.4163	35.50859	15.42256	0.3103	 	1.760982601E8	 	1.49154E-8	 	6388.335	27.8062	 
260.0	1.0	0.0	1.78429	13.84196	-8.11847	26.9317	92.65445	0.14098	7.09334	40.56889	35.57717	15.48491	0.30995	 	2.286046979E8	 	1.13828E-8	 	6249.576	27.7518	 
255.0	1.0	0.0	1.78506	13.83604	-8.15778	26.88539	92.35052	0.14011	7.137	40.72055	35.64472	15.54694	0.3096	 	2.982366624E8	 	8.64337E-9	 	6111.087	27.6978	 
250.0	1.0	0.0	1.78582	13.83014	-8.19696	26.83909	92.04648	0.13925	7.1815	40.87129	35.71124	15.60865	0.30925	 	3.910607499E8	 	6.52933E-9	 	5972.87	27.6434	 
245.0	1.0	0.0	1.78658	13.82425	-8.23602	26.79279	91.74234	0.13837	7.22684	41.0211	35.77675	15.67004	0.3089	 	5.154643633E8	 	4.90618E-9	 	5834.924	27.5892	 
240.0	1.0	0.0	1.78734	13.81839	-8.27495	26.7465	91.43809	0.13749	7.27305	41.16999	35.84124	15.7311	0.30855	 	6.831100453E8	 	3.6664E-9	 	5697.25	27.5348	 
235.0	1.0	0.0	1.78809	13.81254	-8.31376	26.7002	91.13372	0.13661	7.32017	41.31795	35.90472	15.79184	0.30821	 	9.103099939E8	 	2.72452E-9	 	5559.848	27.4804	 
230.0	1.0	0.0	1.78885	13.80672	-8.35244	26.65391	90.82924	0.13572	7.36821	41.46499	35.9672	15.85226	0.30786	 	1.220018198E9	 	2.01288E-9	 	5422.717	27.4262	 
225.0	1.0	0.0	1.7896	13.80091	-8.39099	26.60762	90.52465	0.13482	7.41721	41.61111	36.02869	15.91235	0.30751	 	1.644736357E9	 	1.47826E-9	 	5285.86	27.3714	 
220.0	1.0	0.0	1.79035	13.79512	-8.42942	26.56133	90.21993	0.13392	7.46719	41.75629	36.08918	15.97212	0.30716	 	2.230780894E9	 	1.07897E-9	 	5149.275	27.317	 
215.0	1.0	0.0	1.7911	13.78935	-8.46773	26.51504	89.91508	0.13301	7.51819	41.90056	36.14869	16.03157	0.30681	 	3.044591384E9	 	7.82548E-10	 	5012.964	27.2622	 
210.0	1.0	0.0	1.79185	13.7836	-8.5059	26.46876	89.61011	0.1321	7.57023	42.0439	36.20722	16.09069	0.30647	 	4.18212267E9	 	5.63861E-10	 	4876.927	27.2074	 
205.0	1.0	0.0	1.79259	13.77786	-8.54396	26.42248	89.30501	0.13118	7.62335	42.18631	36.26477	16.14949	0.30612	 	5.782929244E9	 	4.03555E-10	 	4741.165	27.1524	 
200.0	1.0	0.0	1.79334	13.77215	-8.58189	26.3762	88.99977	0.13025	7.67757	42.3278	36.32136	16.20796	0.30577	 	8.051443637E9	 	2.86822E-10	 	4605.679	27.0972	 
195.0	1.0	0.0	1.79408	13.76645	-8.61969	26.32993	88.6944	0.12932	7.73295	42.46837	36.37698	16.26611	0.30542	 	1.12894E10	 	2.02396E-10	 	4470.469	27.042	 
190.0	1.0	0.0	1.79482	13.76078	-8.65737	26.28365	88.38888	0.12838	7.78951	42.60801	36.43164	16.32393	0.30508	 	1.5945399999999998E10	 	1.41766E-10	 	4335.536	26.9866	 
185.0	1.0	0.0	1.79556	13.75512	-8.69492	26.23738	88.08322	0.12743	7.84728	42.74672	36.48535	16.38143	0.30473	 	2.26921E10	 	9.85418E-11	 	4200.882	26.9308	 
180.0	1.0	0.0	1.79629	13.74948	-8.73235	26.19111	87.7774	0.12648	7.90632	42.88451	36.53811	16.4386	0.30438	 	3.2545799999999996E10	 	6.7957E-11	 	4066.507	26.875	 
175.0	1.0	0.0	1.79703	13.74386	-8.76965	26.14485	87.47143	0.12552	7.96667	43.02138	36.58993	16.49545	0.30404	 	4.705539999999999E10	 	4.64837E-11	 	3932.413	26.8188	 
170.0	1.0	0.0	1.79776	13.73826	-8.80682	26.09859	87.1653	0.12456	8.02836	43.15732	36.64081	16.55196	0.30369	 	6.860219999999999E10	 	3.15282E-11	 	3798.601	26.7624	 
165.0	1.0	0.0	1.79849	13.73268	-8.84388	26.05233	86.85901	0.12359	8.09144	43.29234	36.69076	16.60815	0.30335	 	1.0088E11	 	2.11986E-11	 	3665.072	26.7058	 
160.0	1.0	0.0	1.79922	13.72712	-8.8808	26.00607	86.55255	0.12261	8.15597	43.42643	36.73978	16.66402	0.303	 	1.4967E11	 	1.41251E-11	 	3531.828	26.6488	 
155.0	1.0	0.0	1.79995	13.72157	-8.9176	25.95981	86.24591	0.12163	8.22198	43.5596	36.78788	16.71955	0.30265	 	2.24113E11	 	9.32428E-12	 	3398.871	26.5914	 
150.0	1.0	0.0	1.80067	13.71605	-8.95428	25.91356	85.93909	0.12063	8.28954	43.69184	36.83506	16.77476	0.30231	 	3.388E11	 	6.09589E-12	 	3266.202	26.5338	 
145.0	1.0	0.0	1.8014	13.71054	-8.99083	25.86731	85.63209	0.11964	8.35869	43.82316	36.88133	16.82964	0.30196	 	5.17264E11	 	3.94554E-12	 	3133.823	26.4758	 
140.0	1.0	0.0	1.80212	13.70505	-9.02725	25.82106	85.3249	0.11863	8.4295	43.95355	36.92669	16.8842	0.30162	 	7.97865E11	 	2.52735E-12	 	3001.737	26.4172	 
135.0	1.0	0.0	1.80284	13.69959	-9.06356	25.77481	85.01751	0.11762	8.50203	44.08302	36.97114	16.93842	0.30127	 	1.24382E12	 	1.60158E-12	 	2869.944	26.3586	 
130.0	1.0	0.0	1.80355	13.69414	-9.09973	25.72857	84.70992	0.1166	8.57633	44.21156	37.0147	16.99232	0.30093	 	1.96051E12	 	1.00366E-12	 	2738.448	26.2992	 
125.0	1.0	0.0	1.80427	13.68871	-9.13578	25.68232	84.40212	0.11557	8.65248	44.33918	37.05737	17.04588	0.30058	 	3.12567E12	 	6.21714E-13	 	2607.25	26.2396	 
120.0	1.0	0.0	1.80498	13.68329	-9.1717	25.63609	84.0941	0.11454	8.73054	44.46587	37.09915	17.09912	0.30024	 	5.04278E12	 	3.80518E-13	 	2476.354	26.1792	 
115.0	1.0	0.0	1.8057	13.6779	-9.2075	25.58985	83.78585	0.1135	8.81059	44.59164	37.14004	17.15203	0.29989	 	8.23662E12	 	2.30005E-13	 	2345.761	26.1186	 
110.0	1.0	0.0	1.80641	13.67253	-9.24318	25.54362	83.47738	0.11245	8.8927	44.71649	37.18005	17.20461	0.29955	 	1.36266E13	 	1.37236E-13	 	2215.475	26.0572	 
105.0	1.0	0.0	1.80711	13.66717	-9.27873	25.49738	83.16866	0.1114	8.97696	44.84041	37.21919	17.25685	0.29921	 	2.2846E13	 	8.07868E-14	 	2085.498	25.9954	 
100.0	1.0	0.0	1.80782	13.66183	-9.31415	25.45115	82.8597	0.11033	9.06346	44.9634	37.25746	17.30877	0.29886	 	3.88371E13	 	4.68947E-14	 	1955.835	25.9326	 
95.0	1.0	0.0	1.80852	13.65652	-9.34945	25.40493	82.55047	0.10926	9.15227	45.08547	37.29486	17.36036	0.29852	 	6.69795E13	 	2.68268E-14	 	1826.487	25.8696	 
90.0	1.0	0.0	1.80923	13.65122	-9.38463	25.3587	82.24098	0.10818	9.24349	45.20662	37.3314	17.41161	0.29817	 	1.17261E14	 	1.51153E-14	 	1697.459	25.8056	 
85.0	1.0	0.0	1.80993	13.64594	-9.41967	25.31248	81.93122	0.1071	9.33724	45.32684	37.36709	17.46254	0.29783	 	2.08525E14	 	8.38287E-15	 	1568.755	25.7408	 
80.0	1.0	0.0	1.81062	13.64068	-9.4546	25.26626	81.62117	0.106	9.4336	45.44614	37.40192	17.51313	0.29749	 	3.76914E14	 	4.57302E-15	 	1440.379	25.6752	 
75.0	1.0	0.0	1.81132	13.63543	-9.4894	25.22004	81.31081	0.1049	9.5327	45.56451	37.43591	17.56339	0.29714	 	6.92963E14	 	2.45213E-15	 	1312.336	25.6086	 
70.0	1.0	0.0	1.81201	13.63021	-9.52407	25.17383	81.00015	0.10379	9.63465	45.68196	37.46905	17.61332	0.2968	 	1.29683E15	 	1.29148E-15	 	1184.629	25.5414	 
65.0	1.0	0.0	1.81271	13.625	-9.55862	25.12762	80.68917	0.10267	9.73957	45.79848	37.50135	17.66292	0.29646	 	2.47234E15	 	6.67557E-16	 	1057.266	25.4726	 
60.0	1.0	0.0	1.8134	13.61982	-9.59304	25.08141	80.37785	0.10155	9.8476	45.91408	37.53282	17.71218	0.29612	 	4.80555E15	 	3.38364E-16	 	930.251	25.403	 
55.0	1.0	0.0	1.81408	13.61465	-9.62734	25.0352	80.06618	0.10041	9.95888	46.02875	37.56346	17.76111	0.29577	 	9.53177E15	 	1.6803E-16	 	803.59	25.3322	 
50.0	1.0	0.0	1.81477	13.6095	-9.66152	24.98899	79.75415	0.0992698	10.07356	46.1425	37.59327	17.80971	0.29543	 	1.93112E16	 	8.16738E-17	 	677.29	25.26	 
45.0	1.0	0.0	1.81545	13.60437	-9.69556	24.94279	79.44174	0.0981181	10.1918	46.25532	37.62226	17.85797	0.29509	 	4.0002E16	 	3.88184E-17	 	551.36	25.186	 
40.0	1.0	0.0	1.81614	13.59926	-9.72949	24.89659	79.12894	0.0969579	10.31376	46.36722	37.65043	17.9059	0.29475	 	8.48113E16	 	1.80213E-17	 	425.806	25.1108	 
35.0	1.0	0.0	1.81682	13.59417	-9.76329	24.85038	78.81572	0.0957889	10.43962	46.4782	37.67779	17.9535	0.2944	 	1.84254E17	 	8.16265E-18	 	300.637	25.0338	 
30.0	1.0	0.0	1.8175	13.5891	-9.79696	24.8042	78.50208	0.0946112	10.56957	46.58825	37.70434	18.00076	0.29406	 	4.10674E17	 	3.60286E-18	 	175.863	24.9548	 
25.0	1.0	0.0	1.81817	13.58404	-9.83051	 	78.18798	0.0934245	10.70383	46.69737	37.73009	18.04769	0.29372	 	9.40266E17	 	1.54764E-18	 	51.494	 	 
