T (C)	Fraction solid (wt)-TOTAL	Fraction liquid (wt)-LIQUID	Density (g/(cm)^3)-TOTAL	Molar volume (cm^3)-TOTAL	Volume change (%)-  	Average expansion coeff. (10e-6 1/K)-  	Thermal conductivity (W/(m*K))-TOTAL	Electrical resistivity (10e-6 Ohm*m)-TOTAL	Electrical conductivity (10e6 1/(Ohm*m))-TOTAL	Young's modulus (GPa)-TOTAL	Bulk modulus (GPa)-TOTAL	Shear modulus(GPa)-TOTAL	Poisson's ratio-TOTAL	Liquid viscosity (mPa s)-  	Total viscosity (mPa s)-  	Liquid diffusivity (10e-9 (m^2)/s)-  	Total diffusivity (10e-9 (m^2)/s)-  	Surface Tension (mN/m)-  	Enthalpy (J/mole)-TOTAL	Specific heat (J/(mole K))-TOTAL	Latent heat (J/mole)-TOTAL
700.0	0.0	1.0	1.59798	15.38831	0.0	52.5058	81.49082	0.29257	3.41793	0.0	24.63387	0.0	0.5	1.25585	1.25585	3.78206	3.78206	542.52395	28199.867	 	0.0
695.0	0.0	1.0	1.59925	15.37605	-0.0796251	52.45937	81.14355	0.29232	3.42094	0.0	24.70334	0.0	0.5	1.27073	1.27073	3.71858	3.71858	544.26897	28028.211	34.3312	0.0
690.0	0.0	1.0	1.60052	15.36385	-0.15893	52.41404	80.79627	0.29206	3.42398	0.0	24.77281	0.0	0.5	1.28594	1.28594	3.65562	3.65562	546.01398	27856.559	34.3304	0.0
685.0	0.0	1.0	1.60179	15.3517	-0.23791	52.36982	80.44899	0.2918	3.42705	0.0	24.84228	0.0	0.5	1.30149	1.30149	3.59319	3.59319	547.75898	27684.911	34.3296	0.0
680.0	0.0	1.0	1.60305	15.33959	-0.31656	52.32674	80.10171	0.29153	3.43016	0.0	24.91175	0.0	0.5	1.31739	1.31739	3.53128	3.53128	549.50397	27513.266	34.329	0.0
675.0	0.0	1.0	1.60431	15.32754	-0.3949	52.28483	79.75444	0.29126	3.4333	0.0	24.98122	0.0	0.5	1.33367	1.33367	3.4699	3.4699	551.24895	27341.625	34.3282	0.0
670.0	0.0	1.0	1.60557	15.31553	-0.47291	52.24412	79.40716	0.291	3.43647	0.0	25.05069	0.0	0.5	1.35032	1.35032	3.40904	3.40904	552.99392	27169.988	34.3274	0.0
665.0	0.0	1.0	1.60682	15.30358	-0.5506	52.20463	79.05988	0.29072	3.43968	0.0	25.12016	0.0	0.5	1.36735	1.36735	3.34872	3.34872	554.73888	26998.354	34.3268	0.0
660.0	0.0	1.0	1.60807	15.29167	-0.62796	52.16639	78.7126	0.29045	3.44292	0.0	25.18963	0.0	0.5	1.38479	1.38479	3.28893	3.28893	556.48383	26826.724	34.326	0.0
655.0	0.0	1.0	1.60932	15.27982	-0.705	52.12944	78.36532	0.29018	3.44619	0.0	25.2591	0.0	0.5	1.40264	1.40264	3.22967	3.22967	558.22878	26655.097	34.3254	0.0
650.69	0.0	1.0	1.61039	15.26964	-0.77115	52.09864	78.066	0.28994	3.44904	0.0	25.31897	0.0	0.5	1.41837	1.41837	3.17902	3.17902	559.7327	26507.178	34.3245	0.0
650.0	8.0E-5	0.99992	1.61057	15.26792	-0.78233	52.09022	78.01719	0.2899	3.44947	1.29058E-17	25.3271	4.30193E-18	0.49999	1.42078	1.42078	3.17127	3.17127	559.97033	26482.213	36.1513	1.261
649.72	1.1E-4	0.99989	1.61064	15.26734	-0.78609	52.09141	77.99792	0.28988	3.44966	5.03184E-17	25.33048	1.67728E-17	0.5	1.42175	1.42185	3.16813	3.16792	560.06679	26472.066	 	1.788
649.72	1.1E-4	0.99989	1.61064	15.26734	-0.78609	52.09141	77.99792	0.28988	3.44966	5.03184E-17	25.33047	1.67728E-17	0.5	1.42175	1.42185	3.16813	3.16792	560.06679	26472.066	 	1.789
645.0	0.84466	0.15534	1.66312	14.7854	-3.91794	33.85972	149.89188	0.15007	6.66344	12.86321	25.89669	4.72656	0.36074	1.45044	896.29007	3.08959	0.00499979	562.23233	19259.352	1444.57	7052.834
640.0	0.92203	0.0779667	1.66881	14.73468	-4.24756	32.15852	161.72243	0.13834	7.22873	18.6329	26.09571	6.91538	0.34721	1.48352	1389.51472	3.00424	0.00320749	564.57542	18464.802	158.91	7676.79
637.64	0.93785	0.0621532	1.67018	14.7224	-4.32736	31.80211	164.20424	0.13589	7.35869	20.06944	26.17873	7.46444	0.34434	1.49964	1551.52643	2.96427	0.00286514	565.6868	18260.029	 	7801.237
635.0	0.97846	0.0215363	1.67294	14.69718	-4.49124	30.94897	170.62018	0.1304	7.66843	24.03249	26.31019	8.98612	0.3372	1.52696	1926.43848	2.90279	0.00230085	567.00852	17819.742	129.012	8151.94
634.32	0.98246	0.0175394	1.67326	14.69411	-4.51118	30.8629	171.24211	0.12983	7.70217	24.46973	26.33609	9.15464	0.33647	1.53403	1982.36861	2.88724	0.00223426	567.3487	17762.983	 	8185.561
630.0	0.99486	0.00514121	1.67456	14.68147	-4.59335	30.58235	173.0698	0.12785	7.8216	25.9538	26.48294	9.72751	0.33404	1.57395	2254.59272	2.80063	0.00195514	569.39708	17516.254	60.6976	8286.195
625.0	1.0	0.0	1.67551	14.67172	-4.65673	30.44762	173.68298	0.12669	7.893	26.72457	26.64098	10.02565	0.33281	 	2523.73483	 	0.00173697	 	17311.708	40.9092	8322.171
620.0	1.0	0.0	1.67636	14.66423	-4.70539	30.4019	173.45157	0.12616	7.92661	26.93733	26.79642	10.10815	0.33246	 	2770.62795	 	0.00157338	 	17080.651	46.2114	 
615.0	1.0	0.0	1.67722	14.65676	-4.75393	30.35617	173.22022	0.12562	7.96061	27.1492	26.9503	10.19035	0.3321	 	3044.87236	 	0.00142365	 	16921.803	31.7696	 
610.0	1.0	0.0	1.67807	14.64931	-4.80234	30.31045	172.98891	0.12508	7.99499	27.36018	27.10266	10.27227	0.33175	 	3349.84041	 	0.00128676	 	16763.313	31.698	 
605.0	1.0	0.0	1.67892	14.64188	-4.85062	30.26472	172.75766	0.12454	8.02976	27.57026	27.25349	10.35389	0.3314	 	3689.36153	 	0.00116173	 	16605.177	31.6272	 
600.0	1.0	0.0	1.67977	14.63447	-4.89879	30.219	172.52646	0.12399	8.06493	27.77944	27.40281	10.43522	0.33104	 	4067.78972	 	0.00104765	 	16447.396	31.5562	 
595.0	1.0	0.0	1.68062	14.62707	-4.94683	30.17327	172.29532	0.12345	8.10052	27.98774	27.55062	10.51626	0.33069	 	4490.08179	 	9.43685E-4	 	16289.965	31.4862	 
590.0	1.0	0.0	1.68147	14.6197	-4.99474	30.12755	172.06424	0.1229	8.13651	28.19513	27.69694	10.597	0.33034	 	4961.88824	 	8.49036E-4	 	16132.885	31.416	 
585.0	1.0	0.0	1.68231	14.61235	-5.04254	30.08182	171.83321	0.12236	8.17293	28.40163	27.84178	10.67745	0.32998	 	5489.65887	 	7.62965E-4	 	15976.152	31.3466	 
580.0	1.0	0.0	1.68316	14.60501	-5.0902	30.0361	171.60224	0.12181	8.20978	28.60724	27.98513	10.75761	0.32963	 	6080.76588	 	6.84784E-4	 	15819.766	31.2772	 
575.0	1.0	0.0	1.684	14.5977	-5.13775	29.99037	171.37133	0.12126	8.24707	28.81195	28.12702	10.83747	0.32927	 	6743.64737	 	6.13853E-4	 	15663.723	31.2086	 
570.0	1.0	0.0	1.68485	14.5904	-5.18517	29.94465	171.14048	0.1207	8.2848	29.01577	28.26746	10.91704	0.32892	 	7487.97494	 	5.49575E-4	 	15508.023	31.14	 
565.0	1.0	0.0	1.68569	14.58312	-5.23246	29.89892	170.9097	0.12015	8.32298	29.2187	28.40644	10.99631	0.32857	 	8324.84989	 	4.91396E-4	 	15352.664	31.0718	 
560.0	1.0	0.0	1.68653	14.57586	-5.27963	29.8532	170.67897	0.11959	8.36163	29.42073	28.54399	11.0753	0.32821	 	9267.03292	 	4.38803E-4	 	15197.643	31.0042	 
555.0	1.0	0.0	1.68736	14.56862	-5.32668	29.80747	170.44831	0.11904	8.40074	29.62186	28.6801	11.15398	0.32786	 	10329.21386	 	3.91317E-4	 	15042.959	30.9368	 
550.0	1.0	0.0	1.6882	14.5614	-5.37361	29.76175	170.21772	0.11848	8.44034	29.8221	28.81479	11.23237	0.32751	 	11528.32861	 	3.48497E-4	 	14888.61	30.8698	 
545.0	1.0	0.0	1.68904	14.5542	-5.42041	29.71602	169.98719	0.11792	8.48042	30.02145	28.94807	11.31047	0.32715	 	12883.93239	 	3.09935E-4	 	14734.594	30.8032	 
540.0	1.0	0.0	1.68987	14.54702	-5.46708	29.6703	169.75673	0.11736	8.52099	30.2199	29.07994	11.38827	0.3268	 	14418.63982	 	2.75254E-4	 	14580.91	30.7368	 
535.0	1.0	0.0	1.6907	14.53985	-5.51363	29.62458	169.52633	0.11679	8.56208	30.41746	29.21042	11.46577	0.32645	 	16158.64485	 	2.44103E-4	 	14427.555	30.671	 
530.0	1.0	0.0	1.69153	14.53271	-5.56006	29.57885	169.29601	0.11623	8.60367	30.61413	29.33951	11.54298	0.32609	 	18134.33611	 	2.16163E-4	 	14274.528	30.6054	 
525.0	1.0	0.0	1.69236	14.52558	-5.60636	29.53313	169.06576	0.11566	8.6458	30.8099	29.46723	11.6199	0.32574	 	20381.02616	 	1.91137E-4	 	14121.828	30.54	 
520.0	1.0	0.0	1.69319	14.51848	-5.65254	29.4874	168.83559	0.1151	8.68846	31.00478	29.59357	11.69651	0.32539	 	22939.81772	 	1.68753E-4	 	13969.451	30.4754	 
515.0	1.0	0.0	1.69402	14.51139	-5.6986	29.44168	168.60549	0.11453	8.73166	31.19876	29.71855	11.77283	0.32503	 	25858.63412	 	1.48761E-4	 	13817.397	30.4108	 
510.0	1.0	0.0	1.69484	14.50432	-5.74453	29.39595	168.37546	0.11395	8.77542	31.39185	29.84217	11.84886	0.32468	 	29193.4475	 	1.30932E-4	 	13665.663	30.3468	 
505.0	1.0	0.0	1.69567	14.49727	-5.79034	29.35023	168.14551	0.11338	8.81974	31.58405	29.96445	11.92458	0.32432	 	33009.74546	 	1.15056E-4	 	13514.249	30.2828	 
500.0	1.0	0.0	1.69649	14.49024	-5.83602	29.3045	167.91564	0.11281	8.86464	31.77535	30.0854	12.00002	0.32397	 	37384.28583	 	1.0094E-4	 	13363.152	30.2194	 
495.0	1.0	0.0	1.69731	14.48323	-5.88158	29.25878	167.68586	0.11223	8.91014	31.96576	30.20501	12.07515	0.32362	 	42407.20016	 	8.84083E-5	 	13212.37	30.1564	 
490.0	1.0	0.0	1.69813	14.47624	-5.92702	29.21306	167.45615	0.11165	8.95623	32.15528	30.3233	12.14998	0.32326	 	48184.52028	 	7.73017E-5	 	13061.902	30.0936	 
485.0	1.0	0.0	1.69895	14.46927	-5.97233	29.16733	167.22653	0.11107	9.00293	32.3439	30.44028	12.22452	0.32291	 	54841.2192	 	6.74737E-5	 	12911.747	30.031	 
480.0	1.0	0.0	1.69977	14.46231	-6.01752	29.12161	166.99699	0.11049	9.05026	32.53163	30.55596	12.29876	0.32256	 	62524.87849	 	5.87916E-5	 	12761.901	29.9692	 
475.0	1.0	0.0	1.70058	14.45538	-6.06258	29.07588	166.76754	0.10991	9.09823	32.71846	30.67033	12.3727	0.3222	 	71410.12048	 	5.11347E-5	 	12612.364	29.9074	 
470.0	1.0	0.0	1.7014	14.44846	-6.10752	29.03016	166.53819	0.10933	9.14684	32.9044	30.78342	12.44635	0.32185	 	81703.97628	 	4.43936E-5	 	12463.134	29.846	 
465.0	1.0	0.0	1.70221	14.44157	-6.15234	28.98444	166.30892	0.10874	9.19612	33.08945	30.89522	12.51969	0.3215	 	93652.40126	 	3.84691E-5	 	12314.209	29.785	 
460.0	1.0	0.0	1.70302	14.43469	-6.19703	28.93871	166.07975	0.10815	9.24608	33.2736	31.00575	12.59273	0.32114	 	107548.2007	 	3.32718E-5	 	12165.588	29.7242	 
455.0	1.0	0.0	1.70383	14.42783	-6.2416	28.89299	165.85067	0.10756	9.29673	33.45686	31.11501	12.66548	0.32079	 	123740.6929	 	2.87207E-5	 	12017.269	29.6638	 
450.0	1.0	0.0	1.70464	14.42099	-6.28604	28.84726	165.62168	0.10697	9.34809	33.63923	31.22302	12.73793	0.32044	 	142647.5173	 	2.47429E-5	 	11869.25	29.6038	 
445.0	1.0	0.0	1.70544	14.41417	-6.33036	28.80154	165.3928	0.10638	9.40016	33.8207	31.32977	12.81008	0.32008	 	164769.0973	 	2.12729E-5	 	11721.53	29.544	 
440.0	1.0	0.0	1.70625	14.40737	-6.37456	28.75582	165.16402	0.10579	9.45297	34.00129	31.43527	12.88192	0.31973	 	190706.3987	 	1.82517E-5	 	11574.106	29.4848	 
435.0	1.0	0.0	1.70705	14.40059	-6.41863	28.71009	164.93535	0.10519	9.50654	34.18097	31.53954	12.95347	0.31938	 	221182.7849	 	1.56265E-5	 	11426.978	29.4256	 
430.0	1.0	0.0	1.70785	14.39383	-6.46258	28.66437	164.70677	0.10459	9.56087	34.35977	31.64258	13.02472	0.31902	 	257070.9836	 	1.335E-5	 	11280.144	29.3668	 
425.0	1.0	0.0	1.70865	14.38708	-6.5064	28.61864	164.47831	0.10399	9.61599	34.53767	31.74439	13.09567	0.31867	 	299426.4426	 	1.13801E-5	 	11133.602	29.3084	 
420.0	1.0	0.0	1.70945	14.38036	-6.5501	28.57292	164.24996	0.10339	9.6719	34.71467	31.84499	13.16631	0.31831	 	349528.6964	 	9.67901E-6	 	10987.351	29.2502	 
415.0	1.0	0.0	1.71025	14.37365	-6.59368	28.5272	164.02172	0.10279	9.72864	34.89079	31.94439	13.23666	0.31796	 	408932.8026	 	8.2133E-6	 	10841.388	29.1926	 
410.0	1.0	0.0	1.71105	14.36697	-6.63713	28.48147	163.7936	0.10218	9.78622	35.06601	32.04258	13.3067	0.31761	 	479533.47	 	6.95319E-6	 	10695.713	29.135	 
405.0	1.0	0.0	1.71184	14.3603	-6.68046	28.43575	163.5656	0.10158	9.84465	35.24034	32.13957	13.37644	0.31725	 	563645.2317	 	5.87228E-6	 	10550.325	29.0776	 
400.0	1.0	0.0	1.71263	14.35365	-6.72366	28.39003	163.33771	0.10097	9.90395	35.41377	32.23538	13.44588	0.3169	 	664102.9562	 	4.94724E-6	 	10405.22	29.021	 
395.0	1.0	0.0	1.71343	14.34702	-6.76674	28.3443	163.10995	0.10036	9.96415	35.58631	32.33001	13.51502	0.31655	 	784388.2173	 	4.15747E-6	 	10260.399	28.9642	 
390.0	1.0	0.0	1.71422	14.34041	-6.8097	28.29858	162.88232	0.0997479	10.02527	35.75796	32.42346	13.58386	0.31619	 	928788.6391	 	3.48483E-6	 	10115.859	28.908	 
385.0	1.0	0.0	1.715	14.33382	-6.85253	28.25286	162.65482	0.0991343	10.08732	35.92872	32.51575	13.6524	0.31584	 	1102599.42	 	2.91336E-6	 	9971.599	28.852	 
380.0	1.0	0.0	1.71579	14.32725	-6.89524	28.20713	162.42745	0.0985189	10.15034	36.09858	32.60687	13.72063	0.31549	 	1312378.976	 	2.42907E-6	 	9827.618	28.7962	 
375.0	1.0	0.0	1.71658	14.32069	-6.93782	28.16141	162.20022	0.0979017	10.21433	36.26755	32.69685	13.78856	0.31513	 	1566274.243	 	2.01974E-6	 	9683.914	28.7408	 
370.0	1.0	0.0	1.71736	14.31416	-6.98028	28.11568	161.97312	0.0972827	10.27933	36.43563	32.78567	13.85618	0.31478	 	1874435.943	 	1.67467E-6	 	9540.485	28.6858	 
365.0	1.0	0.0	1.71814	14.30765	-7.02262	28.06996	161.74617	0.0966618	10.34535	36.60281	32.87336	13.92351	0.31443	 	2249550.399	 	1.38457E-6	 	9397.331	28.6308	 
360.0	1.0	0.0	1.71892	14.30115	-7.06483	28.02424	161.51937	0.0960391	10.41243	36.7691	32.95991	13.99053	0.31407	 	2707522.89	 	1.14136E-6	 	9254.45	28.5762	 
355.0	1.0	0.0	1.7197	14.29467	-7.10692	27.97851	161.29271	0.0954146	10.48058	36.9345	33.04533	14.05724	0.31372	 	3268358.684	 	9.38038E-7	 	9111.841	28.5218	 
350.0	1.0	0.0	1.72048	14.28822	-7.14888	27.93279	161.06621	0.0947882	10.54984	37.09901	33.12963	14.12365	0.31336	 	3957302.883	 	7.68564E-7	 	8969.502	28.4678	 
345.0	1.0	0.0	1.72125	14.28178	-7.19072	27.88707	160.83987	0.09416	10.62023	37.26262	33.21282	14.18976	0.31301	 	4806320.338	 	6.27723E-7	 	8827.432	28.414	 
340.0	1.0	0.0	1.72203	14.27536	-7.23244	27.84134	160.61368	0.0935299	10.69177	37.42534	33.2949	14.25556	0.31266	 	5856024.049	 	5.11035E-7	 	8685.63	28.3604	 
335.0	1.0	0.0	1.7228	14.26896	-7.27403	27.79562	160.38766	0.0928979	10.76451	37.58716	33.37588	14.32106	0.3123	 	7158197.295	 	4.14662E-7	 	8544.095	28.307	 
330.0	1.0	0.0	1.72357	14.26258	-7.3155	27.7499	160.16182	0.092264	10.83846	37.7481	33.45576	14.38625	0.31195	 	8779104.805	 	3.35322E-7	 	8402.825	28.254	 
325.0	1.0	0.0	1.72434	14.25621	-7.35684	27.70418	159.93614	0.0916283	10.91366	37.90814	33.53455	14.45114	0.3116	 	1.080385671E7	 	2.7022E-7	 	8261.819	28.2012	 
320.0	1.0	0.0	1.72511	14.24987	-7.39806	27.65845	159.71064	0.0909906	10.99014	38.06729	33.61226	14.51572	0.31124	 	1.334218283E7	 	2.16982E-7	 	8121.076	28.1486	 
315.0	1.0	0.0	1.72587	14.24355	-7.43916	27.61273	159.48533	0.0903511	11.06793	38.22554	33.68889	14.58	0.31089	 	1.653610431E7	 	1.73597E-7	 	7980.595	28.0962	 
310.0	1.0	0.0	1.72664	14.23724	-7.48013	27.56701	159.26021	0.0897096	11.14707	38.3829	33.76445	14.64397	0.31054	 	2.057016823E7	 	1.38366E-7	 	7840.374	28.0442	 
305.0	1.0	0.0	1.7274	14.23096	-7.52098	27.52128	159.03527	0.0890662	11.2276	38.53937	33.83895	14.70764	0.31018	 	2.568516009E7	 	1.09861E-7	 	7700.414	27.992	 
300.0	1.0	0.0	1.72816	14.22469	-7.5617	27.47556	158.81054	0.0884209	11.30954	38.69495	33.91238	14.77099	0.30983	 	3.219655601E7	 	8.68852E-8	 	7560.712	27.9404	 
295.0	1.0	0.0	1.72892	14.21844	-7.6023	27.42984	158.58601	0.0877737	11.39294	38.84963	33.98477	14.83405	0.30948	 	4.051946431E7	 	6.84362E-8	 	7421.268	27.8888	 
290.0	1.0	0.0	1.72968	14.21221	-7.64278	27.38411	158.36168	0.0871245	11.47783	39.00343	34.0561	14.89679	0.30912	 	5.120249332E7	 	5.36809E-8	 	7282.081	27.8374	 
285.0	1.0	0.0	1.73043	14.206	-7.68313	27.33839	158.13757	0.0864733	11.56427	39.15632	34.12639	14.95923	0.30877	 	6.497395666E7	 	4.19274E-8	 	7143.149	27.7864	 
280.0	1.0	0.0	1.73119	14.19981	-7.72336	27.29267	157.91369	0.0858201	11.65228	39.30833	34.19565	15.02136	0.30841	 	8.280521417E7	 	3.26041E-8	 	7004.473	27.7352	 
275.0	1.0	0.0	1.73194	14.19364	-7.76346	27.24695	157.69003	0.085165	11.74191	39.45944	34.26388	15.08318	0.30806	 	1.059979332E8	 	2.524E-8	 	6866.051	27.6844	 
270.0	1.0	0.0	1.73269	14.18749	-7.80344	27.20122	157.4666	0.0845079	11.83321	39.60967	34.33108	15.1447	0.30771	 	1.36304914E8	 	1.94489E-8	 	6727.882	27.6338	 
265.0	1.0	0.0	1.73344	14.18136	-7.8433	27.1555	157.24341	0.0838488	11.92623	39.75899	34.39726	15.2059	0.30735	 	1.760982601E8	 	1.49154E-8	 	6589.966	27.5832	 
260.0	1.0	0.0	1.73419	14.17524	-7.88303	27.10978	157.02047	0.0831877	12.021	39.90743	34.46243	15.2668	0.307	 	2.286046979E8	 	1.13828E-8	 	6452.302	27.5328	 
255.0	1.0	0.0	1.73494	14.16915	-7.92264	27.06405	156.79778	0.0825246	12.1176	40.05497	34.52659	15.32739	0.30665	 	2.982366624E8	 	8.64337E-9	 	6314.889	27.4826	 
250.0	1.0	0.0	1.73568	14.16307	-7.96212	27.01833	156.57535	0.0818595	12.21606	40.20162	34.58975	15.38767	0.30629	 	3.910607499E8	 	6.52933E-9	 	6177.727	27.4324	 
245.0	1.0	0.0	1.73642	14.15701	-8.00148	26.97261	156.35319	0.0811923	12.31644	40.34738	34.65192	15.44764	0.30594	 	5.154643633E8	 	4.90618E-9	 	6040.815	27.3824	 
240.0	1.0	0.0	1.73716	14.15098	-8.04072	26.92689	156.13131	0.0805231	12.4188	40.49225	34.71309	15.50731	0.30559	 	6.831100453E8	 	3.6664E-9	 	5904.154	27.3322	 
235.0	1.0	0.0	1.7379	14.14496	-8.07983	26.88116	155.90972	0.0798518	12.5232	40.63622	34.77327	15.56666	0.30523	 	9.103099939E8	 	2.72452E-9	 	5767.741	27.2826	 
230.0	1.0	0.0	1.73864	14.13896	-8.11882	26.83544	155.68841	0.0791785	12.62969	40.7793	34.83248	15.6257	0.30488	 	1.220018198E9	 	2.01288E-9	 	5631.578	27.2326	 
225.0	1.0	0.0	1.73938	14.13298	-8.15768	26.78972	155.46741	0.0785031	12.73835	40.92149	34.89071	15.68444	0.30453	 	1.644736357E9	 	1.47826E-9	 	5495.664	27.1828	 
220.0	1.0	0.0	1.74011	14.12702	-8.19642	26.744	155.24673	0.0778256	12.84924	41.06279	34.94797	15.74286	0.30417	 	2.230780894E9	 	1.07897E-9	 	5359.999	27.133	 
215.0	1.0	0.0	1.74084	14.12107	-8.23504	26.69827	155.02636	0.0771461	12.96242	41.20319	35.00427	15.80097	0.30382	 	3.044591384E9	 	7.82548E-10	 	5224.582	27.0834	 
210.0	1.0	0.0	1.74157	14.11515	-8.27353	26.65255	154.80633	0.0764644	13.07798	41.3427	35.0596	15.85877	0.30346	 	4.18212267E9	 	5.63861E-10	 	5089.413	27.0338	 
205.0	1.0	0.0	1.7423	14.10925	-8.3119	26.60683	154.58664	0.0757806	13.19598	41.48132	35.11399	15.91626	0.30311	 	5.782929244E9	 	4.03555E-10	 	4954.494	26.9838	 
200.0	1.0	0.0	1.74303	14.10336	-8.35014	26.56111	154.3673	0.0750948	13.31651	41.61905	35.16742	15.97344	0.30276	 	8.051443637E9	 	2.86822E-10	 	4819.823	26.9342	 
195.0	1.0	0.0	1.74375	14.0975	-8.38826	26.51538	154.14833	0.0744067	13.43964	41.75588	35.21991	16.03031	0.3024	 	1.12894E10	 	2.02396E-10	 	4685.401	26.8844	 
190.0	1.0	0.0	1.74448	14.09165	-8.42626	26.46966	153.92974	0.0737166	13.56547	41.89182	35.27146	16.08687	0.30205	 	1.5945399999999998E10	 	1.41766E-10	 	4551.229	26.8344	 
185.0	1.0	0.0	1.7452	14.08582	-8.46413	26.42394	153.71153	0.0730243	13.69407	42.02687	35.32208	16.14311	0.3017	 	2.26921E10	 	9.85418E-11	 	4417.307	26.7844	 
180.0	1.0	0.0	1.74592	14.08001	-8.50188	26.37822	153.49373	0.0723298	13.82556	42.16103	35.37176	16.19904	0.30134	 	3.2545799999999996E10	 	6.7957E-11	 	4283.635	26.7344	 
175.0	1.0	0.0	1.74664	14.07422	-8.53951	26.33249	153.27635	0.0716332	13.96001	42.29429	35.42053	16.25466	0.30099	 	4.705539999999999E10	 	4.64837E-11	 	4150.214	26.6842	 
170.0	1.0	0.0	1.74735	14.06845	-8.57701	26.28677	153.0594	0.0709344	14.09753	42.42666	35.46837	16.30996	0.30064	 	6.860219999999999E10	 	3.15282E-11	 	4017.046	26.6336	 
165.0	1.0	0.0	1.74807	14.0627	-8.61438	26.24105	152.84289	0.0702334	14.23824	42.55814	35.5153	16.36496	0.30028	 	1.0088E11	 	2.11986E-11	 	3884.13	26.5832	 
160.0	1.0	0.0	1.74878	14.05697	-8.65164	26.19533	152.62684	0.0695302	14.38224	42.68873	35.56132	16.41964	0.29993	 	1.4967E11	 	1.41251E-11	 	3751.468	26.5324	 
155.0	1.0	0.0	1.74949	14.05125	-8.68876	26.14961	152.41128	0.0688248	14.52965	42.81842	35.60644	16.474	0.29958	 	2.24113E11	 	9.32428E-12	 	3619.062	26.4812	 
150.0	1.0	0.0	1.7502	14.04556	-8.72577	26.10388	152.1962	0.0681172	14.68059	42.94722	35.65066	16.52806	0.29922	 	3.388E11	 	6.09589E-12	 	3486.912	26.43	 
145.0	1.0	0.0	1.75091	14.03988	-8.76265	26.05816	151.98165	0.0674073	14.83518	43.07513	35.69398	16.58179	0.29887	 	5.17264E11	 	3.94554E-12	 	3355.02	26.3784	 
140.0	1.0	0.0	1.75161	14.03423	-8.79941	26.01244	151.76762	0.0666952	14.99358	43.20215	35.73642	16.63522	0.29851	 	7.97865E11	 	2.52735E-12	 	3223.388	26.3264	 
135.0	1.0	0.0	1.75232	14.02859	-8.83604	25.96672	151.55415	0.0659809	15.15591	43.32828	35.77796	16.68833	0.29816	 	1.24382E12	 	1.60158E-12	 	3092.018	26.274	 
130.0	1.0	0.0	1.75302	14.02297	-8.87255	25.921	151.34124	0.0652643	15.32232	43.45351	35.81863	16.74112	0.29781	 	1.96051E12	 	1.00366E-12	 	2960.912	26.2212	 
125.0	1.0	0.0	1.75372	14.01737	-8.90893	25.87527	151.12894	0.0645454	15.49298	43.57785	35.85842	16.7936	0.29745	 	3.12567E12	 	6.21714E-13	 	2830.072	26.168	 
120.0	1.0	0.0	1.75442	14.01179	-8.94519	25.82955	150.91725	0.0638242	15.66803	43.7013	35.89734	16.84576	0.2971	 	5.04278E12	 	3.80518E-13	 	2699.501	26.1142	 
115.0	1.0	0.0	1.75512	14.00623	-8.98133	25.78383	150.7062	0.0631008	15.84767	43.82386	35.93539	16.89761	0.29675	 	8.23662E12	 	2.30005E-13	 	2569.201	26.06	 
110.0	1.0	0.0	1.75581	14.00069	-9.01734	25.73811	150.49582	0.062375	16.03207	43.94552	35.97258	16.94915	0.29639	 	1.36266E13	 	1.37236E-13	 	2439.176	26.005	 
105.0	1.0	0.0	1.7565	13.99517	-9.05323	25.69239	150.28613	0.0616469	16.22141	44.06629	36.00891	17.00036	0.29604	 	2.2846E13	 	8.07868E-14	 	2309.429	25.9494	 
100.0	1.0	0.0	1.75719	13.98966	-9.08899	25.64666	150.07717	0.0609165	16.41592	44.18617	36.04439	17.05126	0.29569	 	3.88371E13	 	4.68947E-14	 	2179.964	25.893	 
95.0	1.0	0.0	1.75788	13.98418	-9.12464	25.60095	149.86896	0.0601837	16.61578	44.30516	36.07902	17.10185	0.29533	 	6.69795E13	 	2.68268E-14	 	2050.784	25.836	 
90.0	1.0	0.0	1.75857	13.97872	-9.16015	25.55522	149.66153	0.0594486	16.82124	44.42326	36.1128	17.15211	0.29498	 	1.17261E14	 	1.51153E-14	 	1921.893	25.7782	 
85.0	1.0	0.0	1.75926	13.97327	-9.19554	25.5095	149.45492	0.0587112	17.03253	44.54046	36.14574	17.20206	0.29463	 	2.08525E14	 	8.38287E-15	 	1793.297	25.7192	 
80.0	1.0	0.0	1.75994	13.96784	-9.23081	25.46378	149.24915	0.0579714	17.2499	44.65677	36.17785	17.25169	0.29427	 	3.76914E14	 	4.57302E-15	 	1665.0	25.6594	 
75.0	1.0	0.0	1.76062	13.96243	-9.26596	25.41806	149.04428	0.0572291	17.47362	44.77219	36.20913	17.30101	0.29392	 	6.92963E14	 	2.45213E-15	 	1537.007	25.5986	 
70.0	1.0	0.0	1.7613	13.95704	-9.30098	25.37234	148.84034	0.0564845	17.70397	44.88671	36.23957	17.35	0.29356	 	1.29683E15	 	1.29148E-15	 	1409.325	25.5364	 
65.0	1.0	0.0	1.76198	13.95167	-9.33588	25.32661	148.63736	0.0557375	17.94124	45.00035	36.2692	17.39868	0.29321	 	2.47234E15	 	6.67557E-16	 	1281.959	25.4732	 
60.0	1.0	0.0	1.76266	13.94632	-9.37065	25.28089	148.4354	0.0549881	18.18577	45.11309	36.298	17.44704	0.29286	 	4.80555E15	 	3.38364E-16	 	1154.917	25.4084	 
55.0	1.0	0.0	1.76333	13.94099	-9.4053	25.23517	148.2345	0.0542362	18.43787	45.22494	36.326	17.49508	0.2925	 	9.53177E15	 	1.6803E-16	 	1028.205	25.3424	 
50.0	1.0	0.0	1.764	13.93568	-9.43982	25.18945	148.03471	0.0534819	18.69792	45.3359	36.35318	17.54281	0.29215	 	1.93112E16	 	8.16738E-17	 	901.832	25.2746	 
45.0	1.0	0.0	1.76467	13.93038	-9.47422	25.14373	147.83608	0.0527251	18.96629	45.44597	36.37955	17.59021	0.2918	 	4.0002E16	 	3.88184E-17	 	775.806	25.2052	 
40.0	1.0	0.0	1.76534	13.92511	-9.5085	25.09801	147.63867	0.0519659	19.24339	45.55514	36.40512	17.63729	0.29144	 	8.48113E16	 	1.80213E-17	 	650.136	25.134	 
35.0	1.0	0.0	1.76601	13.91985	-9.54265	25.05229	147.44254	0.0512042	19.52965	45.66342	36.4299	17.68406	0.29109	 	1.84254E17	 	8.16265E-18	 	524.832	25.0608	 
30.0	1.0	0.0	1.76667	13.91462	-9.57668	25.00659	147.24775	0.05044	19.82554	45.77081	36.45388	17.7305	0.29074	 	4.10674E17	 	3.60286E-18	 	399.904	24.9856	 
25.0	1.0	0.0	1.76733	13.9094	-9.61059	 	147.05437	0.0496733	20.13154	45.87731	36.47706	17.77663	0.29038	 	9.40266E17	 	1.54764E-18	 	275.365	 	 
