T (C)	Fraction solid (wt)-TOTAL	Fraction liquid (wt)-LIQUID	Density (g/(cm)^3)-TOTAL	Molar volume (cm^3)-TOTAL	Volume change (%)-  	Average expansion coeff. (10e-6 1/K)-  	Thermal conductivity (W/(m*K))-TOTAL	Electrical resistivity (10e-6 Ohm*m)-TOTAL	Electrical conductivity (10e6 1/(Ohm*m))-TOTAL	Young's modulus (GPa)-TOTAL	Bulk modulus (GPa)-TOTAL	Shear modulus(GPa)-TOTAL	Poisson's ratio-TOTAL	Liquid viscosity (mPa s)-  	Total viscosity (mPa s)-  	Liquid diffusivity (10e-9 (m^2)/s)-  	Total diffusivity (10e-9 (m^2)/s)-  	Surface Tension (mN/m)-  	Enthalpy (J/mole)-TOTAL	Specific heat (J/(mole K))-TOTAL	Latent heat (J/mole)-TOTAL
1500.0	0.0	1.0	7.03629	7.90845	0.0	29.30502	33.24036	1.73819	0.57531	0.0	106.82111	0.0	0.49974	6.68722	6.68722	1.29415	1.29415	1582.73073	65157.84	 	0.0
1495.0	0.0	1.0	7.04021	7.90405	-0.0556717	29.26208	33.16459	1.73725	0.57562	0.0	107.01255	0.0	0.49974	6.74617	6.74617	1.27923	1.27923	1583.14737	64938.821	43.8038	0.0
1490.0	0.0	1.0	7.04412	7.89966	-0.11119	29.21925	33.08879	1.73631	0.57594	0.0	107.20398	0.0	0.49974	6.80598	6.80598	1.2644	1.2644	1583.54989	64720.262	43.7118	0.0
1485.0	0.0	1.0	7.04803	7.89528	-0.16655	29.17653	33.01298	1.73536	0.57625	0.0	107.39541	0.0	0.49974	6.86666	6.86666	1.24968	1.24968	1583.93822	64502.16	43.6204	0.0
1480.0	0.0	1.0	7.05193	7.89091	-0.22176	29.13391	32.93714	1.73441	0.57657	0.0	107.58685	0.0	0.49974	6.92823	6.92823	1.23505	1.23505	1584.31225	64284.512	43.5296	0.0
1475.0	0.0	1.0	7.05582	7.88656	-0.27682	29.0914	32.86129	1.73345	0.57688	0.0	107.77828	0.0	0.49974	6.99071	6.99071	1.22052	1.22052	1584.67189	64067.316	43.4392	0.0
1470.0	0.0	1.0	7.05971	7.88222	-0.33172	29.04899	32.78541	1.73249	0.5772	0.0	107.96971	0.0	0.49974	7.05411	7.05411	1.20609	1.20609	1585.01704	63850.568	43.3496	0.0
1465.0	0.0	1.0	7.06359	7.87789	-0.38646	29.0067	32.70952	1.73153	0.57752	0.0	108.16115	0.0	0.49974	7.11847	7.11847	1.19176	1.19176	1585.34762	63634.266	43.2604	0.0
1460.0	0.0	1.0	7.06746	7.87357	-0.44105	28.96451	32.6336	1.73057	0.57784	0.0	108.35258	0.0	0.49974	7.18378	7.18378	1.17752	1.17752	1585.66353	63418.407	43.1718	0.0
1455.0	0.0	1.0	7.07133	7.86927	-0.49549	28.92244	32.55767	1.7296	0.57817	0.0	108.54401	0.0	0.49974	7.25008	7.25008	1.16339	1.16339	1585.96467	63202.988	43.0838	0.0
1450.0	0.0	1.0	7.07519	7.86497	-0.54977	28.88048	32.48171	1.72863	0.57849	0.0	108.73545	0.0	0.49974	7.31738	7.31738	1.14936	1.14936	1586.25096	62988.043	42.989	0.0
1445.0	0.0	1.0	7.07904	7.86069	-0.6039	28.83863	32.40574	1.72765	0.57882	0.0	108.92688	0.0	0.49974	7.3857	7.3857	1.13542	1.13542	1586.5223	62773.631	42.8824	0.0
1440.0	0.0	1.0	7.08289	7.85642	-0.65788	28.79689	32.32974	1.72668	0.57915	0.0	109.11831	0.0	0.49974	7.45506	7.45506	1.12158	1.12158	1586.77861	62559.742	42.7778	0.0
1435.0	0.0	1.0	7.08673	7.85217	-0.7117	28.75528	32.25373	1.72569	0.57948	0.0	109.30975	0.0	0.49974	7.52549	7.52549	1.10784	1.10784	1587.01979	62346.374	42.6736	0.0
1430.0	0.0	1.0	7.09056	7.84792	-0.76536	28.71378	32.1777	1.72471	0.57981	0.0	109.50118	0.0	0.49974	7.597	7.597	1.0942	1.0942	1587.24575	62133.522	42.5704	0.0
1425.0	0.0	1.0	7.09438	7.84369	-0.81888	28.6724	32.10164	1.72372	0.58014	0.0	109.69261	0.0	0.49974	7.66962	7.66962	1.08066	1.08066	1587.45641	61921.182	42.468	0.0
1420.0	0.0	1.0	7.0982	7.83947	-0.87223	28.63114	32.02557	1.72273	0.58048	0.0	109.88405	0.0	0.49974	7.74337	7.74337	1.06722	1.06722	1587.65169	61709.353	42.3658	0.0
1415.0	0.0	1.0	7.10201	7.83526	-0.92544	28.59	31.94947	1.72173	0.58081	0.0	110.07548	0.0	0.49974	7.81827	7.81827	1.05387	1.05387	1587.83149	61498.03	42.2646	0.0
1410.0	0.0	1.0	7.10582	7.83107	-0.97848	28.54898	31.87336	1.72073	0.58115	0.0	110.26691	0.0	0.49974	7.89435	7.89435	1.04062	1.04062	1587.99574	61287.209	42.1642	0.0
1405.0	0.0	1.0	7.10962	7.82689	-1.03138	28.50808	31.79723	1.71973	0.58149	0.0	110.45835	0.0	0.49974	7.97162	7.97162	1.02747	1.02747	1588.14435	61076.887	42.0644	0.0
1400.0	0.0	1.0	7.11341	7.82271	-1.08412	28.46731	31.72107	1.71872	0.58183	0.0	110.64978	0.0	0.49974	8.05013	8.05013	1.01442	1.01442	1588.27723	60867.06	41.9654	0.0
1395.96	0.0	1.0	7.11646	7.81935	-1.12662	28.43446	31.65954	1.7179	0.58211	0.0	110.80442	0.0	0.49974	8.11445	8.11445	1.00395	1.00395	1588.37305	60697.934	41.8729	0.0
1395.0	0.02824	0.97176	7.12124	7.81415	-1.19236	28.27369	31.71034	1.71416	0.58338	4.97302E-5	110.61609	1.66222E-5	0.4959	8.12789	8.44717	1.00172	0.96385	1586.99181	60337.5	375.073	320.222
1390.0	0.16301	0.83699	7.144	7.78924	-1.50733	27.50836	31.95378	1.696	0.58962	0.0561275	109.72724	0.0189949	0.47743	8.19941	20.74286	0.99	0.39134	1579.98579	58607.232	346.054	1841.643
1385.0	0.27254	0.72746	7.16308	7.76842	-1.7707	26.88028	32.14682	1.68075	0.59497	0.4451	109.05562	0.1522	0.46225	8.27145	99.49268	0.97843	0.0813428	1573.29168	57170.067	287.433	3070.448
1380.0	0.36267	0.63733	7.17921	7.751	-1.99087	26.36761	32.30031	1.66772	0.59962	1.41352	108.55621	0.48754	0.44964	8.34469	304.78133	0.96692	0.0264735	1566.88053	55957.957	242.422	4074.679
1375.0	0.43765	0.56235	7.19305	7.73612	-2.17912	25.94019	32.42138	1.65647	0.60369	3.03239	108.19013	1.05361	0.43904	8.41922	670.15632	0.95546	0.0120035	1560.73383	54921.155	207.36	4904.085
1370.0	0.50068	0.49932	7.20516	7.72312	-2.34348	25.57646	32.51564	1.64665	0.60729	5.24801	107.93055	1.8349	0.43005	8.49426	1206.72371	0.94414	0.00664593	1554.83555	54022.692	179.693	5595.626
1365.0	0.55412	0.44588	7.21581	7.71168	-2.48813	25.26539	32.58779	1.63801	0.6105	7.94871	107.75641	2.79421	0.42235	8.57057	1912.61861	0.93289	0.00418034	1549.16703	53234.687	157.601	6177.184
1360.0	0.5998	0.4002	7.22532	7.70151	-2.61673	24.9973	32.64147	1.63032	0.61337	11.00827	107.65294	3.8879	0.41571	8.64776	2780.08415	0.92174	0.00286718	1543.71244	52535.869	139.764	6670.026
1355.0	0.63913	0.36087	7.23389	7.69237	-2.73228	24.7641	32.6797	1.62343	0.61598	14.30895	107.60713	5.07432	0.40994	8.72592	3799.89628	0.91069	0.00209127	1538.45764	51909.699	125.234	7090.687
1350.0	0.67323	0.32677	7.24167	7.68411	-2.83676	24.56063	32.70488	1.6172	0.61835	17.75153	107.60915	6.31778	0.40489	8.80538	4963.91968	0.8997	0.00159595	1533.38852	51343.278	113.284	7452.066
1345.0	0.70298	0.29702	7.24883	7.67649	-2.93306	24.37896	32.71877	1.61153	0.62053	21.25744	107.65042	7.58959	0.40043	8.88579	6265.90719	0.88881	0.00126044	1528.49676	50826.408	103.374	7764.354
1340.0	0.72907	0.27093	7.25545	7.66948	-3.02172	24.21776	32.72318	1.60634	0.62253	24.76504	107.72558	8.86688	0.39649	8.96719	7701.87096	0.87802	0.00102227	1523.76856	50350.955	95.0906	8035.686
1335.0	0.75207	0.24793	7.26161	7.66295	-3.1043	24.07283	32.71934	1.60155	0.6244	28.22767	107.82863	10.13214	0.39298	9.04995	9269.68299	0.8673	8.46737E-4	1519.19573	49910.366	88.1178	8272.609
1334.78	0.75298	0.24702	7.26187	7.66269	-3.10753	24.06762	32.71894	1.60135	0.62447	28.3733	107.83458	10.18543	0.39284	9.05357	9340.38651	0.86683	8.40211E-4	1518.99469	49891.975	 	8281.953
1330.0	0.7741	0.2259	7.26762	7.65661	-3.18447	23.93373	32.73223	1.59594	0.62659	31.11518	107.87122	11.19616	0.38955	9.1208	11020.71477	0.85788	7.09988E-4	1513.76754	49492.629	83.5474	8487.135
1325.0	0.79351	0.20649	7.27324	7.65069	-3.25926	23.80915	32.73602	1.59078	0.62862	33.84745	107.94911	12.20612	0.3865	9.1919	12901.30235	0.84859	6.04604E-4	1508.51304	49102.863	77.9532	8674.141
1320.0	0.81057	0.18943	7.27852	7.64513	-3.32959	23.69656	32.73088	1.58605	0.6305	36.43698	108.05991	13.16574	0.38378	9.26389	14908.82645	0.83936	5.21555E-4	1503.46683	48737.629	73.0468	8837.065
1315.0	0.82565	0.17435	7.28352	7.63988	-3.39601	23.59454	32.71819	1.58169	0.63224	38.88903	108.19815	14.07642	0.38135	9.33671	17048.75136	0.8302	4.54659E-4	1498.61442	48393.181	68.8896	8979.648
1310.0	0.83902	0.16098	7.28825	7.63492	-3.45874	23.50252	32.69912	1.57762	0.63386	41.21186	108.3596	14.94079	0.37917	9.4109	19329.23065	0.82107	3.99755E-4	1493.94137	48066.464	65.3434	9104.943
1305.0	0.85093	0.14907	7.29278	7.63015	-3.51898	23.4171	32.67448	1.57383	0.63539	43.41602	108.54004	15.76241	0.3772	9.48554	21759.61505	0.81203	3.53984E-4	1489.44047	47754.965	62.2998	9215.461
1303.09	0.85514	0.14486	7.29445	7.62842	-3.5409	23.38749	32.66375	1.57244	0.63595	44.22352	108.61379	16.06372	0.3765	9.51482	22726.73246	0.80855	3.38511E-4	1487.75909	47639.758	 	9254.078
1300.0	0.86317	0.13683	7.29789	7.62481	-3.58661	23.30919	32.6502	1.57001	0.63694	45.72163	108.7213	16.62388	0.37518	9.56998	24513.88014	0.80232	3.13217E-4	1484.86592	47435.967	63.7996	9333.915
1295.0	0.87495	0.12505	7.30316	7.6193	-3.65627	23.19441	32.62368	1.56629	0.63845	48.06422	108.91179	17.50058	0.37322	9.66015	27550.58441	0.7923	2.77807E-4	1480.34745	47119.901	63.2132	9449.874
1290.0	0.88532	0.11468	7.3081	7.61414	-3.72148	23.09197	32.59186	1.56282	0.63987	50.3007	109.11997	18.33832	0.37146	9.7513	30765.573	0.78239	2.47983E-4	1476.01599	46819.619	60.0564	9550.481
1285.0	0.89448	0.10552	7.31276	7.60927	-3.78311	22.99943	32.55546	1.55956	0.6412	52.45887	109.34241	19.14719	0.36988	9.84381	34177.83216	0.77256	2.22511E-4	1471.85994	46532.727	57.3784	9638.129
1280.0	0.90262	0.0973785	7.31719	7.60465	-3.84151	22.91584	32.51521	1.55648	0.64247	54.55549	109.57704	19.93322	0.36846	9.93734	37803.77722	0.76283	2.00523E-4	1467.86669	46257.271	55.0912	9714.769
1275.0	0.90989	0.0901099	7.32142	7.60024	-3.89723	22.83966	32.4717	1.55355	0.64369	56.61051	109.82154	20.70374	0.36716	10.03234	41666.15025	0.75318	1.8135E-4	1464.02626	45991.644	53.1254	9782.005
1270.0	0.9164	0.0835991	7.32548	7.59602	-3.95062	22.7699	32.42535	1.55075	0.64485	58.63417	110.07445	21.46248	0.36597	10.1285	45786.18888	0.74362	1.64498E-4	1460.3291	45734.477	51.4334	9841.204
1265.0	0.92225	0.0777466	7.3294	7.59195	-4.00211	22.70534	32.37657	1.54805	0.64597	60.63486	110.33419	22.21255	0.36488	10.22575	50188.38556	0.73416	1.49583E-4	1456.76786	45484.706	49.9542	9893.428
1260.0	0.92753	0.0724655	7.33318	7.58802	-4.05177	22.64586	32.32567	1.54545	0.64706	62.61498	110.59988	22.95485	0.36387	10.32467	54898.94391	0.72476	1.36304E-4	1453.33245	45241.4	48.6612	9939.606
1255.0	0.93231	0.0676856	7.33685	7.58422	-4.09982	22.59081	32.27296	1.54293	0.64812	64.57484	110.87049	23.68951	0.36294	10.42531	59946.73628	0.71542	1.24419E-4	1450.0157	45003.774	47.5252	9980.52
1250.0	0.93665	0.0633466	7.34043	7.58051	-4.14668	22.53897	32.21862	1.54047	0.64915	66.51286	111.14505	24.416	0.36208	10.52718	65363.06206	0.70618	1.13736E-4	1446.81377	44771.161	46.5226	10016.834
1245.0	0.94061	0.0593901	7.34393	7.5769	-4.19238	22.49029	32.16287	1.53808	0.65016	68.42546	111.42306	25.13302	0.36127	10.63039	71183.25148	0.69703	1.04093E-4	1443.7188	44542.947	45.6428	10049.161
1240.0	0.94425	0.0557547	7.34736	7.57336	-4.23715	22.44409	32.10589	1.53573	0.65116	70.31529	111.70375	25.84161	0.3605	10.73546	77450.22505	0.68794	9.53556E-5	1440.72549	44318.474	44.8946	10078.163
1235.0	0.94759	0.0524053	7.35073	7.56989	-4.28106	22.40018	32.0478	1.53343	0.65213	72.17607	111.98677	26.53949	0.35979	10.84237	84205.56457	0.6789	8.74159E-5	1437.82798	44097.342	44.2264	10104.244
1230.0	0.95069	0.0493104	7.35405	7.56646	-4.32436	22.35782	31.98871	1.53117	0.6531	74.00264	112.27154	27.22477	0.3591	10.95079	91494.02686	0.66995	8.01856E-5	1435.02402	43879.22	43.6244	10127.731
1225.0	0.95355	0.0464452	7.35733	7.56309	-4.36693	22.31738	31.92874	1.52894	0.65405	75.78705	112.55797	27.89451	0.35846	11.06119	99363.77057	0.66106	7.35892E-5	1432.30637	43663.818	43.0804	10148.911
1220.0	0.95622	0.0437842	7.36056	7.55977	-4.40895	22.27835	31.86801	1.52674	0.65499	77.52615	112.84563	28.54756	0.35784	11.17318	107869.2067	0.65225	6.75605E-5	1429.6726	43450.886	42.5864	10168.032
1215.0	0.95869	0.0413098	7.36376	7.55648	-4.45054	22.24036	31.80655	1.52457	0.65592	79.21437	113.13417	29.18187	0.35725	11.28722	117067.4341	0.6435	6.20436E-5	1427.12059	43240.202	42.1368	10185.316
1210.0	0.961	0.0390026	7.36693	7.55323	-4.49161	22.2037	31.74454	1.52242	0.65685	80.84905	113.42359	29.79645	0.35669	11.40293	127023.2118	0.63483	5.69887E-5	1424.64437	43031.576	41.7252	10200.95
1205.0	0.96315	0.0368481	7.37007	7.55002	-4.53226	22.16807	31.68193	1.52028	0.65777	82.42768	113.71359	30.39036	0.35615	11.5209	137806.3256	0.62621	5.23523E-5	1422.24157	42824.839	41.3474	10215.101
1200.95	0.96522	0.0347842	7.37279	7.54725	-4.56725	22.13236	31.6307	1.51857	0.65851	83.90956	113.94716	30.94789	0.35566	11.61829	147457.6936	0.61926	4.87917E-5	1420.34473	42654.553	 	10229.692
1200.0	0.9662	0.0337967	7.37352	7.54647	-4.57716	22.11849	31.61992	1.51811	0.65871	84.57838	114.00475	31.19939	0.35545	11.65328	150127.4419	0.617	4.78932E-5	1419.75198	42606.06	43.7558	10241.696
1195.0	0.97085	0.0291541	7.37728	7.54246	-4.62782	22.04996	31.56163	1.51575	0.65974	87.78241	114.30744	32.40537	0.35444	11.83638	164667.1274	0.60539	4.35161E-5	1416.87879	42358.854	49.4412	10297.12
1190.0	0.97465	0.0253514	7.38087	7.53863	-4.67633	21.9878	31.50089	1.5135	0.66072	90.46515	114.60949	33.41697	0.35358	12.0176	180079.4766	0.59423	3.96562E-5	1414.34594	42123.691	47.0326	10340.899
1185.0	0.97781	0.0221915	7.38435	7.53491	-4.72326	21.93024	31.43833	1.51133	0.66167	92.72557	114.91072	34.27099	0.35283	12.19606	196516.3286	0.58354	3.62151E-5	1412.1028	41897.738	45.1906	10375.865
1180.0	0.98047	0.0195307	7.38774	7.53131	-4.76884	21.87656	31.37424	1.50923	0.66259	94.65181	115.21134	35.00015	0.35216	12.37323	214127.2457	0.57321	3.31227E-5	1410.10323	41678.97	43.7536	10404.041
1175.0	0.98274	0.0172647	7.39106	7.52779	-4.81339	21.82581	31.30897	1.50717	0.66349	96.31732	115.51123	35.63179	0.35156	12.54879	233064.5029	0.56325	3.03266E-5	1408.31481	41465.908	42.6124	10426.904
1170.0	0.98468	0.015317	7.39432	7.52433	-4.85713	21.77727	31.24263	1.50516	0.66438	97.7795	115.81046	36.18729	0.35102	12.72315	253486.4362	0.55361	2.77871E-5	1406.71095	41257.448	41.692	10445.555
1165.0	0.98637	0.0136263	7.39753	7.52093	-4.90008	21.73093	31.17557	1.50317	0.66526	99.0812	116.10898	36.68262	0.35052	12.89685	275559.1233	0.54426	2.54728E-5	1405.26437	41052.758	40.938	10460.825
1160.0	0.98785	0.0121473	7.40071	7.51758	-4.94245	21.68606	31.10785	1.5012	0.66613	100.25654	116.40673	37.13054	0.35006	13.06971	299462.0284	0.5352	2.33581E-5	1403.96061	40851.196	40.3124	10473.354
1155.0	0.98916	0.0108436	7.40385	7.51427	-4.98431	21.64255	31.03957	1.49926	0.667	101.64219	116.7037	37.65585	0.34962	13.24243	325388.8704	0.52637	2.14219E-5	1402.78168	40652.261	39.787	10483.64
1150.0	0.99031	0.00968724	7.40696	7.511	-5.02569	21.60021	30.97087	1.49732	0.66786	102.56452	116.99986	38.0091	0.34921	13.41528	353547.5736	0.51777	1.96467E-5	1401.71492	40455.558	39.3406	10492.076
1145.0	0.99134	0.00865543	7.41005	7.50775	-5.0667	21.55878	30.90173	1.4954	0.66872	103.43775	117.29526	38.34376	0.34882	13.58778	384167.3768	0.5094	1.80172E-5	1400.74983	40260.774	38.9568	10498.975
1140.0	0.99227	0.0077295	7.41312	7.50454	-5.10737	21.5181	30.83232	1.49348	0.66958	104.26898	117.58975	38.66254	0.34845	13.76022	417499.5469	0.50124	1.65203E-5	1399.87952	40067.653	38.6242	10504.59
1137.74	0.99266	0.00734289	7.41449	7.5031	-5.1256	21.50002	30.80086	1.49262	0.66996	104.6314	117.72239	38.8016	0.34829	13.83841	433498.1367	0.49762	1.58852E-5	1399.51327	39981.011	 	10506.75
1135.0	0.99315	0.00684713	7.4164	7.50114	-5.15028	21.46944	30.76057	1.49167	0.67039	105.08279	117.87951	38.97495	0.34808	13.92016	453948.5601	0.49373	1.51401E-5	1398.97446	39874.118	38.707	10510.996
1134.56	0.99323	0.00677022	7.4167	7.50083	-5.15422	21.46462	30.75411	1.49151	0.67046	105.15428	117.90474	39.0024	0.34805	13.93376	457323.0483	0.4931	1.50237E-5	1398.89023	39857.016	 	10511.63
1130.0	0.99436	0.00564036	7.4202	7.49738	-5.19791	21.40429	30.68676	1.48995	0.67116	105.95786	118.16347	39.31149	0.34767	14.20849	494482.5355	0.482	1.38497E-5	1399.14769	39673.187	40.1862	10525.173
1126.3	0.99516	0.00484199	7.42297	7.49464	-5.23251	21.3578	30.63298	1.48863	0.67176	106.56951	118.37331	39.54688	0.34738	14.43494	526747.6768	0.47318	1.29671E-5	1399.37051	39526.279	 	10534.308
1126.3	0.99516	0.00484199	7.42297	7.49464	-5.23251	21.3578	30.63298	1.48863	0.67176	106.56951	118.37331	39.54688	0.34738	14.43494	526747.6768	0.47318	1.29671E-5	1399.37051	39526.279	 	10534.308
1125.0	0.99543	0.00456961	7.42393	7.4937	-5.24439	21.34248	30.61415	1.48816	0.67197	106.78407	118.44909	39.62944	0.34728	14.51012	538658.4279	0.47029	1.26686E-5	1399.40899	39474.643	39.7088	10537.335
1120.0	0.99638	0.0036235	7.42754	7.49014	-5.28938	21.2852	30.54042	1.48642	0.67276	107.57411	118.73873	39.93354	0.34691	14.80285	586843.1022	0.45935	1.15868E-5	1399.58344	39278.467	39.2352	10547.502
1115.0	0.99719	0.00280831	7.43109	7.48665	-5.33353	21.23033	30.46808	1.4846	0.67358	108.32141	119.02748	40.22134	0.34657	15.1025	639387.9164	0.44862	1.05964E-5	1399.78794	39084.7	38.7534	10555.63
1110.0	0.9979	0.00209912	7.43458	7.48322	-5.37694	21.17752	30.3963	1.48274	0.67442	109.04133	119.31533	40.49862	0.34624	15.40828	696764.3019	0.43813	9.6888E-6	1400.0217	38892.938	38.3524	10562.12
1105.0	0.99852	0.00147722	7.43802	7.47984	-5.41966	21.12661	30.32521	1.48085	0.67529	109.75696	119.60217	40.77402	0.34592	15.72213	759489.8783	0.42783	8.85648E-6	1400.2812	38702.874	38.0128	10567.278
1100.0	0.99907	9.27051E-4	7.44142	7.4765	-5.46184	21.07712	30.25473	1.47891	0.67617	110.50734	119.88813	41.06214	0.34561	16.04298	828138.8622	0.41775	8.09285E-6	1400.56564	38514.266	37.7216	10571.344
1095.0	0.99956	4.38211E-4	7.44478	7.47321	-5.50346	21.02913	30.18314	1.47702	0.67704	111.29751	120.17307	41.36487	0.34531	16.36995	903335.0217	0.40792	7.39216E-6	1400.87301	38326.928	37.4676	10574.505
1090.0	1.0	0.0	7.44811	7.46996	-5.54461	20.98237	30.11392	1.47501	0.67796	112.0064	120.45706	41.63727	0.34503	 	985778.5136	 	6.74918E-6	 	38140.706	37.2444	10576.909
1085.0	1.0	0.0	7.45069	7.46737	-5.57736	20.965	30.04482	1.47298	0.6789	112.42053	120.73906	41.79773	0.34482	 	1074591.365	 	6.16866E-6	 	37937.874	40.5664	 
1080.0	1.0	0.0	7.45327	7.46478	-5.61006	20.94765	29.97569	1.47094	0.67984	112.83435	121.01996	41.95813	0.34461	 	1172155.112	 	5.6344E-6	 	37759.587	35.6574	 
1075.0	1.0	0.0	7.45585	7.4622	-5.6427	20.93032	29.90654	1.46889	0.68079	113.24784	121.29976	42.11846	0.3444	 	1279403.855	 	5.14301E-6	 	37581.579	35.6016	 
1070.0	1.0	0.0	7.45843	7.45962	-5.6753	20.91301	29.83738	1.46684	0.68174	113.66102	121.57847	42.27872	0.34419	 	1397378.921	 	4.69134E-6	 	37403.842	35.5474	 
1065.0	1.0	0.0	7.461	7.45705	-5.70784	20.89572	29.76819	1.46477	0.6827	114.07387	121.85608	42.43891	0.34398	 	1527242.024	 	4.27645E-6	 	37226.367	35.495	 
1060.0	1.0	0.0	7.46357	7.45448	-5.74033	20.87845	29.69898	1.4627	0.68367	114.4864	122.1326	42.59903	0.34377	 	1670290.139	 	3.8956E-6	 	37049.155	35.4424	 
1055.0	1.0	0.0	7.46614	7.45191	-5.77278	20.8612	29.62976	1.46062	0.68464	114.8986	122.40804	42.75908	0.34356	 	1827972.339	 	3.54621E-6	 	36872.208	35.3894	 
1050.0	1.0	0.0	7.46871	7.44935	-5.80517	20.84397	29.56051	1.45853	0.68562	115.31048	122.68238	42.91906	0.34335	 	2001908.854	 	3.2259E-6	 	36695.528	35.336	 
1045.0	1.0	0.0	7.47128	7.44679	-5.8375	20.82676	29.49124	1.45643	0.68661	115.72202	122.95565	43.07896	0.34314	 	2193912.671	 	2.93246E-6	 	36519.116	35.2824	 
1040.0	1.0	0.0	7.47384	7.44424	-5.86979	20.80957	29.42195	1.45432	0.68761	116.13324	123.22783	43.23879	0.34293	 	2406014.037	 	2.66381E-6	 	36342.972	35.2288	 
1035.0	1.0	0.0	7.4764	7.44169	-5.90203	20.7924	29.35264	1.45221	0.68861	116.54412	123.49894	43.39855	0.34272	 	2640488.267	 	2.41802E-6	 	36167.096	35.1752	 
1030.0	1.0	0.0	7.47896	7.43915	-5.93421	20.77525	29.28331	1.45008	0.68962	116.95467	123.76897	43.55823	0.34251	 	2899887.347	 	2.19331E-6	 	35991.488	35.1216	 
1025.0	1.0	0.0	7.48151	7.43661	-5.96635	20.75812	29.21396	1.44795	0.69063	117.36489	124.03794	43.71784	0.3423	 	3187075.857	 	1.98801E-6	 	35816.146	35.0684	 
1020.0	1.0	0.0	7.48407	7.43407	-5.99843	20.74101	29.14459	1.4458	0.69166	117.77476	124.30583	43.87737	0.34209	 	3505271.862	 	1.80059E-6	 	35641.071	35.015	 
1015.0	1.0	0.0	7.48662	7.43153	-6.03047	20.72392	29.07519	1.44365	0.69269	118.1843	124.57265	44.03683	0.34188	 	3858093.481	 	1.6296E-6	 	35466.261	34.962	 
1010.0	1.0	0.0	7.48917	7.42901	-6.06245	20.70685	29.00578	1.44149	0.69373	118.5935	124.83841	44.1962	0.34167	 	4249611.984	 	1.47372E-6	 	35291.716	34.909	 
1005.0	1.0	0.0	7.49171	7.42648	-6.09438	20.6898	28.93635	1.43931	0.69477	119.00236	125.10311	44.35551	0.34146	 	4684412.369	 	1.33172E-6	 	35117.436	34.856	 
1000.0	1.0	0.0	7.49426	7.42396	-6.12626	20.67276	28.86689	1.43713	0.69583	119.41088	125.36675	44.51473	0.34125	 	5167662.55	 	1.20246E-6	 	34943.42	34.8032	 
995.0	1.0	0.0	7.4968	7.42144	-6.1581	20.65575	28.79742	1.43494	0.69689	119.81905	125.62933	44.67387	0.34104	 	5705192.442	 	1.08489E-6	 	34769.667	34.7506	 
990.0	1.0	0.0	7.49934	7.41893	-6.18988	20.63876	28.72792	1.43274	0.69796	120.22687	125.89086	44.83294	0.34083	 	6303584.444	 	9.78034E-7	 	34596.177	34.698	 
985.0	1.0	0.0	7.50188	7.41642	-6.22161	20.62179	28.6584	1.43053	0.69904	120.63435	126.15134	44.99193	0.34062	 	6970277.058	 	8.80986E-7	 	34422.95	34.6454	 
980.0	1.0	0.0	7.50441	7.41391	-6.25329	20.60484	28.58886	1.42831	0.70013	121.04147	126.41077	45.15083	0.34041	 	7713683.666	 	7.92917E-7	 	34249.984	34.5932	 
975.0	1.0	0.0	7.50694	7.41141	-6.28492	20.58791	28.5193	1.42609	0.70122	121.44825	126.66915	45.30965	0.3402	 	8543328.806	 	7.1306E-7	 	34077.279	34.541	 
970.0	1.0	0.0	7.50948	7.40891	-6.3165	20.571	28.44972	1.42385	0.70232	121.85468	126.92649	45.4684	0.33999	 	9470004.667	 	6.40708E-7	 	33904.835	34.4888	 
965.0	1.0	0.0	7.512	7.40642	-6.34803	20.55411	28.38012	1.4216	0.70343	122.26075	127.18279	45.62706	0.33978	 	1.0505951E7	 	5.75208E-7	 	33732.651	34.4368	 
960.0	1.0	0.0	7.51453	7.40393	-6.37951	20.53723	28.3105	1.41934	0.70455	122.66647	127.43805	45.78563	0.33957	 	1.166506214E7	 	5.15959E-7	 	33560.727	34.3848	 
955.0	1.0	0.0	7.51705	7.40144	-6.41094	20.52038	28.24086	1.41707	0.70568	123.07183	127.69228	45.94413	0.33936	 	1.296312542E7	 	4.62411E-7	 	33389.061	34.3332	 
950.0	1.0	0.0	7.51957	7.39896	-6.44233	20.50355	28.17119	1.41479	0.70682	123.47683	127.94547	46.10254	0.33915	 	1.441809609E7	 	4.14055E-7	 	33217.654	34.2814	 
945.0	1.0	0.0	7.52209	7.39648	-6.47366	20.48674	28.1015	1.4125	0.70796	123.88147	128.19763	46.26086	0.33894	 	1.605041462E7	 	3.70426E-7	 	33046.504	34.23	 
940.0	1.0	0.0	7.52461	7.39401	-6.50494	20.46995	28.0318	1.4102	0.70912	124.28575	128.44876	46.4191	0.33873	 	1.788337319E7	 	3.31094E-7	 	32875.612	34.1784	 
935.0	1.0	0.0	7.52713	7.39154	-6.53618	20.45318	27.96207	1.40789	0.71028	124.68967	128.69887	46.57726	0.33853	 	1.994353968E7	 	2.95669E-7	 	32704.976	34.1272	 
930.0	1.0	0.0	7.52964	7.38907	-6.56736	20.43642	27.89232	1.40557	0.71145	125.09323	128.94795	46.73532	0.33832	 	2.226124839E7	 	2.63789E-7	 	32534.596	34.076	 
925.0	1.0	0.0	7.53215	7.38661	-6.59849	20.41969	27.82255	1.40324	0.71264	125.49642	129.19602	46.89331	0.33811	 	2.487116886E7	 	2.35127E-7	 	32364.471	34.025	 
920.0	1.0	0.0	7.53466	7.38415	-6.62958	20.40298	27.75275	1.4009	0.71383	125.89924	129.44306	47.0512	0.3379	 	2.781296572E7	 	2.0938E-7	 	32194.601	33.974	 
915.0	1.0	0.0	7.53716	7.3817	-6.66062	20.38629	27.68294	1.39855	0.71503	126.3017	129.68909	47.209	0.33769	 	3.113206515E7	 	1.86273E-7	 	32024.985	33.9232	 
910.0	1.0	0.0	7.53966	7.37925	-6.6916	20.36961	27.6131	1.39618	0.71624	126.70378	129.9341	47.36672	0.33748	 	3.488054596E7	 	1.65555E-7	 	31855.622	33.8726	 
905.0	1.0	0.0	7.54216	7.3768	-6.72254	20.35296	27.54324	1.39381	0.71746	127.1055	130.1781	47.52435	0.33727	 	3.911817693E7	 	1.46997E-7	 	31686.513	33.8218	 
900.0	1.0	0.0	7.54466	7.37436	-6.75343	20.33633	27.47336	1.39142	0.71869	127.50684	130.4211	47.68188	0.33706	 	4.391362554E7	 	1.30389E-7	 	31517.656	33.7714	 
895.0	1.0	0.0	7.54716	7.37192	-6.78427	20.31972	27.40346	1.38903	0.71993	127.90781	130.66309	47.83933	0.33685	 	4.934586819E7	 	1.15541E-7	 	31349.05	33.7212	 
890.0	1.0	0.0	7.54965	7.36948	-6.81507	20.30312	27.33354	1.38662	0.72118	128.3084	130.90407	47.99669	0.33664	 	5.55058373E7	 	1.02278E-7	 	31180.695	33.671	 
885.0	1.0	0.0	7.55214	7.36705	-6.84581	20.28655	27.26359	1.3842	0.72244	128.70862	131.14406	48.15395	0.33643	 	6.24983473E7	 	9.04447E-8	 	31012.591	33.6208	 
880.0	1.0	0.0	7.55463	7.36463	-6.87651	20.27	27.19363	1.38177	0.72371	129.10846	131.38304	48.31112	0.33622	 	7.04443496E7	 	7.98962E-8	 	30844.736	33.571	 
875.0	1.0	0.0	7.55712	7.3622	-6.90715	20.25347	27.12364	1.37933	0.72499	129.50792	131.62103	48.4682	0.33601	 	7.94835755E7	 	7.05031E-8	 	30677.131	33.521	 
870.0	1.0	0.0	7.55961	7.35978	-6.93775	20.23695	27.05363	1.37688	0.72628	129.907	131.85802	48.62519	0.3358	 	8.97776379E7	 	6.21472E-8	 	30509.774	33.4714	 
865.0	1.0	0.0	7.56209	7.35737	-6.9683	20.22046	26.9836	1.37441	0.72758	130.30569	132.09402	48.78208	0.33559	 	1.015136758E8	 	5.4722E-8	 	30342.664	33.422	 
860.0	1.0	0.0	7.56457	7.35495	-6.9988	20.20399	26.91354	1.37194	0.7289	130.704	132.32904	48.93888	0.33538	 	1.149086416E8	 	4.81306E-8	 	30175.802	33.3724	 
855.0	1.0	0.0	7.56705	7.35255	-7.02926	20.18753	26.84346	1.36945	0.73022	131.10193	132.56306	49.09558	0.33517	 	1.302143517E8	 	4.22858E-8	 	30009.186	33.3232	 
850.0	1.0	0.0	7.56952	7.35014	-7.05966	20.1711	26.77336	1.36695	0.73156	131.49947	132.79611	49.25219	0.33496	 	1.477234424E8	 	3.71086E-8	 	29842.816	33.274	 
845.0	1.0	0.0	7.572	7.34774	-7.09002	20.15468	26.70324	1.36444	0.7329	131.89662	133.02816	49.4087	0.33475	 	1.677764046E8	 	3.25279E-8	 	29676.691	33.225	 
840.0	1.0	0.0	7.57447	7.34534	-7.12033	20.13829	26.6331	1.36191	0.73426	132.29339	133.25924	49.56511	0.33454	 	1.90769901E8	 	2.84794E-8	 	29510.81	33.1762	 
835.0	1.0	0.0	7.57693	7.34295	-7.15059	20.12192	26.56293	1.35938	0.73563	132.68976	133.48935	49.72143	0.33433	 	2.171666144E8	 	2.49053E-8	 	29345.173	33.1274	 
830.0	1.0	0.0	7.5794	7.34056	-7.18081	20.10556	26.49274	1.35683	0.73701	133.08574	133.71847	49.87765	0.33412	 	2.475069246E8	 	2.17537E-8	 	29179.778	33.079	 
825.0	1.0	0.0	7.58187	7.33817	-7.21097	20.08923	26.42253	1.35427	0.73841	133.48133	133.94663	50.03377	0.33391	 	2.824227703E8	 	1.89779E-8	 	29014.626	33.0304	 
820.0	1.0	0.0	7.58433	7.33579	-7.24109	20.07292	26.3523	1.3517	0.73981	133.87652	134.17381	50.1898	0.3337	 	3.226541299E8	 	1.6536E-8	 	28849.715	32.9822	 
815.0	1.0	0.0	7.58679	7.33341	-7.27116	20.05662	26.28204	1.34911	0.74123	134.27132	134.40003	50.34572	0.33349	 	3.690686415E8	 	1.43902E-8	 	28685.046	32.9338	 
810.0	1.0	0.0	7.58924	7.33104	-7.30119	20.04035	26.21177	1.34651	0.74266	134.66572	134.62528	50.50154	0.33328	 	4.226849934E8	 	1.25072E-8	 	28520.615	32.8862	 
805.0	1.0	0.0	7.5917	7.32867	-7.33116	20.02409	26.14146	1.3439	0.7441	135.05972	134.84956	50.65726	0.33307	 	4.847008499E8	 	1.08566E-8	 	28356.425	32.838	 
800.0	1.0	0.0	7.59415	7.3263	-7.36109	20.00786	26.07114	1.34128	0.74556	135.45332	135.07289	50.81288	0.33286	 	5.565262388E8	 	9.41156E-9	 	28192.472	32.7906	 
795.0	1.0	0.0	7.5966	7.32394	-7.39098	19.99164	26.00079	1.33864	0.74703	135.84629	135.29502	50.96832	0.33265	 	6.398235296E8	 	8.14814E-9	 	28028.757	32.743	 
790.0	1.0	0.0	7.59905	7.32158	-7.42081	19.97545	25.93042	1.33599	0.74851	136.23909	135.51643	51.12373	0.33244	 	7.365553707E8	 	7.04492E-9	 	27865.279	32.6956	 
785.0	1.0	0.0	7.6015	7.31922	-7.4506	19.95927	25.86003	1.33332	0.75	136.63148	135.73688	51.27905	0.33223	 	8.490422606E8	 	6.08282E-9	 	27702.037	32.6484	 
780.0	1.0	0.0	7.60394	7.31687	-7.48034	19.94312	25.78961	1.33065	0.75151	137.02346	135.95639	51.43426	0.33203	 	9.800317917E8	 	5.24489E-9	 	27539.03	32.6014	 
775.0	1.0	0.0	7.60638	7.31452	-7.51004	19.92699	25.71917	1.32796	0.75304	137.41504	136.17494	51.58937	0.33182	 	1.132782063E9	 	4.5161E-9	 	27376.257	32.5546	 
770.0	1.0	0.0	7.60882	7.31218	-7.53968	19.91087	25.64871	1.32525	0.75457	137.80622	136.39254	51.74437	0.33161	 	1.311162319E9	 	3.88309E-9	 	27213.718	32.5078	 
765.0	1.0	0.0	7.61126	7.30984	-7.56928	19.89478	25.57822	1.32254	0.75612	138.19698	136.6092	51.89927	0.3314	 	1.519774563E9	 	3.33402E-9	 	27051.411	32.4614	 
760.0	1.0	0.0	7.61369	7.3075	-7.59884	19.8787	25.50772	1.3198	0.75769	138.58733	136.82492	52.05406	0.33119	 	1.764100754E9	 	2.85842E-9	 	26889.336	32.415	 
755.0	1.0	0.0	7.61612	7.30517	-7.62835	19.86265	25.43718	1.31706	0.75927	138.97727	137.03969	52.20875	0.33098	 	2.050681261E9	 	2.44706E-9	 	26727.491	32.369	 
750.0	1.0	0.0	7.61855	7.30284	-7.65781	19.84661	25.36663	1.3143	0.76086	139.3668	137.25353	52.36333	0.33077	 	2.387331565E9	 	2.09177E-9	 	26565.876	32.323	 
745.0	1.0	0.0	7.62098	7.30051	-7.68722	19.83059	25.29605	1.31153	0.76247	139.75591	137.46643	52.5178	0.33056	 	2.783405855E9	 	1.78534E-9	 	26404.49	32.2772	 
740.0	1.0	0.0	7.62341	7.29819	-7.71659	19.8146	25.22544	1.30874	0.76409	140.14461	137.67839	52.67217	0.33035	 	3.2501182E9	 	1.52146E-9	 	26243.332	32.2316	 
735.0	1.0	0.0	7.62583	7.29587	-7.74591	19.79862	25.15481	1.30594	0.76573	140.53289	137.88943	52.82642	0.33014	 	3.800934565E9	 	1.29456E-9	 	26082.4	32.1864	 
730.0	1.0	0.0	7.62825	7.29355	-7.77519	19.78267	25.08416	1.30312	0.76739	140.92075	138.09953	52.98057	0.32993	 	4.452052106E9	 	1.09975E-9	 	25921.694	32.1412	 
725.0	1.0	0.0	7.63067	7.29124	-7.80442	19.76673	25.01349	1.30029	0.76906	141.30819	138.3087	53.13461	0.32972	 	5.22298625E9	 	9.32747E-10	 	25761.213	32.0962	 
720.0	1.0	0.0	7.63308	7.28893	-7.8336	19.75082	24.94279	1.29744	0.77075	141.69521	138.51695	53.28854	0.32951	 	6.137291061E9	 	7.89814E-10	 	25600.955	32.0516	 
715.0	1.0	0.0	7.6355	7.28663	-7.86274	19.73492	24.87206	1.29458	0.77245	142.08181	138.72428	53.44236	0.3293	 	7.223444784E9	 	6.67675E-10	 	25440.919	32.0072	 
710.0	1.0	0.0	7.63791	7.28433	-7.89183	19.71904	24.80132	1.2917	0.77417	142.46799	138.93069	53.59607	0.32909	 	8.515940442E9	 	5.63474E-10	 	25281.104	31.963	 
705.0	1.0	0.0	7.64032	7.28203	-7.92088	19.70319	24.73054	1.28881	0.77591	142.85374	139.13617	53.74967	0.32888	 	1.00566E10	 	4.74722E-10	 	25121.51	31.9188	 
700.0	1.0	0.0	7.64273	7.27974	-7.94988	19.68735	24.65975	1.28591	0.77766	143.23906	139.34074	53.90315	0.32867	 	1.1896399999999998E10	 	3.99256E-10	 	24962.134	31.8752	 
695.0	1.0	0.0	7.64513	7.27745	-7.97884	19.67154	24.58893	1.28298	0.77943	143.62396	139.54439	54.05653	0.32846	 	1.4097199999999998E10	 	3.35194E-10	 	24802.975	31.8318	 
690.0	1.0	0.0	7.64753	7.27516	-8.00775	19.65574	24.51808	1.28004	0.78122	144.00843	139.74714	54.20979	0.32825	 	1.6734599999999998E10	 	2.80908E-10	 	24644.032	31.7886	 
685.0	1.0	0.0	7.64993	7.27288	-8.03661	19.63996	24.44721	1.27709	0.78303	144.39247	139.94897	54.36294	0.32804	 	1.99011E10	 	2.34986E-10	 	24485.303	31.7458	 
680.0	1.0	0.0	7.65233	7.2706	-8.06543	19.62421	24.37631	1.27412	0.78485	144.77608	140.14989	54.51597	0.32783	 	2.3709899999999996E10	 	1.96209E-10	 	24326.788	31.703	 
675.0	1.0	0.0	7.65473	7.26832	-8.0942	19.60847	24.30539	1.27114	0.7867	145.15926	140.34991	54.66889	0.32762	 	2.8299899999999996E10	 	1.63523E-10	 	24168.484	31.6608	 
670.0	1.0	0.0	7.65712	7.26605	-8.12293	19.59275	24.23445	1.26813	0.78856	145.542	140.54902	54.82169	0.32741	 	3.3841899999999996E10	 	1.36023E-10	 	24010.39	31.6188	 
665.0	1.0	0.0	7.65951	7.26378	-8.15162	19.57706	24.16348	1.26512	0.79044	145.92431	140.74723	54.97438	0.3272	 	4.05466E10	 	1.12929E-10	 	23852.503	31.5774	 
660.0	1.0	0.0	7.6619	7.26152	-8.18025	19.56138	24.09248	1.26208	0.79234	146.30618	140.94454	55.12695	0.32699	 	4.867389999999999E10	 	9.35712E-11	 	23694.824	31.5358	 
655.0	1.0	0.0	7.66429	7.25926	-8.20885	19.54572	24.02146	1.25903	0.79426	146.68762	141.14095	55.27941	0.32678	 	5.854539999999999E10	 	7.73771E-11	 	23537.348	31.4952	 
650.0	1.0	0.0	7.66667	7.257	-8.2374	19.53009	23.95041	1.25596	0.7962	147.06861	141.33647	55.43175	0.32657	 	7.05601E10	 	6.38557E-11	 	23380.075	31.4546	 
645.0	1.0	0.0	7.66906	7.25475	-8.2659	19.51447	23.87934	1.25288	0.79816	147.44917	141.53109	55.58397	0.32636	 	8.52136E10	 	5.25886E-11	 	23223.002	31.4146	 
640.0	1.0	0.0	7.67144	7.2525	-8.29436	19.49887	23.80824	1.24978	0.80014	147.82929	141.72482	55.73607	0.32615	 	1.03123E11	 	4.32187E-11	 	23066.128	31.3748	 
635.0	1.0	0.0	7.67381	7.25025	-8.32277	19.48329	23.73712	1.24666	0.80214	148.20896	141.91767	55.88805	0.32594	 	1.2506E11	 	3.54426E-11	 	22909.449	31.3358	 
630.0	1.0	0.0	7.67619	7.24801	-8.35114	19.46774	23.66597	1.24352	0.80417	148.58819	142.10962	56.03992	0.32574	 	1.51988E11	 	2.90027E-11	 	22752.963	31.2972	 
625.0	1.0	0.0	7.67856	7.24576	-8.37947	19.4522	23.59479	1.24037	0.80621	148.96698	142.30069	56.19167	0.32553	 	1.85115E11	 	2.36807E-11	 	22596.668	31.259	 
620.0	1.0	0.0	7.68093	7.24353	-8.40775	19.43668	23.52359	1.2372	0.80828	149.34532	142.49087	56.34329	0.32532	 	2.25961E11	 	1.9292E-11	 	22440.561	31.2214	 
615.0	1.0	0.0	7.6833	7.2413	-8.43599	19.42118	23.45236	1.23401	0.81037	149.72322	142.68018	56.4948	0.32511	 	2.76441E11	 	1.56809E-11	 	22284.638	31.1846	 
610.0	1.0	0.0	7.68567	7.23907	-8.46418	19.40571	23.3811	1.2308	0.81248	150.10066	142.8686	56.64618	0.3249	 	3.38971E11	 	1.27162E-11	 	22128.897	31.1482	 
605.0	1.0	0.0	7.68803	7.23684	-8.49233	19.39025	23.30982	1.22757	0.81462	150.47766	143.05615	56.79744	0.32469	 	4.16612E11	 	1.02878E-11	 	21973.333	31.1128	 
600.0	1.0	0.0	7.69039	7.23462	-8.52043	19.37481	23.23851	1.22433	0.81677	150.85421	143.24282	56.94858	0.32448	 	5.13249E11	 	8.30323E-12	 	21817.943	31.078	 
595.0	1.0	0.0	7.69275	7.2324	-8.54849	19.35939	23.16717	1.22107	0.81896	151.2303	143.42862	57.0996	0.32427	 	6.33825E11	 	6.68517E-12	 	21662.723	31.044	 
590.0	1.0	0.0	7.69511	7.23018	-8.57651	19.34399	23.09581	1.21779	0.82116	151.60595	143.61355	57.25049	0.32406	 	7.84643E11	 	5.36909E-12	 	21507.668	31.011	 
585.0	1.0	0.0	7.69747	7.22797	-8.60448	19.32862	23.02442	1.21449	0.82339	151.98114	143.79761	57.40126	0.32385	 	9.73769E11	 	4.30124E-12	 	21352.773	30.979	 
580.0	1.0	0.0	7.69982	7.22576	-8.63241	19.31326	22.953	1.21117	0.82565	152.35587	143.9808	57.55191	0.32364	 	1.21155E12	 	3.43694E-12	 	21198.033	30.948	 
575.0	1.0	0.0	7.70217	7.22356	-8.66029	19.29792	22.88155	1.20783	0.82793	152.73015	144.16312	57.70243	0.32343	 	1.51127E12	 	2.73916E-12	 	21043.442	30.9182	 
570.0	1.0	0.0	7.70452	7.22135	-8.68813	19.2826	22.81008	1.20447	0.83024	153.10397	144.34458	57.85283	0.32322	 	1.8901E12	 	2.17724E-12	 	20888.993	30.8898	 
565.0	1.0	0.0	7.70686	7.21916	-8.71593	19.2673	22.73858	1.20109	0.83258	153.47733	144.52518	58.0031	0.32301	 	2.37021E12	 	1.72592E-12	 	20734.678	30.863	 
560.0	1.0	0.0	7.70921	7.21696	-8.74368	19.25202	22.66705	1.19769	0.83494	153.85023	144.70493	58.15325	0.3228	 	2.98037E12	 	1.36439E-12	 	20580.491	30.8374	 
555.0	1.0	0.0	7.71155	7.21477	-8.7714	19.23676	22.59549	1.19428	0.83733	154.22267	144.88381	58.30326	0.32259	 	3.75798E12	 	1.07558E-12	 	20426.422	30.8138	 
550.0	1.0	0.0	7.71389	7.21258	-8.79906	19.22152	22.5239	1.19084	0.83974	154.59465	145.06184	58.45315	0.32238	 	4.75185E12	 	8.45479E-13	 	20272.46	30.7924	 
545.0	1.0	0.0	7.71623	7.2104	-8.82669	19.20631	22.45229	1.18738	0.84219	154.96617	145.23901	58.60292	0.32217	 	6.02584E12	 	6.62677E-13	 	20118.596	30.7728	 
540.0	1.0	0.0	7.71856	7.20822	-8.85427	19.19111	22.38064	1.1839	0.84466	155.33722	145.41534	58.75255	0.32196	 	7.66375E12	 	5.17864E-13	 	19964.815	30.7562	 
535.0	1.0	0.0	7.72089	7.20604	-8.88181	19.17593	22.30897	1.1804	0.84717	155.70781	145.59081	58.90206	0.32175	 	9.77592E12	 	4.03479E-13	 	19811.105	30.742	 
530.0	1.0	0.0	7.72322	7.20386	-8.9093	19.16077	22.23727	1.17688	0.8497	156.07793	145.76544	59.05144	0.32154	 	1.25081E13	 	3.13395E-13	 	19657.449	30.7312	 
525.0	1.0	0.0	7.72555	7.20169	-8.93675	19.14563	22.16554	1.17334	0.85227	156.44758	145.93922	59.20069	0.32133	 	1.60534E13	 	2.42664E-13	 	19503.828	30.7242	 
520.0	1.0	0.0	7.72788	7.19952	-8.96416	19.13051	22.09377	1.16978	0.85486	156.81676	146.11215	59.3498	0.32112	 	2.06685E13	 	1.87298E-13	 	19349.07	30.9516	 
515.0	1.0	0.0	7.7302	7.19736	-8.99153	19.11541	22.02198	1.16619	0.85749	157.18548	146.28425	59.49879	0.32091	 	2.66958E13	 	1.44096E-13	 	19194.47	30.92	 
510.0	1.0	0.0	7.73252	7.1952	-9.01885	19.10033	21.95016	1.16259	0.86015	157.55372	146.4555	59.64765	0.3207	 	3.45938E13	 	1.10493E-13	 	19040.276	30.8388	 
505.0	1.0	0.0	7.73484	7.19304	-9.04614	19.08527	21.87831	1.15896	0.86284	157.92149	146.62592	59.79637	0.32049	 	4.49779E13	 	8.44405E-14	 	18886.479	30.7594	 
500.0	1.0	0.0	7.73716	7.19089	-9.07337	19.07023	21.80643	1.15531	0.86557	158.28879	146.7955	59.94497	0.32028	 	5.86781E13	 	6.43094E-14	 	18733.072	30.6814	 
495.0	1.0	0.0	7.73948	7.18874	-9.10057	19.05521	21.73451	1.15163	0.86833	158.65561	146.96425	60.09343	0.32007	 	7.68169E13	 	4.88063E-14	 	18580.046	30.6052	 
490.0	1.0	0.0	7.74179	7.18659	-9.12772	19.04021	21.66257	1.14794	0.87113	159.02196	147.13216	60.24175	0.31986	 	1.00918E14	 	3.69085E-14	 	18427.396	30.53	 
485.0	1.0	0.0	7.7441	7.18445	-9.15484	19.02523	21.59059	1.14422	0.87396	159.38783	147.29924	60.38995	0.31966	 	1.3305999999999998E14	 	2.78095E-14	 	18275.114	30.4564	 
480.0	1.0	0.0	7.74641	7.1823	-9.18191	19.01027	21.51858	1.14047	0.87683	159.75322	147.4655	60.53801	0.31945	 	1.76084E14	 	2.0876E-14	 	18123.194	30.384	 
475.0	1.0	0.0	7.74871	7.18017	-9.20893	18.99533	21.44654	1.13671	0.87973	160.11814	147.63093	60.68593	0.31924	 	2.33894E14	 	1.56119E-14	 	17971.631	30.3126	 
470.0	1.0	0.0	7.75102	7.17803	-9.23592	18.98041	21.37447	1.13292	0.88268	160.48257	147.79553	60.83372	0.31903	 	3.11874E14	 	1.16301E-14	 	17820.419	30.2424	 
465.0	1.0	0.0	7.75332	7.1759	-9.26286	18.96551	21.30237	1.12911	0.88566	160.84653	147.95931	60.98138	0.31882	 	4.17476E14	 	8.62979E-15	 	17669.553	30.1732	 
460.0	1.0	0.0	7.75562	7.17377	-9.28976	18.95063	21.23023	1.12527	0.88868	161.21	148.12227	61.1289	0.31861	 	5.6106299999999994E14	 	6.37776E-15	 	17519.027	30.1052	 
455.0	1.0	0.0	7.75791	7.17165	-9.31662	18.93577	21.15806	1.12141	0.89174	161.57299	148.28442	61.27628	0.3184	 	7.57104E14	 	4.6941E-15	 	17368.839	30.0376	 
450.0	1.0	0.0	7.76021	7.16953	-9.34344	18.92093	21.08586	1.11752	0.89484	161.9355	148.44574	61.42353	0.31819	 	1.02589E15	 	3.44045E-15	 	17218.982	29.9714	 
445.0	1.0	0.0	7.7625	7.16741	-9.37022	18.90611	21.01362	1.11361	0.89798	162.29752	148.60625	61.57064	0.31798	 	1.39599E15	 	2.51085E-15	 	17069.454	29.9056	 
440.0	1.0	0.0	7.76479	7.1653	-9.39695	18.89131	20.94135	1.10967	0.90117	162.65905	148.76594	61.71761	0.31777	 	1.90783E15	 	1.82443E-15	 	16920.25	29.8408	 
435.0	1.0	0.0	7.76708	7.16319	-9.42365	18.87653	20.86905	1.10571	0.9044	163.0201	148.92483	61.86445	0.31756	 	2.61887E15	 	1.31977E-15	 	16771.367	29.7766	 
430.0	1.0	0.0	7.76937	7.16108	-9.4503	18.86176	20.79671	1.10172	0.90767	163.38066	149.0829	62.01114	0.31735	 	3.61115E15	 	9.50363E-16	 	16622.801	29.7132	 
425.0	1.0	0.0	7.77165	7.15897	-9.47691	18.84702	20.72434	1.09771	0.91099	163.74073	149.24017	62.1577	0.31714	 	5.00237E15	 	6.81177E-16	 	16474.549	29.6504	 
420.0	1.0	0.0	7.77393	7.15687	-9.50348	18.8323	20.65193	1.09366	0.91436	164.10032	149.39663	62.30412	0.31693	 	6.96222E15	 	4.85921E-16	 	16326.609	29.588	 
415.0	1.0	0.0	7.77621	7.15478	-9.53001	18.8176	20.57949	1.0896	0.91777	164.45941	149.55229	62.4504	0.31672	 	9.7366E15	 	3.44955E-16	 	16178.977	29.5264	 
410.0	1.0	0.0	7.77849	7.15268	-9.5565	18.80292	20.50701	1.0855	0.92123	164.81801	149.70714	62.59653	0.31651	 	1.36836E16	 	2.43671E-16	 	16031.651	29.4652	 
405.0	1.0	0.0	7.78077	7.15059	-9.58294	18.78826	20.43449	1.08138	0.92474	165.17611	149.8612	62.74253	0.3163	 	1.93273E16	 	1.71254E-16	 	15884.628	29.4046	 
400.0	1.0	0.0	7.78304	7.1485	-9.60935	18.77362	20.36194	1.07724	0.9283	165.53372	150.01446	62.88839	0.31609	 	2.74391E16	 	1.19737E-16	 	15737.906	29.3444	 
395.0	1.0	0.0	7.78531	7.14642	-9.63571	18.759	20.28935	1.07306	0.93192	165.89084	150.16692	63.0341	0.31588	 	3.91605E16	 	8.32745E-17	 	15591.483	29.2846	 
390.0	1.0	0.0	7.78758	7.14433	-9.66204	18.74439	20.21672	1.06886	0.93558	166.24746	150.31858	63.17967	0.31567	 	5.61897E16	 	5.76026E-17	 	15445.356	29.2254	 
385.0	1.0	0.0	7.78984	7.14226	-9.68832	18.72981	20.14405	1.06462	0.9393	166.60359	150.46945	63.3251	0.31546	 	8.10676E16	 	3.96245E-17	 	15299.524	29.1664	 
380.0	1.0	0.0	7.79211	7.14018	-9.71456	18.71525	20.07135	1.06036	0.94307	166.95922	150.61954	63.47039	0.31525	 	1.17619E17	 	2.71034E-17	 	15153.984	29.108	 
375.0	1.0	0.0	7.79437	7.13811	-9.74076	18.70071	19.99861	1.05607	0.94691	167.31435	150.76883	63.61553	0.31504	 	1.71632E17	 	1.84316E-17	 	15008.736	29.0496	 
370.0	1.0	0.0	7.79663	7.13604	-9.76693	18.68619	19.92583	1.05175	0.95079	167.66898	150.91734	63.76054	0.31483	 	2.51926E17	 	1.24602E-17	 	14863.777	28.9918	 
365.0	1.0	0.0	7.79889	7.13397	-9.79305	18.67168	19.85301	1.0474	0.95474	168.02311	151.06506	63.90539	0.31462	 	3.72015E17	 	8.37239E-18	 	14719.106	28.9342	 
360.0	1.0	0.0	7.80114	7.13191	-9.81913	18.6572	19.78014	1.04303	0.95875	168.37674	151.212	64.0501	0.31441	 	5.5274E17	 	5.59078E-18	 	14574.722	28.8768	 
355.0	1.0	0.0	7.8034	7.12985	-9.84517	18.64274	19.70724	1.03862	0.96282	168.72987	151.35815	64.19467	0.3142	 	8.26456E17	 	3.70963E-18	 	14430.623	28.8198	 
350.0	1.0	0.0	7.80565	7.12779	-9.87117	18.6283	19.6343	1.03418	0.96695	169.0825	151.50353	64.33909	0.31399	 	1.24372E18	 	2.44544E-18	 	14286.807	28.7632	 
345.0	1.0	0.0	7.8079	7.12574	-9.89713	18.61387	19.56131	1.02971	0.97115	169.43462	151.64813	64.48337	0.31379	 	1.88407E18	 	1.60134E-18	 	14143.275	28.7064	 
340.0	1.0	0.0	7.81014	7.12369	-9.92305	18.59947	19.48828	1.02521	0.97541	169.78624	151.79195	64.6275	0.31358	 	2.87351E18	 	1.04145E-18	 	14000.025	28.65	 
335.0	1.0	0.0	7.81239	7.12164	-9.94893	18.58509	19.41521	1.02067	0.97975	170.13735	151.93501	64.77149	0.31337	 	4.4131E18	 	6.72595E-19	 	13857.055	28.594	 
330.0	1.0	0.0	7.81463	7.1196	-9.97477	18.57073	19.3421	1.01611	0.98415	170.48796	152.07729	64.91533	0.31316	 	6.82597E18	 	4.31268E-19	 	13714.365	28.538	 
325.0	1.0	0.0	7.81687	7.11756	-10.00057	18.55638	19.26894	1.01151	0.98862	170.83806	152.2188	65.05902	0.31295	 	1.06354E19	 	2.74502E-19	 	13571.954	28.4822	 
320.0	1.0	0.0	7.81911	7.11552	-10.02633	18.54206	19.19574	1.00688	0.99317	171.18766	152.35954	65.20256	0.31274	 	1.6695E19	 	1.73406E-19	 	13429.822	28.4264	 
315.0	1.0	0.0	7.82135	7.11349	-10.05206	18.52776	19.12249	1.00222	0.99779	171.53674	152.49951	65.34596	0.31253	 	2.64089E19	 	1.08699E-19	 	13287.967	28.371	 
310.0	1.0	0.0	7.82358	7.11146	-10.07774	18.51347	19.04919	0.99752	1.00249	171.88532	152.63873	65.48921	0.31232	 	4.21048E19	 	6.75983E-20	 	13146.39	28.3154	 
305.0	1.0	0.0	7.82581	7.10943	-10.10338	18.49921	18.97585	0.99279	1.00726	172.23339	152.77718	65.63231	0.31211	 	6.7673E19	 	4.16977E-20	 	13005.089	28.2602	 
300.0	1.0	0.0	7.82804	7.10741	-10.12899	18.48497	18.90246	0.98802	1.01212	172.58096	152.91487	65.77526	0.3119	 	1.0967199999999998E20	 	2.5507E-20	 	12864.064	28.205	 
295.0	1.0	0.0	7.83027	7.10538	-10.15455	18.47074	18.82903	0.98322	1.01706	172.92801	153.0518	65.91807	0.31169	 	1.79253E20	 	1.54698E-20	 	12723.316	28.1496	 
290.0	1.0	0.0	7.83249	7.10336	-10.18008	18.45654	18.75554	0.97839	1.02209	173.27455	153.18798	66.06072	0.31148	 	2.9554699999999997E20	 	9.30004E-21	 	12582.842	28.0948	 
285.0	1.0	0.0	7.83472	7.10135	-10.20556	18.44236	18.682	0.97352	1.0272	173.62058	153.32341	66.20323	0.31127	 	4.9167299999999997E20	 	5.54065E-21	 	12442.644	28.0396	 
280.0	1.0	0.0	7.83694	7.09934	-10.23101	18.42819	18.60842	0.96862	1.0324	173.96609	153.45808	66.34558	0.31106	 	8.25513E20	 	3.27044E-21	 	12302.722	27.9844	 
275.0	1.0	0.0	7.83916	7.09733	-10.25642	18.41405	18.53478	0.96367	1.0377	174.3111	153.592	66.48779	0.31085	 	1.39919E21	 	1.91209E-21	 	12163.074	27.9296	 
270.0	1.0	0.0	7.84137	7.09532	-10.28179	18.39992	18.46109	0.95869	1.04309	174.65559	153.72518	66.62984	0.31064	 	2.39469E21	 	1.10703E-21	 	12023.701	27.8746	 
265.0	1.0	0.0	7.84359	7.09332	-10.30712	18.38582	18.38734	0.95368	1.04857	174.99957	153.85761	66.77175	0.31043	 	4.13959E21	 	6.34501E-22	 	11884.604	27.8194	 
260.0	1.0	0.0	7.8458	7.09132	-10.33241	18.37174	18.31355	0.94863	1.05416	175.34304	153.9893	66.9135	0.31022	 	7.22978E21	 	3.59924E-22	 	11745.782	27.7644	 
255.0	1.0	0.0	7.84801	7.08932	-10.35766	18.35767	18.23969	0.94353	1.05985	175.68599	154.12025	67.05511	0.31001	 	1.2760799999999999E22	 	2.02007E-22	 	11607.235	27.7094	 
250.0	1.0	0.0	7.85022	7.08733	-10.38288	18.34363	18.16578	0.9384	1.06564	176.02843	154.25046	67.19656	0.3098	 	2.2769199999999996E22	 	1.12141E-22	 	11468.964	27.6542	 
245.0	1.0	0.0	7.85242	7.08534	-10.40805	18.3296	18.09182	0.93324	1.07154	176.37036	154.37993	67.33787	0.30959	 	4.108379999999999E22	 	6.15562E-23	 	11330.969	27.599	 
240.0	1.0	0.0	7.85463	7.08335	-10.43319	18.3156	18.01779	0.92803	1.07756	176.71177	154.50867	67.47902	0.30938	 	7.498739999999999E22	 	3.33997E-23	 	11193.251	27.5436	 
235.0	1.0	0.0	7.85683	7.08136	-10.45829	18.30162	17.94371	0.92278	1.08368	177.05267	154.63668	67.62002	0.30917	 	1.3849999999999999E23	 	1.79073E-23	 	11055.81	27.4882	 
230.0	1.0	0.0	7.85903	7.07938	-10.48335	18.28765	17.86956	0.91749	1.08993	177.39305	154.76396	67.76087	0.30896	 	2.5894399999999997E23	 	9.48371E-24	 	10918.646	27.4328	 
225.0	1.0	0.0	7.86123	7.0774	-10.50838	18.27371	17.79535	0.91216	1.0963	177.73292	154.89051	67.90157	0.30875	 	4.90251E23	 	4.9594E-24	 	10781.761	27.377	 
220.0	1.0	0.0	7.86342	7.07543	-10.53336	18.25978	17.72108	0.90679	1.10279	178.07228	155.01634	68.04211	0.30854	 	9.40268E23	 	2.55985E-24	 	10645.155	27.3212	 
215.0	1.0	0.0	7.86561	7.07345	-10.55831	18.24588	17.64674	0.90138	1.10941	178.41112	155.14144	68.18251	0.30833	 	1.82759E24	 	1.30365E-24	 	10508.83	27.265	 
210.0	1.0	0.0	7.86781	7.07148	-10.58322	18.23199	17.57234	0.89592	1.11617	178.74945	155.26583	68.32275	0.30813	 	3.60148E24	 	6.54769E-25	 	10372.785	27.209	 
205.0	1.0	0.0	7.87	7.06952	-10.60809	18.21813	17.49787	0.89042	1.12306	179.08726	155.3895	68.46284	0.30792	 	7.19853E24	 	3.24196E-25	 	10237.022	27.1526	 
200.0	1.0	0.0	7.87218	7.06755	-10.63292	18.20428	17.42333	0.88488	1.13009	179.42456	155.51245	68.60278	0.30771	 	1.4600300000000001E25	 	1.58169E-25	 	10101.543	27.0958	 
195.0	1.0	0.0	7.87437	7.06559	-10.65772	18.19046	17.34873	0.8793	1.13727	179.76135	155.6347	68.74257	0.3075	 	3.0063700000000003E25	 	7.60026E-26	 	9966.348	27.039	 
190.0	1.0	0.0	7.87655	7.06363	-10.68248	18.17665	17.27404	0.87367	1.1446	180.09762	155.75623	68.88221	0.30729	 	6.2877600000000004E25	 	3.59511E-26	 	9831.44	26.9816	 
185.0	1.0	0.0	7.87873	7.06168	-10.7072	18.16287	17.19929	0.86799	1.15209	180.43339	155.87706	69.0217	0.30708	 	1.3364200000000001E26	 	1.67321E-26	 	9696.819	26.9242	 
180.0	1.0	0.0	7.88091	7.05973	-10.73188	18.1491	17.12446	0.86227	1.15973	180.76864	155.99719	69.16104	0.30687	 	2.8881300000000003E26	 	7.65795E-27	 	9562.486	26.8666	 
175.0	1.0	0.0	7.88309	7.05778	-10.75653	18.13535	17.04955	0.8565	1.16754	181.10338	156.11661	69.30022	0.30666	 	6.349770000000001E26	 	3.44471E-27	 	9428.445	26.8082	 
170.0	1.0	0.0	7.88526	7.05583	-10.78114	18.12163	16.97456	0.85069	1.17552	181.43761	156.23534	69.43926	0.30645	 	1.42108E27	 	1.52201E-27	 	9294.697	26.7496	 
165.0	1.0	0.0	7.88743	7.05389	-10.80571	18.10792	16.89949	0.84483	1.18368	181.77134	156.35338	69.57814	0.30624	 	3.23942E27	 	6.6015E-28	 	9161.243	26.6908	 
160.0	1.0	0.0	7.8896	7.05195	-10.83024	18.09424	16.82434	0.83892	1.19202	182.10455	156.47072	69.71688	0.30603	 	7.526189999999999E27	 	2.80899E-28	 	9028.086	26.6314	 
155.0	1.0	0.0	7.89177	7.05001	-10.85474	18.08057	16.7491	0.83296	1.20054	182.43726	156.58738	69.85547	0.30582	 	1.7833400000000002E28	 	1.17178E-28	 	8895.229	26.5714	 
150.0	1.0	0.0	7.89394	7.04807	-10.8792	18.06692	16.67377	0.82695	1.20927	182.76947	156.70335	69.9939	0.30561	 	4.312690000000001E28	 	4.78886E-29	 	8762.673	26.5112	 
145.0	1.0	0.0	7.8961	7.04614	-10.90363	18.0533	16.59836	0.82089	1.21819	183.10117	156.81864	70.13219	0.3054	 	1.06521E29	 	1.91595E-29	 	8630.422	26.4502	 
140.0	1.0	0.0	7.89826	7.04421	-10.92801	18.03969	16.52285	0.81478	1.22732	183.43237	156.93326	70.27033	0.30519	 	2.6892100000000003E29	 	7.49843E-30	 	8498.479	26.3886	 
135.0	1.0	0.0	7.90042	7.04229	-10.95236	18.02611	16.44724	0.80862	1.23667	183.76307	157.0472	70.40833	0.30498	 	6.94493E29	 	2.86839E-30	 	8366.845	26.3268	 
130.0	1.0	0.0	7.90258	7.04037	-10.97668	18.01254	16.37153	0.80241	1.24625	184.09327	157.16047	70.54618	0.30477	 	1.83625E30	 	1.07157E-30	 	8235.526	26.2638	 
125.0	1.0	0.0	7.90474	7.03845	-11.00095	17.99899	16.29573	0.79614	1.25606	184.42298	157.27308	70.68388	0.30456	 	4.97512E30	 	3.90598E-31	 	8104.523	26.2006	 
120.0	1.0	0.0	7.90689	7.03653	-11.02519	17.98547	16.21981	0.78982	1.26611	184.75219	157.38502	70.82144	0.30435	 	1.3825599999999998E31	 	1.38791E-31	 	7973.841	26.1364	 
115.0	1.0	0.0	7.90904	7.03461	-11.0494	17.97196	16.1438	0.78345	1.2764	185.08091	157.49631	70.95885	0.30414	 	3.94458E31	 	4.8027E-32	 	7843.484	26.0714	 
110.0	1.0	0.0	7.91119	7.0327	-11.07357	17.95847	16.06766	0.77702	1.28696	185.40915	157.60695	71.09612	0.30393	 	1.1566499999999999E32	 	1.6168E-32	 	7713.456	26.0056	 
105.0	1.0	0.0	7.91334	7.0308	-11.0977	17.94501	15.99142	0.77054	1.29779	185.7369	157.71693	71.23325	0.30372	 	3.48944E32	 	5.28927E-33	 	7583.761	25.939	 
100.0	1.0	0.0	7.91548	7.02889	-11.12179	17.93156	15.91505	0.764	1.3089	186.06416	157.82628	71.37023	0.30351	 	1.08433E33	 	1.67961E-33	 	7454.404	25.8714	 
95.0	1.0	0.0	7.91763	7.02699	-11.14585	17.91813	15.83857	0.7574	1.3203	186.39095	157.93499	71.50708	0.3033	 	3.47491E33	 	5.17092E-34	 	7325.391	25.8026	 
90.0	1.0	0.0	7.91977	7.02509	-11.16988	17.90473	15.76195	0.75075	1.33201	186.71726	158.04306	71.64379	0.30309	 	1.1498800000000001E34	 	1.54142E-34	 	7196.726	25.733	 
85.0	1.0	0.0	7.92191	7.02319	-11.19386	17.89134	15.68521	0.74403	1.34403	187.04311	158.15051	71.78036	0.30288	 	3.93435E34	 	4.44302E-35	 	7068.415	25.6622	 
80.0	1.0	0.0	7.92404	7.0213	-11.21782	17.87797	15.60833	0.73726	1.35637	187.36848	158.25733	71.9168	0.30268	 	1.39387E35	 	1.23659E-35	 	6940.465	25.59	 
75.0	1.0	0.0	7.92618	7.0194	-11.24173	17.86462	15.53131	0.73043	1.36906	187.6934	158.36354	72.05311	0.30247	 	5.1209099999999995E35	 	3.31822E-36	 	6812.882	25.5166	 
70.0	1.0	0.0	7.92831	7.01752	-11.26561	17.8513	15.45414	0.72353	1.38211	188.01786	158.46914	72.18928	0.30226	 	1.9540799999999998E36	 	8.57093E-37	 	6685.673	25.4418	 
65.0	1.0	0.0	7.93044	7.01563	-11.28946	17.83799	15.37682	0.71657	1.39553	188.34187	158.57414	72.32532	0.30205	 	7.75778E36	 	2.12745E-37	 	6558.845	25.3656	 
60.0	1.0	0.0	7.93257	7.01375	-11.31327	17.8247	15.29934	0.70955	1.40934	188.66543	158.67854	72.46124	0.30184	 	3.2100099999999997E37	 	5.06548E-38	 	6432.406	25.2878	 
55.0	1.0	0.0	7.9347	7.01187	-11.33704	17.81143	15.2217	0.70247	1.42355	188.98855	158.78235	72.59703	0.30163	 	1.38698E38	 	1.15475E-38	 	6306.366	25.208	 
50.0	1.0	0.0	7.93682	7.00999	-11.36078	17.79819	15.14389	0.69532	1.43819	189.31125	158.88558	72.7327	0.30142	 	6.27049E38	 	2.5153E-39	 	6180.732	25.1268	 
45.0	1.0	0.0	7.93895	7.00812	-11.38448	17.78496	15.0659	0.6881	1.45327	189.63352	158.98824	72.86826	0.30121	 	2.97254E39	 	5.22385E-40	 	6055.514	25.0436	 
40.0	1.0	0.0	7.94107	7.00624	-11.40815	17.77175	14.98773	0.68082	1.46881	189.95537	159.09033	73.00369	0.301	 	1.48094E40	 	1.03206E-40	 	5930.724	24.958	 
35.0	1.0	0.0	7.94319	7.00437	-11.43178	17.75856	14.90936	0.67347	1.48484	190.27682	159.19187	73.13901	0.30079	 	7.77278E40	 	1.93496E-41	 	5806.371	24.8706	 
30.0	1.0	0.0	7.9453	7.00251	-11.45538	17.74539	14.83079	0.66606	1.50137	190.59787	159.29287	73.27423	0.30058	 	4.30892E41	 	3.4338E-42	 	5682.468	24.7806	 
25.0	1.0	0.0	7.94742	7.00064	-11.47894	 	14.75201	0.65857	1.51844	190.91853	159.39333	73.40934	0.30037	 	2.5299299999999997E42	 	5.75193E-43	 	5559.028	 	 
