T (C)	Fraction solid (wt)-TOTAL	Fraction liquid (wt)-LIQUID	Density (g/(cm)^3)-TOTAL	Molar volume (cm^3)-TOTAL	Volume change (%)-  	Average expansion coeff. (10e-6 1/K)-  	Thermal conductivity (W/(m*K))-TOTAL	Electrical resistivity (10e-6 Ohm*m)-TOTAL	Electrical conductivity (10e6 1/(Ohm*m))-TOTAL	Young's modulus (GPa)-TOTAL	Bulk modulus (GPa)-TOTAL	Shear modulus(GPa)-TOTAL	Poisson's ratio-TOTAL	Liquid viscosity (mPa s)-  	Total viscosity (mPa s)-  	Liquid diffusivity (10e-9 (m^2)/s)-  	Total diffusivity (10e-9 (m^2)/s)-  	Surface Tension (mN/m)-  	Enthalpy (J/mole)-TOTAL	Specific heat (J/(mole K))-TOTAL	Latent heat (J/mole)-TOTAL
1500.0	0.0	1.0	7.06619	7.88596	0.0	27.84495	30.80978	1.87532	0.53324	0.0	108.74794	0.0	0.49974	6.95429	6.95429	1.24446	1.24446	1770.46753	65433.905	 	0.0
1495.0	0.0	1.0	7.07011	7.88159	-0.0554393	27.79846	30.73248	1.87473	0.53341	0.0	108.93349	0.0	0.49974	7.01617	7.01617	1.23	1.23	1772.27005	65212.972	44.1866	0.0
1490.0	0.0	1.0	7.07402	7.87723	-0.11072	27.75204	30.65517	1.87415	0.53358	0.0	109.11905	0.0	0.49974	7.07896	7.07896	1.21564	1.21564	1774.0699	64992.518	44.0908	0.0
1485.0	0.0	1.0	7.07793	7.87288	-0.16585	27.70571	30.57786	1.87356	0.53374	0.0	109.3046	0.0	0.49974	7.14267	7.14267	1.20138	1.20138	1775.86703	64772.539	43.9958	0.0
1480.0	0.0	1.0	7.08183	7.86855	-0.22083	27.65946	30.50056	1.87296	0.53391	0.0	109.49015	0.0	0.49974	7.20732	7.20732	1.18722	1.18722	1777.66142	64553.032	43.9014	0.0
1475.0	0.0	1.0	7.08572	7.86422	-0.27564	27.61329	30.42325	1.87237	0.53408	0.0	109.67571	0.0	0.49974	7.27293	7.27293	1.17316	1.17316	1779.45303	64333.995	43.8074	0.0
1470.0	0.0	1.0	7.08961	7.85991	-0.33031	27.5672	30.34594	1.87177	0.53425	0.0	109.86126	0.0	0.49974	7.33952	7.33952	1.15919	1.15919	1781.24185	64115.424	43.7142	0.0
1465.0	0.0	1.0	7.09349	7.85561	-0.38482	27.5212	30.26863	1.87117	0.53443	0.0	110.04682	0.0	0.49974	7.40711	7.40711	1.14532	1.14532	1783.02782	63897.317	43.6214	0.0
1460.0	0.0	1.0	7.09736	7.85133	-0.43917	27.47528	30.19133	1.87056	0.5346	0.0	110.23237	0.0	0.49974	7.47572	7.47572	1.13154	1.13154	1784.81094	63679.669	43.5296	0.0
1455.0	0.0	1.0	7.10123	7.84705	-0.49337	27.42945	30.11402	1.86995	0.53477	0.0	110.41793	0.0	0.49974	7.54536	7.54536	1.11786	1.11786	1786.59115	63462.479	43.438	0.0
1450.0	0.0	1.0	7.10508	7.84279	-0.54741	27.3837	30.03671	1.86934	0.53495	0.0	110.60348	0.0	0.49974	7.61607	7.61607	1.10428	1.10428	1788.36842	63245.78	43.3398	0.0
1445.0	0.0	1.0	7.10894	7.83854	-0.6013	27.33804	29.95941	1.86873	0.53512	0.0	110.78903	0.0	0.49974	7.68785	7.68785	1.09079	1.09079	1790.14273	63029.632	43.2296	0.0
1440.0	0.0	1.0	7.11278	7.8343	-0.65503	27.29246	29.8821	1.86811	0.5353	0.0	110.97459	0.0	0.49974	7.76073	7.76073	1.07741	1.07741	1791.91404	62814.024	43.1216	0.0
1435.0	0.0	1.0	7.11662	7.83008	-0.70861	27.24698	29.80479	1.86749	0.53548	0.0	111.16014	0.0	0.49974	7.83474	7.83474	1.06411	1.06411	1793.68231	62598.952	43.0144	0.0
1430.0	0.0	1.0	7.12045	7.82587	-0.76203	27.20158	29.72749	1.86686	0.53566	0.0	111.3457	0.0	0.49974	7.9099	7.9099	1.05092	1.05092	1795.44751	62384.413	42.9078	0.0
1425.0	0.0	1.0	7.12427	7.82167	-0.8153	27.15628	29.65018	1.86624	0.53584	0.0	111.53125	0.0	0.49974	7.98622	7.98622	1.03782	1.03782	1797.2096	62170.404	42.8018	0.0
1420.0	0.0	1.0	7.12809	7.81748	-0.86841	27.11106	29.57287	1.8656	0.53602	0.0	111.71681	0.0	0.49974	8.06374	8.06374	1.02482	1.02482	1798.96855	61956.92	42.6968	0.0
1418.64	0.0	1.0	7.12913	7.81634	-0.88282	27.09879	29.55185	1.86543	0.53607	0.0	111.76726	0.0	0.49974	8.08502	8.08502	1.0213	1.0213	1799.44623	61898.966	42.6314	0.0020
1415.0	0.14834	0.85166	7.15263	7.79076	-1.20722	26.29597	29.80271	1.84575	0.54178	0.0384888	110.71919	0.0130068	0.47956	8.14721	15.29807	1.01132	0.53859	1797.96324	60054.043	506.766	1689.911
1411.47	0.2643	0.7357	7.17136	7.7703	-1.46668	25.66236	29.99673	1.82997	0.54646	0.39326	109.93256	0.13435	0.4636	8.20778	68.20359	1.00176	0.12055	1796.60303	58590.11	 	3003.648
1410.0	0.32107	0.67893	7.18078	7.7601	-1.59598	25.33999	30.1708	1.81783	0.55011	0.66157	109.00771	0.22726	0.45553	8.22556	132.91139	0.99872	0.0618084	1795.655	57943.355	422.138	3588.158
1405.0	0.48079	0.51921	7.20775	7.73105	-1.96438	24.4323	30.66372	1.7833	0.56076	2.25744	106.56616	0.78786	0.43264	8.28559	617.32113	0.98854	0.013268	1792.65003	56090.736	370.524	5228.849
1400.0	0.59095	0.40905	7.22725	7.71019	-2.22892	23.80081	30.99932	1.75873	0.56859	4.7851	105.05948	1.68885	0.41667	8.34543	1438.75622	0.97853	0.0056759	1789.90409	54754.695	267.208	6353.472
1395.0	0.66974	0.33026	7.242	7.6945	-2.42793	23.34382	31.22337	1.7409	0.57442	8.29626	104.12792	2.95213	0.40513	8.40522	2474.39928	0.96866	0.00329043	1787.38939	53745.144	201.91	7152.116
1390.0	0.72787	0.27213	7.25365	7.68214	-2.58456	22.9997	31.37443	1.72732	0.57893	12.82024	103.56534	4.59006	0.39652	8.46501	3625.82555	0.95894	0.00223878	1785.08202	52950.349	158.959	7736.506
1385.0	0.7719	0.2281	7.26315	7.67212	-2.71171	22.7342	31.47482	1.71664	0.58253	18.19915	103.24886	6.5468	0.38993	8.52531	4834.6112	0.94929	0.00167397	1782.95574	52301.893	129.691	8175.059
1380.0	0.80598	0.19402	7.27115	7.6637	-2.81845	22.52316	31.53885	1.70799	0.58549	24.09836	103.10067	8.7013	0.38476	8.58606	6070.97752	0.93973	0.00132905	1780.99072	51756.274	109.124	8511.272
1375.0	0.83288	0.16712	7.27805	7.65644	-2.91049	22.35134	31.57622	1.7008	0.58796	30.13198	103.07108	10.91249	0.38062	8.64738	7323.89329	0.93025	0.00109835	1779.16813	51284.899	94.275	8773.737
1370.0	0.85446	0.14554	7.28416	7.65006	-2.99137	22.20926	31.59356	1.69471	0.59007	35.9724	103.12744	13.05949	0.37725	8.70923	8590.77443	0.92084	9.33537E-4	1777.47016	50868.407	83.2984	8981.811
1365.0	0.87204	0.12796	7.28964	7.64434	-3.06398	22.08928	31.59557	1.68945	0.59191	41.41569	103.24665	15.06613	0.37446	8.77207	9875.74101	0.91146	8.096E-4	1775.88336	50493.341	75.0132	9148.948
1360.0	0.88653	0.11347	7.29466	7.63911	-3.13026	21.98613	31.5856	1.68482	0.59353	46.35899	103.4131	16.89316	0.37212	8.83546	11184.67575	0.90216	7.12671E-4	1774.39619	50150.127	68.6428	9284.718
1355.0	0.8986	0.1014	7.2993	7.6343	-3.19124	21.89711	31.56631	1.68069	0.59499	50.78289	103.61557	18.53207	0.37014	8.89982	12525.16635	0.89289	6.3445E-4	1772.99407	49831.808	63.6638	9396.076
1351.86	0.90545	0.0945504	7.30217	7.63133	-3.22896	21.84253	31.55113	1.67826	0.59586	53.40576	103.75525	19.50551	0.36899	8.94044	13403.91392	0.88712	5.91712E-4	1772.14626	49639.838	 	9458.186
1350.0	0.91101	0.0889851	7.30456	7.62885	-3.26035	21.78444	31.54953	1.67642	0.59651	55.58712	103.81635	20.31565	0.36809	8.97358	14039.16096	0.88284	5.64292E-4	1772.16039	49508.036	64.7544	9513.369
1345.0	0.92398	0.0760192	7.31046	7.62275	-3.33776	21.64741	31.53683	1.67193	0.59811	60.82297	104.01217	22.26411	0.36594	9.06347	15761.51833	0.87139	5.0108E-4	1772.2109	49175.221	66.563	9640.179
1340.0	0.93431	0.0656926	7.3157	7.61735	-3.40621	21.53483	31.51318	1.66802	0.59951	65.14434	104.24506	23.87662	0.36419	9.15433	17493.89669	0.86007	4.50065E-4	1772.27215	48871.221	60.8	9738.645
1335.0	0.94264	0.0573553	7.32042	7.61248	-3.46793	21.44062	31.48119	1.66454	0.60077	68.7375	104.50499	25.2206	0.36273	9.24593	19254.46064	0.84891	4.07645E-4	1772.34482	48588.883	56.4676	9815.923
1330.0	0.94945	0.0505452	7.32475	7.60804	-3.5243	21.36105	31.44277	1.66139	0.60191	71.75765	104.78512	26.3526	0.36149	9.33909	21060.1743	0.83783	3.71534E-4	1772.42305	48323.129	53.1508	9877.084
1325.0	0.95507	0.0449275	7.32877	7.60391	-3.57663	21.29249	31.3993	1.6585	0.60295	74.32714	105.08031	27.31744	0.36043	9.43349	22926.64774	0.82686	3.40223E-4	1772.51063	48070.282	50.5694	9925.803
1320.0	0.95989	0.040111	7.3326	7.59999	-3.62634	21.23098	31.35232	1.65579	0.60394	76.59412	105.38625	28.17005	0.3595	9.52964	24883.36258	0.81596	3.12489E-4	1772.60181	47826.511	48.7542	9965.909
1315.0	0.9641	0.0358984	7.3363	7.5962	-3.67438	21.17384	31.30262	1.65321	0.60488	78.6372	105.70017	28.93954	0.35865	9.62671	26949.49384	0.80519	2.87626E-4	1772.70211	47589.752	47.3518	9999.462
1310.0	0.96782	0.0321787	7.33991	7.59253	-3.72098	21.12044	31.25067	1.65075	0.60579	80.49702	106.02053	29.64092	0.35787	9.7256	29138.81511	0.7945	2.65178E-4	1772.80615	47358.804	46.1896	10027.661
1305.0	0.97113	0.0288686	7.34343	7.58894	-3.7665	21.0698	31.19685	1.64837	0.60666	82.20644	106.34599	30.28634	0.35715	9.8255	31465.10022	0.78394	2.44797E-4	1772.91813	47132.737	45.2134	10051.433
1300.0	0.9741	0.0259021	7.34689	7.58543	-3.81099	21.02178	31.14149	1.64607	0.60751	83.79017	106.67556	30.88494	0.35649	9.92738	33942.51692	0.77343	2.26211E-4	1773.02941	46910.817	44.384	10071.508
1295.0	0.97677	0.0232269	7.3503	7.58198	-3.85468	20.97576	31.08478	1.64383	0.60833	85.26806	107.00847	31.4441	0.35587	10.03125	36586.1374	0.76299	2.09198E-4	1773.14166	46692.461	43.6712	10088.469
1290.0	0.9792	0.0208006	7.35366	7.57858	-3.8978	20.93105	31.02695	1.64165	0.60915	86.65707	107.34389	31.97013	0.35528	10.13622	39411.51092	0.75268	1.93582E-4	1773.26231	46477.198	43.0526	10102.782
1285.0	0.98141	0.0185882	7.35699	7.57523	-3.94034	20.88767	30.96812	1.6395	0.60994	87.96897	107.68151	32.46739	0.35473	10.24322	42435.43191	0.74244	1.79212E-4	1773.38386	46264.642	42.5112	10114.831
1280.0	0.98344	0.0165629	7.36028	7.57191	-3.98242	20.84536	30.90841	1.6374	0.61072	89.21511	108.02091	32.9401	0.3542	10.35194	45676.16166	0.73228	1.65963E-4	1773.5066	46054.477	42.033	10124.93
1275.0	0.9853	0.014699	7.36356	7.56862	-4.02412	20.80385	30.84798	1.63532	0.6115	90.40443	108.36163	33.39161	0.3537	10.46235	49152.64976	0.72222	1.53728E-4	1773.63194	45846.438	41.6078	10133.341
1270.0	0.98702	0.0129788	7.36681	7.56536	-4.06549	20.76299	30.78684	1.63328	0.61226	91.54361	108.70346	33.82441	0.35322	10.5749	52885.98151	0.71223	1.42415E-4	1773.75986	45640.311	41.2254	10140.275
1265.0	0.98862	0.0113837	7.37004	7.56212	-4.10653	20.7228	30.72516	1.63126	0.61302	92.63929	109.04612	34.24096	0.35276	10.68978	56898.08518	0.70229	1.31943E-4	1773.88578	45435.9	40.8822	10145.926
1260.0	0.9901	0.00990152	7.37326	7.5589	-4.14735	20.68293	30.66294	1.62925	0.61378	93.69639	109.3894	34.64312	0.35231	10.80589	61213.55846	0.69249	1.22243E-4	1774.01865	45233.049	40.5702	10150.448
1255.0	0.99148	0.00851763	7.37646	7.5557	-4.18794	20.64345	30.60024	1.62727	0.61453	94.71922	109.73319	35.03248	0.35188	10.92442	65859.14134	0.68274	1.1325E-4	1774.15023	45031.621	40.2856	10153.975
1250.0	0.99278	0.00722379	7.37966	7.55252	-4.22833	20.60427	30.53711	1.6253	0.61527	95.71156	110.0773	35.41047	0.35146	11.04531	70863.19993	0.67306	1.04908E-4	1774.28137	44831.498	40.0246	10156.622
1245.0	0.99399	0.00600865	7.38285	7.54934	-4.26857	20.56524	30.4736	1.62334	0.61602	96.67784	110.42162	35.77875	0.35105	11.16811	76258.08836	0.66347	9.71663E-5	1774.41509	44632.577	39.7842	10158.49
1240.0	0.99513	0.004866	7.38603	7.54618	-4.30864	20.52639	30.40975	1.62139	0.61676	97.61971	110.76602	36.13793	0.35065	11.29342	82076.7477	0.65395	8.99805E-5	1774.55044	44434.764	39.5626	10159.68
1235.0	0.99621	0.00378653	7.3892	7.54303	-4.34859	20.48758	30.34557	1.61945	0.61749	98.54007	111.11042	36.4891	0.35027	11.42069	88357.3261	0.64452	8.33084E-5	1774.6869	44237.977	39.3574	10160.273
1230.0	0.99723	0.00276714	7.39237	7.53989	-4.38842	20.44885	30.28109	1.61752	0.61823	99.4414	111.45475	36.83319	0.34989	11.55057	95140.56658	0.63516	7.71122E-5	1774.82481	44042.147	39.166	10160.338
1225.0	0.9982	0.00179851	7.39554	7.53676	-4.42815	20.41007	30.21639	1.61559	0.61897	100.32584	111.7989	37.17101	0.34952	11.6826	102471.1039	0.6259	7.13577E-5	1774.96408	43847.212	38.987	10159.933
1220.0	0.99912	8.78587E-4	7.3987	7.53363	-4.4678	20.37126	30.15147	1.61366	0.61971	101.19492	112.14283	37.50314	0.34915	11.81731	110397.852	0.6167	6.6013E-5	1775.10561	43653.117	38.819	10159.111
1215.0	1.0	0.0	7.40186	7.53051	-4.50739	20.3323	30.08643	1.61174	0.62045	102.05161	112.48648	37.83068	0.34879	 	118975.8207	 	6.10485E-5	 	43459.82	38.6594	10157.912
1210.0	1.0	0.0	7.40438	7.52795	-4.53983	20.31557	30.01887	1.60994	0.62114	102.50607	112.83117	38.00505	0.34858	 	127814.8606	 	5.66357E-5	 	43227.115	46.541	 
1205.0	1.0	0.0	7.40689	7.5254	-4.57223	20.29886	29.95132	1.60813	0.62184	102.96065	113.17505	38.17952	0.34838	 	137378.3135	 	5.25154E-5	 	43040.091	37.4048	 
1200.0	1.0	0.0	7.4094	7.52285	-4.60458	20.28216	29.88376	1.60631	0.62254	103.41535	113.51811	38.35408	0.34817	 	147730.9129	 	4.86701E-5	 	42853.324	37.3534	 
1195.0	1.0	0.0	7.41191	7.5203	-4.63688	20.26548	29.8162	1.60449	0.62325	103.87017	113.86035	38.52875	0.34796	 	158943.644	 	4.50831E-5	 	42666.828	37.2992	 
1190.0	1.0	0.0	7.41442	7.51775	-4.66913	20.2488	29.74864	1.60265	0.62397	104.32508	114.20176	38.7035	0.34775	 	171094.3922	 	4.17388E-5	 	42480.604	37.2448	 
1185.0	1.0	0.0	7.41692	7.51522	-4.70133	20.23214	29.68107	1.60081	0.62468	104.78009	114.54233	38.87834	0.34754	 	184268.6624	 	3.86222E-5	 	42294.656	37.1896	 
1180.0	1.0	0.0	7.41943	7.51268	-4.73349	20.2155	29.61351	1.59896	0.62541	105.23518	114.88206	39.05327	0.34733	 	198560.3794	 	3.57194E-5	 	42108.984	37.1344	 
1175.0	1.0	0.0	7.42193	7.51015	-4.76559	20.19887	29.54594	1.59711	0.62613	105.69034	115.22094	39.22828	0.34712	 	214072.7769	 	3.30171E-5	 	41923.587	37.0794	 
1170.0	1.0	0.0	7.42443	7.50762	-4.79765	20.18225	29.47837	1.59524	0.62687	106.14557	115.55896	39.40337	0.34691	 	230919.3878	 	3.05027E-5	 	41738.463	37.0248	 
1165.0	1.0	0.0	7.42693	7.5051	-4.82966	20.16564	29.41079	1.59336	0.6276	106.60086	115.89613	39.57853	0.3467	 	249225.1457	 	2.81643E-5	 	41553.613	36.97	 
1160.0	1.0	0.0	7.42942	7.50258	-4.86162	20.14905	29.34322	1.59148	0.62835	107.05621	116.23244	39.75377	0.34649	 	269127.6134	 	2.59908E-5	 	41369.034	36.9158	 
1155.0	1.0	0.0	7.43191	7.50006	-4.89353	20.13247	29.27564	1.58959	0.62909	107.51159	116.56787	39.92908	0.34628	 	290778.3512	 	2.39717E-5	 	41184.728	36.8612	 
1150.0	1.0	0.0	7.4344	7.49755	-4.92539	20.11591	29.20806	1.58769	0.62985	107.967	116.90242	40.10445	0.34607	 	314344.4446	 	2.20969E-5	 	41000.692	36.8072	 
1145.0	1.0	0.0	7.43689	7.49504	-4.95721	20.09936	29.14048	1.58578	0.6306	108.42244	117.2361	40.27989	0.34586	 	340010.2088	 	2.03571E-5	 	40816.926	36.7532	 
1140.0	1.0	0.0	7.43938	7.49253	-4.98898	20.08282	29.07289	1.58386	0.63137	108.8779	117.56889	40.45539	0.34565	 	367979.0932	 	1.87435E-5	 	40633.429	36.6994	 
1135.0	1.0	0.0	7.44186	7.49003	-5.02069	20.06629	29.0053	1.58194	0.63214	109.33337	117.90079	40.63095	0.34544	 	398475.8105	 	1.72478E-5	 	40450.2	36.6458	 
1130.0	1.0	0.0	7.44435	7.48753	-5.05237	20.04978	28.93771	1.58	0.63291	109.78883	118.23179	40.80656	0.34524	 	431748.7179	 	1.58621E-5	 	40267.239	36.5922	 
1125.0	1.0	0.0	7.44683	7.48504	-5.08399	20.03329	28.87012	1.57806	0.63369	110.24429	118.56188	40.98222	0.34503	 	468072.4831	 	1.4579E-5	 	40084.544	36.539	 
1120.0	1.0	0.0	7.4493	7.48255	-5.11556	20.0168	28.80253	1.5761	0.63448	110.69973	118.89107	41.15794	0.34482	 	507751.0698	 	1.33916E-5	 	39902.115	36.4858	 
1115.0	1.0	0.0	7.45178	7.48006	-5.14709	20.00033	28.73493	1.57414	0.63527	111.15515	119.21935	41.3337	0.34461	 	551121.0854	 	1.22935E-5	 	39719.95	36.433	 
1110.0	1.0	0.0	7.45425	7.47758	-5.17857	19.98387	28.66733	1.57217	0.63606	111.61054	119.54671	41.5095	0.3444	 	598555.5354	 	1.12785E-5	 	39538.05	36.38	 
1105.0	1.0	0.0	7.45673	7.4751	-5.21	19.96743	28.59973	1.57019	0.63687	112.06588	119.87315	41.68534	0.34419	 	650468.0383	 	1.03409E-5	 	39356.412	36.3276	 
1100.0	1.0	0.0	7.45919	7.47263	-5.24138	19.951	28.53213	1.5682	0.63767	112.52118	120.19866	41.86122	0.34398	 	707317.5603	 	9.47524E-6	 	39175.037	36.275	 
1095.0	1.0	0.0	7.46166	7.47016	-5.27272	19.93458	28.46452	1.5662	0.63849	112.97642	120.52325	42.03713	0.34377	 	769613.738	 	8.67656E-6	 	38993.922	36.223	 
1090.0	1.0	0.0	7.46413	7.46769	-5.30401	19.91818	28.39691	1.56419	0.63931	113.4316	120.84689	42.21307	0.34356	 	837922.8667	 	7.94011E-6	 	38813.068	36.1708	 
1085.0	1.0	0.0	7.46659	7.46523	-5.33525	19.90178	28.3293	1.56217	0.64013	113.88671	121.1696	42.38904	0.34335	 	912874.6423	 	7.26145E-6	 	38632.473	36.119	 
1080.0	1.0	0.0	7.46905	7.46277	-5.36644	19.88541	28.26169	1.56015	0.64097	114.34174	121.49136	42.56504	0.34314	 	995169.7572	 	6.63644E-6	 	38452.136	36.0674	 
1075.0	1.0	0.0	7.47151	7.46031	-5.39758	19.86904	28.19407	1.55811	0.6418	114.79668	121.81217	42.74106	0.34293	 	1085588.466	 	6.06122E-6	 	38272.056	36.016	 
1070.0	1.0	0.0	7.47397	7.45786	-5.42868	19.85269	28.12645	1.55606	0.64265	115.25153	122.13203	42.9171	0.34272	 	1185000.248	 	5.53214E-6	 	38092.233	35.9646	 
1065.0	1.0	0.0	7.47642	7.45541	-5.45973	19.83636	28.05883	1.55401	0.6435	115.70628	122.45093	43.09316	0.34251	 	1294374.729	 	5.04582E-6	 	37912.665	35.9136	 
1060.0	1.0	0.0	7.47888	7.45296	-5.49073	19.82003	27.9912	1.55194	0.64435	116.16091	122.76886	43.26923	0.3423	 	1414794.009	 	4.5991E-6	 	37733.352	35.8626	 
1055.0	1.0	0.0	7.48133	7.45052	-5.52169	19.80372	27.92358	1.54986	0.64522	116.61543	123.08584	43.44531	0.34209	 	1547466.622	 	4.18902E-6	 	37554.291	35.8122	 
1050.0	1.0	0.0	7.48377	7.44808	-5.5526	19.78743	27.85595	1.54778	0.64609	117.06983	123.40184	43.6214	0.34189	 	1693743.33	 	3.81284E-6	 	37375.483	35.7616	 
1045.0	1.0	0.0	7.48622	7.44565	-5.58346	19.77114	27.78832	1.54568	0.64696	117.52409	123.71686	43.79749	0.34168	 	1855135.019	 	3.46798E-6	 	37196.926	35.7114	 
1040.0	1.0	0.0	7.48866	7.44322	-5.61427	19.75487	27.72068	1.54358	0.64785	117.97821	124.03091	43.97359	0.34147	 	2033332.989	 	3.15205E-6	 	37018.62	35.6612	 
1035.0	1.0	0.0	7.49111	7.44079	-5.64504	19.73862	27.65304	1.54146	0.64874	118.43219	124.34398	44.14969	0.34126	 	2230231.982	 	2.86282E-6	 	36840.562	35.6116	 
1030.0	1.0	0.0	7.49355	7.43837	-5.67576	19.72237	27.5854	1.53933	0.64963	118.88601	124.65606	44.32579	0.34105	 	2447956.335	 	2.59823E-6	 	36662.752	35.562	 
1025.0	1.0	0.0	7.49598	7.43595	-5.70643	19.70614	27.51776	1.5372	0.65053	119.33967	124.96715	44.50188	0.34084	 	2688889.709	 	2.35634E-6	 	36485.189	35.5126	 
1020.0	1.0	0.0	7.49842	7.43354	-5.73706	19.68993	27.45012	1.53505	0.65144	119.79316	125.27724	44.67796	0.34063	 	2955708.908	 	2.13537E-6	 	36307.871	35.4636	 
1015.0	1.0	0.0	7.50085	7.43113	-5.76764	19.67372	27.38247	1.53289	0.65236	120.24647	125.58634	44.85403	0.34042	 	3251422.398	 	1.93366E-6	 	36130.798	35.4146	 
1010.0	1.0	0.0	7.50328	7.42872	-5.79817	19.65753	27.31482	1.53072	0.65329	120.6996	125.89444	45.03009	0.34021	 	3579414.191	 	1.74965E-6	 	35953.968	35.366	 
1005.0	1.0	0.0	7.50571	7.42631	-5.82866	19.64136	27.24716	1.52855	0.65422	121.15254	126.20153	45.20613	0.34	 	3943493.922	 	1.58193E-6	 	35777.38	35.3176	 
1000.0	1.0	0.0	7.50814	7.42391	-5.8591	19.62519	27.17951	1.52636	0.65516	121.60527	126.50761	45.38215	0.33979	 	4347954.004	 	1.42916E-6	 	35601.033	35.2694	 
995.0	1.0	0.0	7.51056	7.42152	-5.88949	19.60905	27.11185	1.52416	0.6561	122.05781	126.81269	45.55815	0.33958	 	4797634.955	 	1.29012E-6	 	35424.925	35.2216	 
990.0	1.0	0.0	7.51299	7.41912	-5.91984	19.59291	27.04419	1.52194	0.65705	122.51013	127.11674	45.73413	0.33937	 	5298000.114	 	1.16367E-6	 	35249.056	35.1738	 
985.0	1.0	0.0	7.51541	7.41674	-5.95014	19.57679	26.97652	1.51972	0.65801	122.96223	127.41978	45.91008	0.33916	 	5855221.179	 	1.04876E-6	 	35073.423	35.1266	 
980.0	1.0	0.0	7.51783	7.41435	-5.98039	19.56068	26.90885	1.51749	0.65898	123.41411	127.7218	46.086	0.33895	 	6476276.225	 	9.44418E-7	 	34898.026	35.0794	 
975.0	1.0	0.0	7.52024	7.41197	-6.01059	19.54458	26.84118	1.51525	0.65996	123.86575	128.02279	46.26188	0.33875	 	7169062.141	 	8.4975E-7	 	34722.864	35.0324	 
970.0	1.0	0.0	7.52266	7.40959	-6.04075	19.5285	26.77351	1.51299	0.66094	124.31715	128.32275	46.43774	0.33854	 	7942523.709	 	7.63927E-7	 	34547.934	34.986	 
965.0	1.0	0.0	7.52507	7.40721	-6.07087	19.51243	26.70583	1.51072	0.66193	124.7683	128.62168	46.61355	0.33833	 	8806801.949	 	6.86186E-7	 	34373.235	34.9398	 
960.0	1.0	0.0	7.52748	7.40484	-6.10094	19.49638	26.63815	1.50845	0.66293	125.21919	128.91957	46.78932	0.33812	 	9773404.769	 	6.15824E-7	 	34198.767	34.8936	 
955.0	1.0	0.0	7.52988	7.40248	-6.13096	19.48033	26.57047	1.50616	0.66394	125.66982	129.21642	46.96505	0.33791	 	1.085540346E7	 	5.52195E-7	 	34024.527	34.848	 
950.0	1.0	0.0	7.53229	7.40011	-6.16093	19.46431	26.50278	1.50385	0.66496	126.12019	129.51223	47.14074	0.3377	 	1.206765919E7	 	4.94702E-7	 	33850.514	34.8026	 
945.0	1.0	0.0	7.53469	7.39775	-6.19086	19.44829	26.4351	1.50154	0.66598	126.57027	129.807	47.31637	0.33749	 	1.342708433E7	 	4.42798E-7	 	33676.727	34.7574	 
940.0	1.0	0.0	7.53709	7.39539	-6.22074	19.43229	26.3674	1.49922	0.66701	127.02007	130.10072	47.49196	0.33728	 	1.49529443E7	 	3.95981E-7	 	33503.163	34.7128	 
935.0	1.0	0.0	7.53949	7.39304	-6.25058	19.4163	26.29971	1.49688	0.66806	127.46958	130.39338	47.66749	0.33707	 	1.66672065E7	 	3.53789E-7	 	33329.822	34.6682	 
930.0	1.0	0.0	7.54189	7.39069	-6.28037	19.40032	26.23201	1.49453	0.6691	127.91879	130.68499	47.84296	0.33686	 	1.859494427E7	 	3.158E-7	 	33156.701	34.6242	 
925.0	1.0	0.0	7.54428	7.38835	-6.31012	19.38436	26.16431	1.49217	0.67016	128.3677	130.97554	48.01838	0.33665	 	2.076480484E7	 	2.81624E-7	 	32983.8	34.5802	 
920.0	1.0	0.0	7.54668	7.386	-6.33982	19.36841	26.09661	1.4898	0.67123	128.8163	131.26503	48.19373	0.33644	 	2.320955208E7	 	2.50908E-7	 	32811.115	34.537	 
915.0	1.0	0.0	7.54907	7.38367	-6.36947	19.35248	26.0289	1.48742	0.67231	129.26457	131.55346	48.36902	0.33623	 	2.596669684E7	 	2.23327E-7	 	32638.646	34.4938	 
910.0	1.0	0.0	7.55145	7.38133	-6.39908	19.33656	25.96119	1.48502	0.67339	129.71253	131.84082	48.54424	0.33602	 	2.907922949E7	 	1.98584E-7	 	32466.39	34.4512	 
905.0	1.0	0.0	7.55384	7.379	-6.42864	19.32065	25.89348	1.48261	0.67448	130.16014	132.12711	48.71939	0.33581	 	3.259647251E7	 	1.76407E-7	 	32294.346	34.4088	 
900.0	1.0	0.0	7.55622	7.37667	-6.45816	19.30476	25.82576	1.48019	0.67559	130.60742	132.41233	48.89447	0.33561	 	3.657507372E7	 	1.56551E-7	 	32122.512	34.3668	 
895.0	1.0	0.0	7.5586	7.37435	-6.48763	19.28887	25.75804	1.47776	0.6767	131.05436	132.69647	49.06948	0.3354	 	4.108016476E7	 	1.38788E-7	 	31950.885	34.3254	 
890.0	1.0	0.0	7.56098	7.37203	-6.51705	19.27301	25.69032	1.47531	0.67782	131.50094	132.97954	49.24441	0.33519	 	4.618671375E7	 	1.22915E-7	 	31779.464	34.2842	 
885.0	1.0	0.0	7.56336	7.36971	-6.54643	19.25715	25.62259	1.47285	0.67895	131.94716	133.26152	49.41926	0.33498	 	5.198110679E7	 	1.08744E-7	 	31608.247	34.2434	 
880.0	1.0	0.0	7.56574	7.3674	-6.57577	19.24131	25.55486	1.47038	0.6801	132.39302	133.54242	49.59402	0.33477	 	5.856299883E7	 	9.61057E-8	 	31437.231	34.2032	 
875.0	1.0	0.0	7.56811	7.36509	-6.60506	19.22548	25.48713	1.4679	0.68125	132.8385	133.82224	49.76871	0.33456	 	6.60474827E7	 	8.48455E-8	 	31266.414	34.1634	 
870.0	1.0	0.0	7.57048	7.36278	-6.6343	19.20967	25.41939	1.4654	0.68241	133.28361	134.10097	49.9433	0.33435	 	7.456763393E7	 	7.48238E-8	 	31095.794	34.124	 
865.0	1.0	0.0	7.57285	7.36048	-6.6635	19.19387	25.35165	1.46289	0.68358	133.72833	134.37861	50.11781	0.33414	 	8.427750007E7	 	6.59135E-8	 	30925.369	34.085	 
860.0	1.0	0.0	7.57521	7.35818	-6.69265	19.17808	25.28391	1.46036	0.68476	134.17265	134.65515	50.29222	0.33393	 	9.535561672E7	 	5.8E-8	 	30755.136	34.0466	 
855.0	1.0	0.0	7.57758	7.35589	-6.72176	19.16231	25.21616	1.45783	0.68595	134.61658	134.9306	50.46654	0.33372	 	1.08009148E8	 	5.09792E-8	 	30585.093	34.0086	 
850.0	1.0	0.0	7.57994	7.35359	-6.75082	19.14655	25.14841	1.45527	0.68716	135.0601	135.20495	50.64076	0.33351	 	1.224787688E8	 	4.47573E-8	 	30415.236	33.9714	 
845.0	1.0	0.0	7.5823	7.3513	-6.77984	19.1308	25.08066	1.45271	0.68837	135.50321	135.4782	50.81488	0.3333	 	1.390444289E8	 	3.92494E-8	 	30245.564	33.9344	 
840.0	1.0	0.0	7.58466	7.34902	-6.80882	19.11507	25.0129	1.45013	0.68959	135.9459	135.75035	50.9889	0.33309	 	1.580321677E8	 	3.43791E-8	 	30076.073	33.8982	 
835.0	1.0	0.0	7.58701	7.34674	-6.83774	19.09935	24.94515	1.44754	0.69083	136.38817	136.02139	51.16281	0.33288	 	1.798221803E8	 	3.00775E-8	 	29906.76	33.8626	 
830.0	1.0	0.0	7.58936	7.34446	-6.86663	19.08364	24.87738	1.44493	0.69207	136.83	136.29132	51.33661	0.33267	 	2.048583798E8	 	2.62826E-8	 	29737.623	33.8274	 
825.0	1.0	0.0	7.59171	7.34219	-6.89547	19.06795	24.80962	1.44231	0.69333	137.2714	136.56015	51.51031	0.33247	 	2.336597462E8	 	2.29385E-8	 	29568.659	33.7928	 
820.0	1.0	0.0	7.59406	7.33992	-6.92426	19.05227	24.74185	1.43968	0.6946	137.71235	136.82786	51.6839	0.33226	 	2.668338159E8	 	1.99952E-8	 	29399.864	33.759	 
815.0	1.0	0.0	7.59641	7.33765	-6.95301	19.0366	24.67407	1.43703	0.69588	138.15286	137.09446	51.85737	0.33205	 	3.050927376E8	 	1.74078E-8	 	29231.234	33.726	 
810.0	1.0	0.0	7.59875	7.33539	-6.98171	19.02095	24.6063	1.43437	0.69717	138.5929	137.35994	52.03072	0.33184	 	3.492724092E8	 	1.5136E-8	 	29062.767	33.6934	 
805.0	1.0	0.0	7.6011	7.33313	-7.01037	19.00531	24.53852	1.43169	0.69848	139.03249	137.62431	52.20395	0.33163	 	4.003553197E8	 	1.31438E-8	 	28894.458	33.6618	 
800.0	1.0	0.0	7.60343	7.33087	-7.03899	18.98968	24.47073	1.429	0.69979	139.4716	137.88756	52.37706	0.33142	 	4.594978537E8	 	1.13989E-8	 	28726.305	33.6306	 
795.0	1.0	0.0	7.60577	7.32862	-7.06756	18.97407	24.40294	1.42629	0.70112	139.91024	138.14968	52.55005	0.33121	 	5.280629769E8	 	9.87264E-9	 	28558.302	33.6006	 
790.0	1.0	0.0	7.60811	7.32637	-7.09609	18.95847	24.33515	1.42357	0.70246	140.34839	138.41068	52.72291	0.331	 	6.076594218E8	 	8.53928E-9	 	28390.445	33.5714	 
785.0	1.0	0.0	7.61044	7.32412	-7.12457	18.94288	24.26736	1.42083	0.70381	140.78606	138.67055	52.89564	0.33079	 	7.001887375E8	 	7.37596E-9	 	28222.732	33.5426	 
780.0	1.0	0.0	7.61277	7.32188	-7.153	18.92731	24.19956	1.41808	0.70518	141.22323	138.9293	53.06824	0.33058	 	8.079018673E8	 	6.36236E-9	 	28055.155	33.5154	 
775.0	1.0	0.0	7.6151	7.31964	-7.1814	18.91175	24.13176	1.41531	0.70656	141.65991	139.18691	53.24071	0.33037	 	9.334672885E8	 	5.48038E-9	 	27887.712	33.4886	 
770.0	1.0	0.0	7.61743	7.3174	-7.20975	18.8962	24.06395	1.41253	0.70795	142.09607	139.4434	53.41304	0.33016	 	1.080053207E9	 	4.71399E-9	 	27720.397	33.463	 
765.0	1.0	0.0	7.61975	7.31517	-7.23805	18.88067	23.99615	1.40973	0.70936	142.53172	139.69875	53.58523	0.32995	 	1.251426862E9	 	4.04894E-9	 	27553.204	33.4386	 
760.0	1.0	0.0	7.62207	7.31294	-7.26631	18.86515	23.92833	1.40692	0.71077	142.96686	139.95296	53.75728	0.32974	 	1.452074697E9	 	3.47265E-9	 	27386.129	33.415	 
755.0	1.0	0.0	7.62439	7.31072	-7.29453	18.84965	23.86052	1.40409	0.71221	143.40147	140.20604	53.92919	0.32953	 	1.687348017E9	 	2.97398E-9	 	27219.165	33.3928	 
750.0	1.0	0.0	7.62671	7.30849	-7.3227	18.83415	23.7927	1.40124	0.71365	143.83554	140.45798	54.10095	0.32933	 	1.96363983E9	 	2.5431E-9	 	27052.306	33.3718	 
745.0	1.0	0.0	7.62903	7.30628	-7.35083	18.81867	23.72488	1.39838	0.71511	144.26908	140.70878	54.27256	0.32912	 	2.288599915E9	 	2.17134E-9	 	26885.545	33.3522	 
740.0	1.0	0.0	7.63134	7.30406	-7.37892	18.80321	23.65705	1.3955	0.71659	144.70208	140.95843	54.44402	0.32891	 	2.671396811E9	 	1.85107E-9	 	26718.876	33.3338	 
735.0	1.0	0.0	7.63365	7.30185	-7.40696	18.78776	23.58922	1.39261	0.71808	145.13453	141.20694	54.61534	0.3287	 	3.12303753E9	 	1.57556E-9	 	26552.29	33.3172	 
730.0	1.0	0.0	7.63596	7.29964	-7.43495	18.77232	23.52138	1.3897	0.71958	145.56642	141.45431	54.78649	0.32849	 	3.656758385E9	 	1.33893E-9	 	26385.782	33.3016	 
725.0	1.0	0.0	7.63827	7.29744	-7.46291	18.75689	23.45355	1.38677	0.7211	145.99775	141.70053	54.95749	0.32828	 	4.288503603E9	 	1.136E-9	 	26219.341	33.2882	 
720.0	1.0	0.0	7.64057	7.29524	-7.49082	18.74148	23.38571	1.38383	0.72263	146.42852	141.9456	55.12833	0.32807	 	5.037512492E9	 	9.62244E-10	 	26052.959	33.2764	 
715.0	1.0	0.0	7.64287	7.29304	-7.51868	18.72608	23.31786	1.38087	0.72418	146.85871	142.18952	55.299	0.32786	 	5.927041103E9	 	8.13714E-10	 	25886.627	33.2664	 
710.0	1.0	0.0	7.64517	7.29085	-7.54651	18.7107	23.25001	1.37789	0.72575	147.28832	142.43229	55.46952	0.32765	 	6.985250838E9	 	6.86949E-10	 	25720.334	33.2586	 
705.0	1.0	0.0	7.64747	7.28866	-7.57429	18.69532	23.18216	1.37489	0.72733	147.71735	142.6739	55.63986	0.32744	 	8.246304665E9	 	5.78939E-10	 	25554.07	33.2528	 
700.0	1.0	0.0	7.64977	7.28647	-7.60202	18.67997	23.1143	1.37188	0.72893	148.14578	142.91436	55.81004	0.32723	 	9.751722047E9	 	4.87063E-10	 	25387.823	33.2494	 
695.0	1.0	0.0	7.65206	7.28428	-7.62971	18.66462	23.04644	1.36885	0.73054	148.57362	143.15366	55.98004	0.32702	 	1.15521E10	 	4.09044E-10	 	25221.58	33.2486	 
690.0	1.0	0.0	7.65435	7.2821	-7.65736	18.64929	22.97857	1.3658	0.73217	149.00086	143.39181	56.14987	0.32681	 	1.3708999999999998E10	 	3.42906E-10	 	25055.327	33.2506	 
685.0	1.0	0.0	7.65664	7.27993	-7.68497	18.63397	22.9107	1.36274	0.73382	149.42749	143.62879	56.31953	0.3266	 	1.6297899999999998E10	 	2.86939E-10	 	24889.05	33.2554	 
680.0	1.0	0.0	7.65893	7.27775	-7.71253	18.61867	22.84283	1.35966	0.73548	149.8535	143.86462	56.48901	0.3264	 	1.9411E10	 	2.39662E-10	 	24722.732	33.2636	 
675.0	1.0	0.0	7.66121	7.27558	-7.74005	18.60338	22.77495	1.35655	0.73716	150.2789	144.09928	56.65831	0.32619	 	2.31617E10	 	1.99799E-10	 	24556.358	33.2748	 
670.0	1.0	0.0	7.66349	7.27342	-7.76753	18.5881	22.70707	1.35344	0.73886	150.70367	144.33278	56.82742	0.32598	 	2.7689199999999996E10	 	1.66248E-10	 	24389.906	33.2904	 
665.0	1.0	0.0	7.66577	7.27125	-7.79496	18.57283	22.63918	1.3503	0.74058	151.1278	144.56512	56.99635	0.32577	 	3.3164999999999996E10	 	1.38064E-10	 	24223.358	33.3096	 
660.0	1.0	0.0	7.66805	7.26909	-7.82235	18.55758	22.57129	1.34714	0.74231	151.5513	144.79629	57.1651	0.32556	 	3.98009E10	 	1.14431E-10	 	24056.69	33.3336	 
655.0	1.0	0.0	7.67033	7.26694	-7.84969	18.54235	22.50339	1.34397	0.74407	151.97416	145.02629	57.33365	0.32535	 	4.785889999999999E10	 	9.46546E-11	 	23889.878	33.3624	 
650.0	1.0	0.0	7.6726	7.26478	-7.877	18.52712	22.43549	1.34077	0.74584	152.39637	145.25513	57.50201	0.32514	 	5.766399999999999E10	 	7.81366E-11	 	23722.894	33.3968	 
645.0	1.0	0.0	7.67487	7.26263	-7.90426	18.51191	22.36758	1.33756	0.74763	152.81792	145.48279	57.67018	0.32493	 	6.96196E10	 	6.43679E-11	 	23555.709	33.437	 
640.0	1.0	0.0	7.67714	7.26049	-7.93148	18.49671	22.29967	1.33432	0.74944	153.23882	145.70929	57.83816	0.32472	 	8.42282E10	 	5.29141E-11	 	23388.289	33.484	 
635.0	1.0	0.0	7.67941	7.25834	-7.95865	18.48153	22.23175	1.33107	0.75127	153.65905	145.93461	58.00593	0.32451	 	1.02117E11	 	4.34056E-11	 	23220.599	33.538	 
630.0	1.0	0.0	7.68167	7.2562	-7.98579	18.46636	22.16383	1.3278	0.75313	154.0786	146.15876	58.1735	0.3243	 	1.24071E11	 	3.55285E-11	 	23052.597	33.6004	 
625.0	1.0	0.0	7.68393	7.25407	-8.01288	18.4512	22.0959	1.32451	0.755	154.49748	146.38174	58.34088	0.32409	 	1.51072E11	 	2.90169E-11	 	22884.239	33.6716	 
620.0	1.0	0.0	7.68619	7.25194	-8.03992	18.43606	22.02796	1.3212	0.75689	154.91568	146.60354	58.50804	0.32388	 	1.84358E11	 	2.36455E-11	 	22715.474	33.753	 
615.0	1.0	0.0	7.68845	7.24981	-8.06693	18.42093	21.96002	1.31787	0.7588	155.33319	146.82416	58.675	0.32367	 	2.25484E11	 	1.92246E-11	 	22546.247	33.8454	 
610.0	1.0	0.0	7.69071	7.24768	-8.09389	18.40581	21.89208	1.31451	0.76074	155.75001	147.04361	58.84175	0.32347	 	2.76417E11	 	1.5594E-11	 	22376.494	33.9506	 
605.0	1.0	0.0	7.69296	7.24556	-8.12081	18.39071	21.82413	1.31114	0.76269	156.16613	147.26187	59.00829	0.32326	 	3.39643E11	 	1.26192E-11	 	22205.358	34.2272	 
600.0	1.0	0.0	7.69521	7.24344	-8.14769	18.37562	21.75617	1.30775	0.76467	156.58154	147.47896	59.17462	0.32305	 	4.1832E11	 	1.01875E-11	 	22028.36	35.3996	 
595.0	1.0	0.0	7.69746	7.24132	-8.17452	18.36054	21.68821	1.30433	0.76667	156.99624	147.69487	59.34073	0.32284	 	5.16465E11	 	8.20427E-12	 	21852.344	35.2032	 
590.0	1.0	0.0	7.69971	7.23921	-8.20132	18.34548	21.62024	1.3009	0.7687	157.41023	147.9096	59.50662	0.32263	 	6.39201E11	 	6.59076E-12	 	21677.279	35.013	 
585.0	1.0	0.0	7.70195	7.2371	-8.22807	18.33043	21.55227	1.29744	0.77075	157.82349	148.12314	59.67229	0.32242	 	7.93078E11	 	5.28122E-12	 	21503.134	34.829	 
580.0	1.0	0.0	7.70419	7.23499	-8.25477	18.31539	21.48429	1.29396	0.77282	158.23603	148.3355	59.83774	0.32221	 	9.86496E11	 	4.22101E-12	 	21329.88	34.6508	 
575.0	1.0	0.0	7.70643	7.23289	-8.28144	18.30037	21.4163	1.29046	0.77491	158.64784	148.54668	60.00296	0.322	 	1.23026E12	 	3.36483E-12	 	21157.489	34.4782	 
570.0	1.0	0.0	7.70867	7.23079	-8.30806	18.28536	21.34831	1.28694	0.77704	159.05891	148.75667	60.16796	0.32179	 	1.53829E12	 	2.67519E-12	 	20985.934	34.311	 
565.0	1.0	0.0	7.71091	7.22869	-8.33465	18.27036	21.28031	1.2834	0.77918	159.46924	148.96547	60.33273	0.32158	 	1.92859E12	 	2.12114E-12	 	20815.192	34.1484	 
560.0	1.0	0.0	7.71314	7.2266	-8.36119	18.25538	21.2123	1.27983	0.78135	159.87882	149.17309	60.49727	0.32137	 	2.4245E12	 	1.67721E-12	 	20645.238	33.9908	 
555.0	1.0	0.0	7.71537	7.22451	-8.38769	18.24041	21.14429	1.27624	0.78355	160.28764	149.37952	60.66158	0.32116	 	3.0564E12	 	1.32247E-12	 	20476.051	33.8374	 
550.0	1.0	0.0	7.7176	7.22242	-8.41414	18.22545	21.07627	1.27263	0.78577	160.69571	149.58477	60.82565	0.32095	 	3.86387E12	 	1.03978E-12	 	20307.61	33.6882	 
545.0	1.0	0.0	7.71983	7.22034	-8.44056	18.21051	21.00824	1.269	0.78802	161.10301	149.78882	60.98948	0.32074	 	4.89872E12	 	8.1515E-13	 	20139.895	33.543	 
540.0	1.0	0.0	7.72205	7.21826	-8.46693	18.19558	20.94021	1.26534	0.7903	161.50955	149.99169	61.15307	0.32054	 	6.22892E12	 	6.37155E-13	 	19972.887	33.4016	 
535.0	1.0	0.0	7.72427	7.21619	-8.49326	18.18066	20.87217	1.26166	0.79261	161.91531	150.19336	61.31643	0.32033	 	7.94395E12	 	4.96526E-13	 	19806.568	33.2638	 
530.0	1.0	0.0	7.72649	7.21411	-8.51955	18.16576	20.80413	1.25795	0.79494	162.32028	150.39384	61.47953	0.32012	 	1.0162E13	 	3.85749E-13	 	19640.921	33.1294	 
525.0	1.0	0.0	7.72871	7.21204	-8.5458	18.15087	20.73608	1.25423	0.7973	162.72448	150.59313	61.6424	0.31991	 	1.30396E13	 	2.9875E-13	 	19475.931	32.998	 
520.0	1.0	0.0	7.73093	7.20998	-8.572	18.136	20.66802	1.25047	0.7997	163.12788	150.79123	61.80501	0.3197	 	1.67848E13	 	2.30635E-13	 	19311.581	32.87	 
515.0	1.0	0.0	7.73314	7.20791	-8.59817	18.12113	20.59996	1.2467	0.80212	163.53049	150.98813	61.96738	0.31949	 	2.16753E13	 	1.77473E-13	 	19147.859	32.7444	 
510.0	1.0	0.0	7.73535	7.20585	-8.62429	18.10629	20.53189	1.24289	0.80457	163.9323	151.18384	62.12949	0.31928	 	2.80823E13	 	1.36113E-13	 	18984.749	32.622	 
505.0	1.0	0.0	7.73756	7.2038	-8.65037	18.09145	20.46381	1.23907	0.80706	164.3333	151.37836	62.29135	0.31907	 	3.65047E13	 	1.0404E-13	 	18822.239	32.502	 
500.0	1.0	0.0	7.73976	7.20174	-8.67642	18.07663	20.39573	1.23521	0.80958	164.73349	151.57168	62.45295	0.31886	 	4.76147E13	 	7.92518E-14	 	18660.317	32.3844	 
495.0	1.0	0.0	7.74197	7.19969	-8.70241	18.06182	20.32764	1.23134	0.81213	165.13287	151.76381	62.6143	0.31865	 	6.23216E13	 	6.01581E-14	 	18498.97	32.2694	 
490.0	1.0	0.0	7.74417	7.19764	-8.72837	18.04702	20.25954	1.22743	0.81471	165.53142	151.95474	62.77538	0.31844	 	8.18597E13	 	4.55016E-14	 	18338.187	32.1566	 
485.0	1.0	0.0	7.74637	7.1956	-8.75429	18.03224	20.19144	1.2235	0.81732	165.92915	152.14447	62.9362	0.31823	 	1.07911E14	 	3.42906E-14	 	18177.959	32.0456	 
480.0	1.0	0.0	7.74857	7.19356	-8.78017	18.01747	20.12333	1.21955	0.81998	166.32605	152.33301	63.09676	0.31802	 	1.42777E14	 	2.5746E-14	 	18018.274	31.937	 
475.0	1.0	0.0	7.75076	7.19152	-8.806	18.00272	20.05522	1.21557	0.82266	166.72211	152.52035	63.25706	0.31781	 	1.89618E14	 	1.92574E-14	 	17859.123	31.8302	 
470.0	1.0	0.0	7.75296	7.18949	-8.83179	17.98798	19.98709	1.21156	0.82538	167.11733	152.70649	63.41708	0.31761	 	2.5278899999999997E14	 	1.43484E-14	 	17700.497	31.7252	 
465.0	1.0	0.0	7.75515	7.18746	-8.85755	17.97325	19.91897	1.20752	0.82814	167.51171	152.89143	63.57683	0.3174	 	3.38325E14	 	1.06487E-14	 	17542.387	31.622	 
460.0	1.0	0.0	7.75733	7.18543	-8.88326	17.95853	19.85083	1.20346	0.83094	167.90523	153.07518	63.73632	0.31719	 	4.54608E14	 	7.87122E-15	 	17384.785	31.5204	 
455.0	1.0	0.0	7.75952	7.18341	-8.90893	17.94383	19.78269	1.19937	0.83377	168.2979	153.25772	63.89552	0.31698	 	6.13346E14	 	5.79432E-15	 	17227.682	31.4206	 
450.0	1.0	0.0	7.7617	7.18138	-8.93456	17.92915	19.71454	1.19525	0.83664	168.68971	153.43907	64.05446	0.31677	 	8.30949E14	 	4.24757E-15	 	17071.071	31.3222	 
445.0	1.0	0.0	7.76389	7.17937	-8.96015	17.91447	19.64639	1.19111	0.83956	169.08066	153.61922	64.21311	0.31656	 	1.13053E15	 	3.10042E-15	 	16914.945	31.2252	 
440.0	1.0	0.0	7.76607	7.17735	-8.9857	17.89981	19.57823	1.18693	0.84251	169.47073	153.79817	64.37148	0.31635	 	1.54478E15	 	2.25321E-15	 	16759.297	31.1296	 
435.0	1.0	0.0	7.76824	7.17534	-9.01121	17.88516	19.51006	1.18273	0.8455	169.85993	153.97592	64.52958	0.31614	 	2.12015E15	 	1.63021E-15	 	16604.12	31.0354	 
430.0	1.0	0.0	7.77042	7.17333	-9.03668	17.87053	19.44189	1.17849	0.84854	170.24826	154.15247	64.68738	0.31593	 	2.92298E15	 	1.17411E-15	 	16449.407	30.9426	 
425.0	1.0	0.0	7.77259	7.17133	-9.0621	17.85591	19.37371	1.17423	0.85162	170.63569	154.32782	64.84491	0.31572	 	4.04842E15	 	8.41686E-16	 	16295.153	30.8508	 
420.0	1.0	0.0	7.77476	7.16932	-9.08749	17.8413	19.30553	1.16994	0.85475	171.02224	154.50197	65.00214	0.31551	 	5.63361E15	 	6.0052E-16	 	16141.351	30.7604	 
415.0	1.0	0.0	7.77693	7.16733	-9.11284	17.8267	19.23733	1.16562	0.85791	171.4079	154.67493	65.15909	0.3153	 	7.87727E15	 	4.26377E-16	 	15987.997	30.6708	 
410.0	1.0	0.0	7.77909	7.16533	-9.13814	17.81212	19.16913	1.16127	0.86113	171.79266	154.84668	65.31574	0.31509	 	1.10687E16	 	3.01235E-16	 	15835.084	30.5826	 
405.0	1.0	0.0	7.78126	7.16334	-9.16341	17.79756	19.10093	1.15688	0.86439	172.17652	155.01723	65.47211	0.31488	 	1.56315E16	 	2.11745E-16	 	15682.608	30.4952	 
400.0	1.0	0.0	7.78342	7.16135	-9.18863	17.783	19.03271	1.15247	0.8677	172.55947	155.18658	65.62817	0.31468	 	2.21886E16	 	1.4807E-16	 	15530.564	30.4088	 
395.0	1.0	0.0	7.78558	7.15936	-9.21382	17.76846	18.96449	1.14802	0.87106	172.94151	155.35474	65.78394	0.31447	 	3.16621E16	 	1.02996E-16	 	15378.946	30.3236	 
390.0	1.0	0.0	7.78774	7.15738	-9.23896	17.75394	18.89626	1.14355	0.87447	173.32264	155.52169	65.93941	0.31426	 	4.54234E16	 	7.12555E-17	 	15227.751	30.239	 
385.0	1.0	0.0	7.78989	7.1554	-9.26407	17.73942	18.82803	1.13904	0.87793	173.70285	155.68745	66.09459	0.31405	 	6.55244E16	 	4.9024E-17	 	15076.974	30.1554	 
380.0	1.0	0.0	7.79204	7.15342	-9.28914	17.72492	18.75979	1.1345	0.88145	174.08213	155.85201	66.24946	0.31384	 	9.50526E16	 	3.35379E-17	 	14926.611	30.0726	 
375.0	1.0	0.0	7.79419	7.15145	-9.31416	17.71043	18.69154	1.12992	0.88502	174.46049	156.01537	66.40402	0.31363	 	1.38682E17	 	2.28109E-17	 	14776.658	29.9906	 
370.0	1.0	0.0	7.79634	7.14948	-9.33915	17.69596	18.62328	1.12531	0.88864	174.83792	156.17753	66.55828	0.31342	 	2.03529E17	 	1.54231E-17	 	14627.111	29.9094	 
365.0	1.0	0.0	7.79849	7.14751	-9.36409	17.6815	18.55502	1.12067	0.89232	175.21441	156.33849	66.71224	0.31321	 	3.00502E17	 	1.03648E-17	 	14477.966	29.829	 
360.0	1.0	0.0	7.80063	7.14555	-9.389	17.66705	18.48675	1.116	0.89606	175.58996	156.49826	66.86588	0.313	 	4.46418E17	 	6.92232E-18	 	14329.22	29.7492	 
355.0	1.0	0.0	7.80277	7.14359	-9.41386	17.65262	18.41847	1.11129	0.89985	175.96457	156.65683	67.01922	0.31279	 	6.67381E17	 	4.59385E-18	 	14180.869	29.6702	 
350.0	1.0	0.0	7.80491	7.14163	-9.43869	17.6382	18.35018	1.10655	0.90371	176.33824	156.81421	67.17224	0.31258	 	1.00418E18	 	3.02879E-18	 	14032.911	29.5916	 
345.0	1.0	0.0	7.80705	7.13967	-9.46347	17.6238	18.28189	1.10177	0.90763	176.71095	156.97039	67.32495	0.31237	 	1.52096E18	 	1.98364E-18	 	13885.341	29.514	 
340.0	1.0	0.0	7.80918	7.13772	-9.48822	17.6094	18.21359	1.09696	0.91161	177.08271	157.12538	67.47735	0.31216	 	2.31936E18	 	1.29029E-18	 	13738.157	29.4368	 
335.0	1.0	0.0	7.81131	7.13577	-9.51293	17.59502	18.14528	1.09211	0.91566	177.45351	157.27917	67.62943	0.31195	 	3.56149E18	 	8.33423E-19	 	13591.357	29.36	 
330.0	1.0	0.0	7.81344	7.13383	-9.5376	17.58066	18.07696	1.08722	0.91978	177.82335	157.43178	67.78119	0.31175	 	5.5079E18	 	5.34474E-19	 	13444.937	29.284	 
325.0	1.0	0.0	7.81557	7.13189	-9.56222	17.5663	18.00863	1.0823	0.92396	178.19223	157.58319	67.93263	0.31154	 	8.58038E18	 	3.40244E-19	 	13298.894	29.2086	 
320.0	1.0	0.0	7.8177	7.12995	-9.58681	17.55196	17.9403	1.07734	0.92821	178.56014	157.73341	68.08375	0.31133	 	1.34671E19	 	2.1497E-19	 	13153.226	29.1336	 
315.0	1.0	0.0	7.81982	7.12801	-9.61136	17.53764	17.87195	1.07234	0.93254	178.92707	157.88245	68.23455	0.31112	 	2.12996E19	 	1.34773E-19	 	13007.931	29.059	 
310.0	1.0	0.0	7.82194	7.12608	-9.63587	17.52333	17.8036	1.06731	0.93694	179.29304	158.03029	68.38503	0.31091	 	3.39535E19	 	8.38268E-20	 	12863.007	28.9848	 
305.0	1.0	0.0	7.82406	7.12415	-9.66034	17.50903	17.73524	1.06224	0.94141	179.65803	158.17696	68.53518	0.3107	 	5.45633E19	 	5.17162E-20	 	12718.45	28.9114	 
300.0	1.0	0.0	7.82618	7.12222	-9.68477	17.49474	17.66687	1.05713	0.94596	180.02204	158.32243	68.68501	0.31049	 	8.84123E19	 	3.16404E-20	 	12574.26	28.838	 
295.0	1.0	0.0	7.82829	7.1203	-9.70917	17.48047	17.59849	1.05197	0.95059	180.38507	158.46673	68.83451	0.31028	 	1.4448199999999998E20	 	1.91927E-20	 	12430.434	28.7652	 
290.0	1.0	0.0	7.8304	7.11838	-9.73352	17.46621	17.5301	1.04678	0.95531	180.74711	158.60984	68.98368	0.31007	 	2.3817999999999997E20	 	1.154E-20	 	12286.969	28.693	 
285.0	1.0	0.0	7.83251	7.11646	-9.75784	17.45196	17.46171	1.04155	0.9601	181.10817	158.75177	69.13252	0.30986	 	3.9617499999999997E20	 	6.87624E-21	 	12143.865	28.6208	 
280.0	1.0	0.0	7.83462	7.11455	-9.78211	17.43773	17.3933	1.03628	0.96499	181.46824	158.89253	69.28103	0.30965	 	6.65064E20	 	4.05944E-21	 	12001.12	28.549	 
275.0	1.0	0.0	7.83673	7.11264	-9.80635	17.42351	17.32489	1.03097	0.96996	181.82731	159.03211	69.42922	0.30944	 	1.12706E21	 	2.37378E-21	 	11858.731	28.4778	 
270.0	1.0	0.0	7.83883	7.11073	-9.83055	17.40931	17.25647	1.02562	0.97502	182.1854	159.17051	69.57707	0.30923	 	1.9286200000000001E21	 	1.37455E-21	 	11716.698	28.4066	 
265.0	1.0	0.0	7.84093	7.10882	-9.8547	17.39512	17.18803	1.02022	0.98018	182.54249	159.30775	69.72458	0.30903	 	3.33337E21	 	7.87965E-22	 	11575.019	28.3358	 
260.0	1.0	0.0	7.84303	7.10692	-9.87883	17.38094	17.11959	1.01478	0.98543	182.89858	159.44382	69.87177	0.30882	 	5.82073E21	 	4.47053E-22	 	11433.692	28.2654	 
255.0	1.0	0.0	7.84513	7.10502	-9.90291	17.36677	17.05114	1.0093	0.99078	183.25368	159.57872	70.01862	0.30861	 	1.0272E22	 	2.5095E-22	 	11292.717	28.195	 
250.0	1.0	0.0	7.84722	7.10313	-9.92695	17.35262	16.98268	1.00378	0.99624	183.60778	159.71246	70.16513	0.3084	 	1.8325299999999999E22	 	1.39335E-22	 	11152.093	28.1248	 
245.0	1.0	0.0	7.84931	7.10123	-9.95095	17.33848	16.9142	0.99821	1.00179	183.96087	159.84504	70.31131	0.30819	 	3.3059699999999997E22	 	7.64969E-23	 	11011.818	28.055	 
240.0	1.0	0.0	7.8514	7.09934	-9.97492	17.32436	16.84572	0.9926	1.00746	184.31297	159.97647	70.45716	0.30798	 	6.0330899999999996E22	 	4.15137E-23	 	10871.891	27.9854	 
235.0	1.0	0.0	7.85349	7.09746	-9.99885	17.31025	16.77723	0.98694	1.01324	184.66407	160.10674	70.60266	0.30777	 	1.1140999999999999E23	 	2.22616E-23	 	10732.311	27.916	 
230.0	1.0	0.0	7.85557	7.09557	-10.02274	17.29615	16.70873	0.98123	1.01913	185.01416	160.23586	70.74783	0.30756	 	2.08258E23	 	1.17919E-23	 	10593.079	27.8464	 
225.0	1.0	0.0	7.85766	7.09369	-10.04659	17.28206	16.64021	0.97548	1.02513	185.36326	160.36383	70.89267	0.30735	 	3.9421499999999995E23	 	6.16756E-24	 	10454.193	27.7772	 
220.0	1.0	0.0	7.85974	7.09181	-10.0704	17.26799	16.57169	0.96968	1.03126	185.71135	160.49067	71.03717	0.30714	 	7.559369999999999E23	 	3.18405E-24	 	10315.652	27.7082	 
215.0	1.0	0.0	7.86182	7.08994	-10.09417	17.25393	16.50316	0.96384	1.03752	186.05844	160.61636	71.18133	0.30693	 	1.46903E24	 	1.62185E-24	 	10177.457	27.639	 
210.0	1.0	0.0	7.86389	7.08807	-10.11791	17.23989	16.43461	0.95794	1.0439	186.40454	160.74092	71.32516	0.30672	 	2.89433E24	 	8.14743E-25	 	10039.607	27.57	 
205.0	1.0	0.0	7.86597	7.0862	-10.14161	17.22586	16.36606	0.952	1.05042	186.74963	160.86436	71.46865	0.30651	 	5.78396E24	 	4.03483E-25	 	9902.102	27.501	 
200.0	1.0	0.0	7.86804	7.08433	-10.16527	17.21184	16.29749	0.94601	1.05707	187.09373	160.98667	71.6118	0.30631	 	1.17289E25	 	1.96892E-25	 	9764.942	27.432	 
195.0	1.0	0.0	7.87011	7.08247	-10.18889	17.19784	16.22892	0.93997	1.06387	187.43683	161.10786	71.75462	0.3061	 	2.41462E25	 	9.46286E-26	 	9628.127	27.363	 
190.0	1.0	0.0	7.87217	7.08061	-10.21247	17.18385	16.16033	0.93388	1.07081	187.77895	161.22793	71.89711	0.30589	 	5.049080000000001E25	 	4.4771E-26	 	9491.657	27.294	 
185.0	1.0	0.0	7.87424	7.07875	-10.23602	17.16987	16.09173	0.92773	1.0779	188.12007	161.34691	72.03926	0.30568	 	1.0729200000000002E26	 	2.08414E-26	 	9355.532	27.225	 
180.0	1.0	0.0	7.8763	7.0769	-10.25952	17.15591	16.02312	0.92154	1.08514	188.4602	161.46478	72.18108	0.30547	 	2.31818E26	 	9.54073E-27	 	9219.754	27.1556	 
175.0	1.0	0.0	7.87836	7.07505	-10.28299	17.14195	15.9545	0.91529	1.09255	188.79936	161.58155	72.32257	0.30526	 	5.095570000000001E26	 	4.29257E-27	 	9084.322	27.0864	 
170.0	1.0	0.0	7.88042	7.0732	-10.30643	17.12802	15.88586	0.90899	1.10013	189.13753	161.69724	72.46372	0.30505	 	1.14014E27	 	1.89706E-27	 	8949.237	27.017	 
165.0	1.0	0.0	7.88248	7.07135	-10.32982	17.11409	15.81722	0.90263	1.10787	189.47473	161.81185	72.60455	0.30484	 	2.59839E27	 	8.2301E-28	 	8814.501	26.9472	 
160.0	1.0	0.0	7.88453	7.06951	-10.35318	17.10018	15.74856	0.89622	1.1158	189.81096	161.92539	72.74506	0.30463	 	6.03547E27	 	3.50279E-28	 	8680.115	26.8772	 
155.0	1.0	0.0	7.88658	7.06767	-10.3765	17.08629	15.67989	0.88976	1.1239	190.14622	162.03787	72.88524	0.30442	 	1.42977E28	 	1.46156E-28	 	8546.079	26.8072	 
150.0	1.0	0.0	7.88863	7.06584	-10.39978	17.0724	15.61121	0.88323	1.1322	190.48053	162.14929	73.0251	0.30421	 	3.4568E28	 	5.97457E-29	 	8412.395	26.7368	 
145.0	1.0	0.0	7.89068	7.06401	-10.42302	17.05853	15.54251	0.87665	1.1407	190.81389	162.25966	73.16463	0.304	 	8.53593E28	 	2.39094E-29	 	8279.065	26.666	 
140.0	1.0	0.0	7.89272	7.06218	-10.44623	17.04468	15.47381	0.87002	1.1494	191.1463	162.369	73.30386	0.30379	 	2.1544200000000003E29	 	9.35976E-30	 	8146.09	26.595	 
135.0	1.0	0.0	7.89476	7.06035	-10.4694	17.03083	15.40509	0.86332	1.15832	191.47778	162.47731	73.44276	0.30359	 	5.562370000000001E29	 	3.58135E-30	 	8013.474	26.5232	 
130.0	1.0	0.0	7.8968	7.05852	-10.49253	17.017	15.33636	0.85657	1.16745	191.80834	162.58461	73.58136	0.30338	 	1.4703099999999999E30	 	1.33827E-30	 	7881.217	26.4514	 
125.0	1.0	0.0	7.89884	7.0567	-10.51562	17.00319	15.26761	0.84975	1.17681	192.13798	162.69091	73.71965	0.30317	 	3.98253E30	 	4.87949E-31	 	7749.322	26.379	 
120.0	1.0	0.0	7.90088	7.05488	-10.53868	16.98938	15.19886	0.84288	1.18641	192.46672	162.79622	73.85764	0.30296	 	1.10641E31	 	1.73431E-31	 	7617.792	26.306	 
115.0	1.0	0.0	7.90291	7.05307	-10.5617	16.97559	15.13009	0.83594	1.19626	192.79456	162.90055	73.99533	0.30275	 	3.1557899999999998E31	 	6.00313E-32	 	7486.631	26.2322	 
110.0	1.0	0.0	7.90494	7.05126	-10.58468	16.96182	15.0613	0.82894	1.20636	193.12153	163.00392	74.13272	0.30254	 	9.25081E31	 	2.02151E-32	 	7355.84	26.1582	 
105.0	1.0	0.0	7.90697	7.04945	-10.60763	16.94805	14.9925	0.82188	1.21672	193.44762	163.10634	74.26983	0.30233	 	2.78999E32	 	6.61528E-33	 	7225.425	26.083	 
100.0	1.0	0.0	7.909	7.04764	-10.63054	16.9343	14.92369	0.81475	1.22737	193.77287	163.20782	74.40666	0.30212	 	8.6671E32	 	2.10134E-33	 	7095.388	26.0074	 
95.0	1.0	0.0	7.91102	7.04584	-10.65341	16.92057	14.85487	0.80756	1.2383	194.09729	163.3084	74.54321	0.30191	 	2.77662E33	 	6.47135E-34	 	6965.733	25.931	 
90.0	1.0	0.0	7.91305	7.04404	-10.67624	16.90685	14.78603	0.8003	1.24953	194.42088	163.40807	74.67949	0.3017	 	9.18507E33	 	1.9297E-34	 	6836.466	25.8534	 
85.0	1.0	0.0	7.91507	7.04224	-10.69904	16.89314	14.71718	0.79297	1.26108	194.74368	163.50687	74.8155	0.30149	 	3.1416400000000003E34	 	5.56411E-35	 	6707.591	25.775	 
80.0	1.0	0.0	7.91708	7.04044	-10.7218	16.87944	14.64831	0.78558	1.27295	195.06571	163.6048	74.95126	0.30128	 	1.1126299999999998E35	 	1.54915E-35	 	6579.113	25.6956	 
75.0	1.0	0.0	7.9191	7.03865	-10.74453	16.86576	14.57943	0.77811	1.28516	195.38698	163.7019	75.08678	0.30107	 	4.0862399999999996E35	 	4.15843E-36	 	6451.038	25.615	 
70.0	1.0	0.0	7.92111	7.03686	-10.76722	16.85209	14.51053	0.77058	1.29772	195.70751	163.79819	75.22206	0.30087	 	1.5586899999999998E36	 	1.07451E-36	 	6323.372	25.5332	 
65.0	1.0	0.0	7.92312	7.03508	-10.78987	16.83843	14.44162	0.76298	1.31066	196.02735	163.89368	75.35711	0.30066	 	6.18571E36	 	2.66813E-37	 	6196.121	25.4502	 
60.0	1.0	0.0	7.92513	7.03329	-10.81248	16.82479	14.37269	0.7553	1.32398	196.34651	163.98841	75.49194	0.30045	 	2.55852E37	 	6.35533E-38	 	6069.293	25.3656	 
55.0	1.0	0.0	7.92714	7.03151	-10.83506	16.81116	14.30375	0.74755	1.3377	196.66502	164.0824	75.62657	0.30024	 	1.10504E38	 	1.44938E-38	 	5942.896	25.2794	 
50.0	1.0	0.0	7.92914	7.02973	-10.8576	16.79755	14.23479	0.73973	1.35185	196.98291	164.17568	75.76101	0.30003	 	4.9937799999999995E38	 	3.15836E-39	 	5816.937	25.1918	 
45.0	1.0	0.0	7.93115	7.02796	-10.88011	16.78394	14.16582	0.73183	1.36644	197.30023	164.26829	75.89526	0.29982	 	2.3663E39	 	6.56219E-40	 	5691.425	25.1024	 
40.0	1.0	0.0	7.93315	7.02619	-10.90257	16.77036	14.09683	0.72385	1.3815	197.61701	164.36026	76.02936	0.29961	 	1.17838E40	 	1.29704E-40	 	5566.369	25.0112	 
35.0	1.0	0.0	7.93515	7.02442	-10.92501	16.75678	14.02783	0.7158	1.39705	197.93328	164.45162	76.1633	0.2994	 	6.182E40	 	2.43287E-41	 	5441.781	24.9176	 
30.0	1.0	0.0	7.93714	7.02265	-10.9474	16.74323	13.95881	0.70766	1.4131	198.2491	164.54241	76.29711	0.29919	 	3.4254500000000004E41	 	4.31944E-42	 	5317.671	24.822	 
25.0	1.0	0.0	7.93913	7.02089	-10.96976	 	13.88977	0.69945	1.42969	198.56452	164.63267	76.4308	0.29898	 	2.01023E42	 	7.23897E-43	 	5194.051	 	 
