T (C)	Fraction solid (wt)-TOTAL	Fraction liquid (wt)-LIQUID	Density (g/(cm)^3)-TOTAL	Molar volume (cm^3)-TOTAL	Volume change (%)-  	Average expansion coeff. (10e-6 1/K)-  	Thermal conductivity (W/(m*K))-TOTAL	Electrical resistivity (10e-6 Ohm*m)-TOTAL	Electrical conductivity (10e6 1/(Ohm*m))-TOTAL	Young's modulus (GPa)-TOTAL	Bulk modulus (GPa)-TOTAL	Shear modulus(GPa)-TOTAL	Poisson's ratio-TOTAL	Liquid viscosity (mPa s)-  	Total viscosity (mPa s)-  	Liquid diffusivity (10e-9 (m^2)/s)-  	Total diffusivity (10e-9 (m^2)/s)-  	Surface Tension (mN/m)-  	Enthalpy (J/mole)-TOTAL	Specific heat (J/(mole K))-TOTAL	Latent heat (J/mole)-TOTAL
1500.0	0.0	1.0	7.05278	7.89901	0.0	27.04457	30.81159	1.87521	0.53327	0.0	108.05447	0.0	0.49974	6.98028	6.98028	1.23982	1.23982	1770.56683	65462.674	 	0.0
1495.0	0.0	1.0	7.05669	7.89464	-0.0553719	26.99597	30.73439	1.87462	0.53344	0.0	108.24051	0.0	0.49974	7.04221	7.04221	1.22545	1.22545	1772.35494	65241.654	44.204	0.0
1490.0	0.0	1.0	7.06059	7.89028	-0.11059	26.94744	30.65719	1.87402	0.53361	0.0	108.42655	0.0	0.49974	7.10504	7.10504	1.21118	1.21118	1774.1401	65021.125	44.1058	0.0
1485.0	0.0	1.0	7.06448	7.88593	-0.16565	26.89896	30.57999	1.87342	0.53378	0.0	108.61259	0.0	0.49974	7.1688	7.1688	1.197	1.197	1775.92229	64801.085	44.008	0.0
1480.0	0.0	1.0	7.06837	7.88159	-0.22056	26.85056	30.50279	1.87282	0.53395	0.0	108.79863	0.0	0.49974	7.2335	7.2335	1.18292	1.18292	1777.70146	64581.53	43.911	0.0
1475.0	0.0	1.0	7.07225	7.87727	-0.27531	26.80221	30.42559	1.87222	0.53412	0.0	108.98467	0.0	0.49974	7.29916	7.29916	1.16894	1.16894	1779.47759	64362.456	43.8148	0.0
1470.0	0.0	1.0	7.07613	7.87295	-0.32991	26.75393	30.3484	1.87162	0.5343	0.0	109.17072	0.0	0.49974	7.3658	7.3658	1.15505	1.15505	1781.25064	64143.862	43.7188	0.0
1465.0	0.0	1.0	7.07999	7.86865	-0.38435	26.70572	30.2712	1.87101	0.53447	0.0	109.35676	0.0	0.49974	7.43343	7.43343	1.14126	1.14126	1783.02058	63925.742	43.624	0.0
1460.0	0.0	1.0	7.08385	7.86436	-0.43864	26.65758	30.194	1.87039	0.53465	0.0	109.5428	0.0	0.49974	7.50208	7.50208	1.12756	1.12756	1784.78736	63708.095	43.5294	0.0
1455.0	0.0	1.0	7.08771	7.86009	-0.49278	26.6095	30.1168	1.86978	0.53482	0.0	109.72884	0.0	0.49974	7.57177	7.57177	1.11396	1.11396	1786.55096	63490.917	43.4356	0.0
1450.0	0.0	1.0	7.09155	7.85582	-0.54675	26.56149	30.0396	1.86916	0.535	0.0	109.91488	0.0	0.49974	7.64252	7.64252	1.10046	1.10046	1788.31133	63274.238	43.3358	0.0
1445.0	0.0	1.0	7.09539	7.85157	-0.60058	26.51355	29.96241	1.86854	0.53518	0.0	110.10092	0.0	0.49974	7.71434	7.71434	1.08705	1.08705	1790.06845	63058.109	43.2258	0.0
1440.0	0.0	1.0	7.09923	7.84733	-0.65425	26.46567	29.88521	1.86791	0.53536	0.0	110.28696	0.0	0.49974	7.78726	7.78726	1.07374	1.07374	1791.82226	62842.519	43.118	0.0
1435.0	0.0	1.0	7.10305	7.84311	-0.70776	26.41787	29.80801	1.86729	0.53554	0.0	110.47301	0.0	0.49974	7.86131	7.86131	1.06052	1.06052	1793.57273	62627.466	43.0106	0.0
1430.0	0.0	1.0	7.10687	7.83889	-0.76112	26.37014	29.73081	1.86665	0.53572	0.0	110.65905	0.0	0.49974	7.9365	7.9365	1.0474	1.0474	1795.31983	62412.947	42.9038	0.0
1425.57	0.0	1.0	7.11025	7.83517	-0.80824	26.32794	29.66246	1.86609	0.53588	0.0	110.82376	0.0	0.49974	8.00405	8.00405	1.03586	1.03586	1796.86382	62223.46	42.8036	0.0
1425.0	0.0186	0.9814	7.11374	7.83132	-0.85696	26.20882	29.74794	1.8601	0.5376	7.29378E-6	110.199	2.43611E-6	0.49701	8.00939	8.20894	1.03482	1.00966	1796.74815	62035.881	327.3	163.072
1420.0	0.16653	0.83347	7.14185	7.80046	-1.24771	25.25732	30.44088	1.81241	0.55175	0.04786	105.27192	0.0162215	0.4752	8.05662	13.22992	1.02572	0.62463	1795.78896	60528.922	301.392	1456.566
1418.47	0.20406	0.79594	7.14908	7.79257	-1.34753	25.01772	30.61826	1.80028	0.55547	0.10853	104.04001	0.0369231	0.46963	8.07167	17.89008	1.02288	0.46151	1795.515	60136.172	 	1784.084
1415.0	0.34311	0.65689	7.1728	7.76679	-1.67397	24.20367	31.03486	1.77247	0.56418	0.49894	101.43968	0.17205	0.44997	8.11564	96.8486	1.01525	0.0850755	1793.33092	58538.643	398.056	3233.902
1410.0	0.49071	0.50929	7.1987	7.73884	-2.02775	23.33769	31.48178	1.74213	0.57401	2.12993	98.94602	0.74531	0.42889	8.17941	433.96365	1.00436	0.0189302	1790.45861	56793.535	349.022	4766.588
1405.0	0.59367	0.40633	7.21758	7.71858	-2.28425	22.72853	31.78889	1.72018	0.58134	5.38027	97.39378	1.90248	0.41401	8.24407	1009.07835	0.99352	0.00811694	1787.85277	55519.823	254.742	5828.39
1400.0	0.66809	0.33191	7.23197	7.7032	-2.47897	22.28264	31.99853	1.70382	0.58692	10.05055	96.42103	3.58143	0.40315	8.30935	1741.59583	0.98278	0.00468893	1785.48359	54546.71	194.623	6590.107
1395.0	0.72354	0.27646	7.24338	7.69105	-2.63272	21.94511	32.14157	1.69116	0.59131	15.57277	95.82468	5.58179	0.39496	8.37554	2564.10595	0.9721	0.00317531	1783.32317	53773.095	154.723	7152.831
1390.0	0.76591	0.23409	7.25272	7.68114	-2.7582	21.6824	32.23795	1.68105	0.59486	21.36698	95.48198	7.69349	0.38864	8.44273	3434.97236	0.96147	0.00236317	1781.34579	53136.467	127.326	7579.073
1385.0	0.799	0.201	7.26059	7.67282	-2.86353	21.47305	32.30039	1.67276	0.59781	27.01878	95.31562	9.76364	0.38364	8.51123	4332.05501	0.95086	0.00186817	1779.52919	52596.914	107.911	7908.741
1380.0	0.82533	0.17467	7.26741	7.66562	-2.95471	21.30113	32.33755	1.6658	0.60031	32.2989	95.27515	11.70578	0.37961	8.58032	5245.80609	0.94036	0.00153811	1777.8571	52127.926	93.7976	8168.342
1375.0	0.84662	0.15338	7.27342	7.6593	-3.03478	21.15867	32.36083	1.65957	0.60257	37.11323	95.32696	13.48288	0.37631	8.65113	6173.76701	0.92985	0.00130297	1776.30884	51711.427	83.2998	8375.948
1370.0	0.86409	0.13591	7.27883	7.6536	-3.10685	21.03735	32.36484	1.65433	0.60448	41.44844	95.44707	15.08801	0.37356	8.72284	7117.29596	0.9194	0.00112681	1774.8739	51334.776	75.3302	8544.199
1365.0	0.87865	0.12135	7.2838	7.64839	-3.17287	20.93197	32.35739	1.64967	0.60618	45.34724	95.61908	16.53534	0.37122	8.79546	8082.70486	0.90904	9.89199E-4	1773.53884	50988.43	69.2692	8682.632
1360.0	0.89095	0.10905	7.28841	7.64356	-3.23399	20.83947	32.34103	1.64547	0.60773	48.85922	95.83091	17.84207	0.36921	8.86977	9076.17389	0.89867	8.78233E-4	1772.29004	50665.706	64.5448	8797.933
1358.19	0.89492	0.10508	7.29001	7.64187	-3.25539	20.8079	32.33314	1.64404	0.60826	50.03795	95.91543	18.28129	0.36856	8.89685	9442.68296	0.89494	8.43209E-4	1771.8513	50553.919	 	8834.651
1355.0	0.90445	0.0955498	7.29398	7.63771	-3.30802	20.71009	32.33272	1.64085	0.60944	52.91305	96.01864	19.35352	0.36701	8.96215	10234.21712	0.88668	7.76473E-4	1771.93407	50326.45	67.8512	8930.244
1350.0	0.917	0.0829986	7.2996	7.63183	-3.38251	20.5784	32.32183	1.63637	0.61111	56.88862	96.22351	20.83918	0.36494	9.06536	11481.33674	0.8739	6.90006E-4	1772.08281	49996.025	66.085	9054.204
1345.0	0.92726	0.0727406	7.30463	7.62656	-3.44921	20.46777	32.30112	1.63237	0.61261	60.32095	96.46885	22.12459	0.36321	9.17054	12746.53926	0.86121	6.19603E-4	1772.241	49691.033	60.9984	9153.208
1340.0	0.93579	0.0642136	7.30925	7.62173	-3.51038	20.37199	32.27289	1.62875	0.61397	63.32238	96.74428	23.25069	0.36173	9.27701	14043.20156	0.8487	5.60655E-4	1772.41304	49405.297	57.1472	9233.428
1335.0	0.94297	0.0570333	7.31354	7.61726	-3.56699	20.28846	32.23884	1.62542	0.61523	65.97408	97.04294	24.24715	0.36045	9.3856	15382.43909	0.83628	5.10256E-4	1772.59131	49134.539	54.1516	9299.138
1330.0	0.94908	0.050916	7.31757	7.61304	-3.62032	20.21367	32.20012	1.62231	0.6164	68.34217	97.35945	25.13826	0.35933	9.49553	16775.05214	0.82403	4.66441E-4	1772.78135	48875.638	51.7802	9353.462
1325.0	0.95435	0.0456507	7.32139	7.60906	-3.67074	20.14665	32.15766	1.61939	0.61752	70.47599	97.6905	25.94218	0.35833	9.60766	18231.11235	0.81187	4.2785E-4	1772.97436	48626.267	49.8742	9398.72
1320.0	0.95892	0.0410781	7.32505	7.60525	-3.71904	20.08524	32.11217	1.61661	0.61858	72.4168	98.03279	26.67418	0.35743	9.72167	19760.29737	0.79984	3.93505E-4	1773.17565	48384.668	48.3198	9436.668
1315.0	0.96293	0.037074	7.32858	7.60157	-3.76561	20.02835	32.06415	1.61395	0.6196	74.19599	98.38433	27.34588	0.35662	9.8371	21372.48903	0.78797	3.6268E-4	1773.38493	48149.487	47.0362	9468.656
1310.0	0.96646	0.0335438	7.332	7.59801	-3.81069	19.97536	32.01404	1.61139	0.62058	75.83876	98.74334	27.96663	0.35588	9.95488	23077.44519	0.7762	3.34827E-4	1773.59826	47919.671	45.9632	9495.736
1305.0	0.96959	0.0304102	7.33533	7.59455	-3.85449	19.92567	31.96218	1.6089	0.62154	77.36538	99.10867	28.54396	0.3552	10.07462	24885.17557	0.76455	3.09524E-4	1773.81412	47694.386	45.057	9518.739
1300.0	0.97239	0.0276136	7.33858	7.59117	-3.89727	19.87859	31.90881	1.60649	0.62248	78.79309	99.47923	29.08429	0.35456	10.19634	26806.32545	0.75303	2.86431E-4	1774.03397	47472.967	44.2838	9538.326
1295.0	0.9749	0.0251044	7.34176	7.58786	-3.93913	19.83383	31.85416	1.60413	0.62339	80.13524	99.8542	29.59259	0.35397	10.32056	28851.75679	0.7416	2.65278E-4	1774.25507	47254.874	43.6186	9555.034
1290.0	0.97716	0.0228414	7.34489	7.58461	-3.98031	19.79072	31.79843	1.60182	0.62429	81.40339	100.23267	30.07319	0.35342	10.4463	31032.73625	0.73034	2.45848E-4	1774.48357	47039.672	43.0404	9569.298
1285.0	0.97921	0.0207926	7.34797	7.58141	-4.02078	19.74939	31.74172	1.59955	0.62518	82.60667	100.61443	30.52948	0.3529	10.5747	33362.05314	0.71916	2.27952E-4	1774.71057	46826.999	42.5346	9581.475
1280.0	0.98107	0.0189322	7.35101	7.57826	-4.06063	19.70957	31.68418	1.59731	0.62605	83.75235	100.99882	30.96419	0.35241	10.70571	35852.16873	0.70808	2.11439E-4	1774.93705	46616.57	42.0858	9591.848
1275.0	0.98276	0.0172354	7.35401	7.57515	-4.1	19.67084	31.6259	1.5951	0.62692	84.84837	101.38546	31.38028	0.35194	10.83889	38517.81721	0.69713	1.96172E-4	1775.16643	46408.117	41.6906	9600.683
1272.78	0.98353	0.0164694	7.35536	7.57375	-4.11778	19.65267	31.60003	1.59411	0.62731	85.34393	101.55756	31.56848	0.35173	10.89844	39773.10863	0.69233	1.89708E-4	1775.26707	46315.694	 	9604.553
1270.0	0.98498	0.0150223	7.35717	7.57188	-4.14144	19.62562	31.57187	1.59267	0.62788	86.15342	101.771	31.87607	0.35138	10.9916	41478.43913	0.68523	1.81582E-4	1774.73555	46191.981	43.2272	9617.636
1265.0	0.98728	0.0127225	7.36038	7.56858	-4.18326	19.57888	31.51948	1.59015	0.62887	87.50844	102.15814	32.39122	0.35081	11.16177	44693.05457	0.67259	1.67975E-4	1773.81735	45973.097	43.7768	9637.768
1260.0	0.98923	0.0107691	7.36352	7.56534	-4.22421	19.53439	31.46507	1.58772	0.62983	88.74524	102.54848	32.86171	0.35028	11.33622	48110.50931	0.66009	1.55536E-4	1772.92723	45758.543	42.9108	9654.001
1255.0	0.9909	0.00909671	7.36661	7.56216	-4.26443	19.49175	31.40905	1.58536	0.63077	89.88518	102.94136	33.2956	0.34981	11.5144	51753.04297	0.64776	1.44118E-4	1772.06683	45547.561	42.1964	9667.089
1250.0	0.99235	0.0076547	7.36966	7.55904	-4.30404	19.45062	31.35177	1.58306	0.63169	90.94556	103.33603	33.69942	0.34936	11.69692	55644.05526	0.63556	1.33601E-4	1771.23111	45339.548	41.6026	9677.633
1245.0	0.9936	0.00640261	7.37267	7.55595	-4.34314	19.41074	31.29336	1.58081	0.63259	91.93879	103.73216	34.07785	0.34895	11.88378	59808.63182	0.62351	1.2389E-4	1770.41971	45134.04	41.1016	9686.095
1240.0	0.99469	0.00530833	7.37566	7.55289	-4.38179	19.37187	31.23409	1.5786	0.63347	92.877	104.12945	34.43549	0.34857	12.07433	64272.95688	0.61165	1.14905E-4	1769.63677	44930.659	40.6762	9692.857
1235.0	0.99565	0.00434695	7.37862	7.54987	-4.42008	19.33385	31.17401	1.57641	0.63435	93.76857	104.52766	34.7755	0.3482	12.26935	69066.16653	0.59994	1.06578E-4	1768.87963	44729.108	40.3102	9698.22
1230.0	0.9965	0.00349877	7.38155	7.54687	-4.45801	19.29657	31.11332	1.57425	0.63522	94.62013	104.92646	35.10039	0.34785	12.46819	74217.13001	0.58842	9.88519E-5	1768.14926	44529.144	39.9928	9702.423
1225.0	0.99725	0.00274511	7.38447	7.5439	-4.49564	19.25994	31.05212	1.57211	0.63609	95.43794	105.3257	35.41252	0.34752	12.67137	79758.60207	0.57706	9.16779E-5	1767.44267	44330.571	39.7146	9705.66
1220.0	0.99793	0.00207352	7.38736	7.54095	-4.53297	19.22393	30.99043	1.56998	0.63695	96.22632	105.72534	35.71355	0.3472	12.87895	85726.374	0.56586	8.50111E-5	1766.76079	44133.226	39.469	9708.091
1215.0	0.99853	0.00147154	7.39024	7.53802	-4.57006	19.18839	30.92831	1.56786	0.63781	96.99021	106.12526	36.00533	0.34689	13.09051	92160.15033	0.55485	7.88116E-5	1766.10361	43936.975	39.2502	9709.848
1210.0	0.99907	9.30867E-4	7.3931	7.53511	-4.6069	19.15333	30.86581	1.56576	0.63867	97.73182	106.52521	36.28871	0.34659	13.30647	99099.30649	0.54401	7.30468E-5	1765.47207	43741.707	39.0536	9711.041
1205.0	0.99956	4.42153E-4	7.39595	7.53222	-4.64351	19.11869	30.80302	1.56366	0.63952	98.45479	106.92529	36.56507	0.3463	13.52698	106591.6435	0.53334	6.76834E-5	1764.86317	43547.326	38.8762	9711.762
1200.0	1.0	0.0	7.39878	7.52935	-4.67989	19.08447	30.74005	1.56157	0.64038	99.16125	107.32535	36.83522	0.34601	 	114685.4923	 	6.26939E-5	 	43353.752	38.7148	9712.089
1195.0	1.0	0.0	7.40117	7.52691	-4.7107	19.06774	30.6743	1.5596	0.64119	99.66391	107.726	37.02758	0.34581	 	123225.0268	 	5.81511E-5	 	43154.697	39.811	 
1190.0	1.0	0.0	7.40356	7.52448	-4.74147	19.05102	30.60853	1.55763	0.642	100.16722	108.1263	37.22024	0.3456	 	132468.0004	 	5.39094E-5	 	42966.771	37.5852	 
1185.0	1.0	0.0	7.40595	7.52206	-4.77219	19.0343	30.54277	1.55565	0.64282	100.67118	108.52622	37.4132	0.3454	 	142477.7229	 	4.99507E-5	 	42779.069	37.5404	 
1180.0	1.0	0.0	7.40834	7.51963	-4.80286	19.01759	30.477	1.55366	0.64364	101.17575	108.92575	37.60645	0.34519	 	153323.6724	 	4.62581E-5	 	42591.615	37.4908	 
1175.0	1.0	0.0	7.41072	7.51722	-4.83348	19.00089	30.41123	1.55166	0.64447	101.68093	109.32488	37.79998	0.34499	 	165082.1402	 	4.28154E-5	 	42404.417	37.4396	 
1170.0	1.0	0.0	7.4131	7.5148	-4.86406	18.98419	30.34546	1.54966	0.6453	102.18669	109.72358	37.99379	0.34478	 	177836.9493	 	3.96074E-5	 	42217.476	37.3882	 
1165.0	1.0	0.0	7.41548	7.51239	-4.89459	18.9675	30.27968	1.54764	0.64614	102.69302	110.12184	38.18786	0.34458	 	191680.2528	 	3.66196E-5	 	42030.792	37.3368	 
1160.0	1.0	0.0	7.41786	7.50998	-4.92507	18.95082	30.2139	1.54562	0.64699	103.1999	110.51963	38.3822	0.34437	 	206713.4234	 	3.38384E-5	 	41844.363	37.2858	 
1155.0	1.0	0.0	7.42024	7.50758	-4.95551	18.93415	30.14812	1.54359	0.64784	103.7073	110.91695	38.5768	0.34417	 	223048.0437	 	3.12509E-5	 	41658.188	37.235	 
1150.0	1.0	0.0	7.42261	7.50518	-4.9859	18.91748	30.08233	1.54155	0.6487	104.21523	111.31378	38.77165	0.34396	 	240807.0109	 	2.88448E-5	 	41472.265	37.1846	 
1145.0	1.0	0.0	7.42498	7.50278	-5.01624	18.90082	30.01654	1.5395	0.64956	104.72364	111.71009	38.96674	0.34376	 	260125.7681	 	2.66088E-5	 	41286.594	37.1342	 
1140.0	1.0	0.0	7.42735	7.50039	-5.04654	18.88417	29.95075	1.53744	0.65043	105.23254	112.10587	39.16207	0.34355	 	281153.6798	 	2.45319E-5	 	41101.172	37.0844	 
1135.0	1.0	0.0	7.42972	7.498	-5.07679	18.86753	29.88495	1.53537	0.65131	105.7419	112.50111	39.35763	0.34335	 	304055.5672	 	2.26039E-5	 	40916.0	37.0344	 
1130.0	1.0	0.0	7.43208	7.49561	-5.10699	18.85089	29.81915	1.5333	0.65219	106.2517	112.89579	39.55341	0.34314	 	329013.4251	 	2.0815E-5	 	40731.074	36.9852	 
1125.0	1.0	0.0	7.43444	7.49323	-5.13714	18.83426	29.75335	1.53121	0.65308	106.76192	113.2899	39.74942	0.34294	 	356228.3423	 	1.91563E-5	 	40546.395	36.9358	 
1120.0	1.0	0.0	7.43681	7.49085	-5.16725	18.81763	29.68754	1.52912	0.65397	107.27256	113.68341	39.94563	0.34273	 	385922.65	 	1.76191E-5	 	40361.96	36.887	 
1115.0	1.0	0.0	7.43916	7.48848	-5.19732	18.80101	29.62173	1.52702	0.65487	107.78359	114.07631	40.14205	0.34253	 	418342.3301	 	1.61954E-5	 	40177.768	36.8384	 
1110.0	1.0	0.0	7.44152	7.48611	-5.22733	18.7844	29.55592	1.5249	0.65578	108.29499	114.46858	40.33868	0.34232	 	453759.7126	 	1.48775E-5	 	39993.817	36.7902	 
1105.0	1.0	0.0	7.44387	7.48374	-5.2573	18.7678	29.4901	1.52278	0.65669	108.80675	114.86022	40.53549	0.34212	 	492476.503	 	1.36583E-5	 	39810.107	36.742	 
1100.0	1.0	0.0	7.44623	7.48137	-5.28722	18.75121	29.42428	1.52065	0.65761	109.31886	115.2512	40.73249	0.34191	 	534827.1796	 	1.25312E-5	 	39626.635	36.6944	 
1095.0	1.0	0.0	7.44858	7.47901	-5.3171	18.73462	29.35846	1.51851	0.65854	109.83128	115.64152	40.92968	0.34171	 	581182.8101	 	1.14897E-5	 	39443.401	36.6468	 
1090.0	1.0	0.0	7.45092	7.47666	-5.34693	18.71803	29.29263	1.51636	0.65947	110.34402	116.03114	41.12703	0.3415	 	631955.3421	 	1.0528E-5	 	39260.402	36.5998	 
1085.0	1.0	0.0	7.45327	7.47431	-5.37671	18.70146	29.2268	1.5142	0.66041	110.85704	116.42007	41.32456	0.3413	 	687602.4303	 	9.64044E-6	 	39077.637	36.553	 
1080.0	1.0	0.0	7.45561	7.47196	-5.40645	18.68489	29.16096	1.51203	0.66136	111.37034	116.80828	41.52225	0.34109	 	748632.8707	 	8.82193E-6	 	38895.104	36.5066	 
1075.0	1.0	0.0	7.45795	7.46961	-5.43614	18.66833	29.09512	1.50986	0.66231	111.8839	117.19576	41.72009	0.34089	 	815612.7244	 	8.06754E-6	 	38712.802	36.4604	 
1070.0	1.0	0.0	7.46029	7.46727	-5.46579	18.65178	29.02928	1.50767	0.66328	112.3977	117.5825	41.91809	0.34068	 	889172.2217	 	7.37268E-6	 	38530.728	36.4148	 
1065.0	1.0	0.0	7.46263	7.46493	-5.49538	18.63523	28.96343	1.50547	0.66424	112.91172	117.96848	42.11623	0.34048	 	970013.5546	 	6.73308E-6	 	38348.882	36.3692	 
1060.0	1.0	0.0	7.46496	7.4626	-5.52494	18.61869	28.89758	1.50326	0.66522	113.42595	118.35369	42.31451	0.34027	 	1058919.676	 	6.14473E-6	 	38167.262	36.324	 
1055.0	1.0	0.0	7.46729	7.46027	-5.55444	18.60216	28.83173	1.50105	0.6662	113.94038	118.73811	42.51292	0.34007	 	1156764.248	 	5.60388E-6	 	37985.865	36.2794	 
1050.0	1.0	0.0	7.46962	7.45794	-5.5839	18.58563	28.76587	1.49882	0.66719	114.45498	119.12173	42.71146	0.33986	 	1264522.891	 	5.10704E-6	 	37804.69	36.235	 
1045.0	1.0	0.0	7.47195	7.45562	-5.61331	18.56912	28.70001	1.49658	0.66819	114.96973	119.50454	42.91011	0.33966	 	1383285.924	 	4.65093E-6	 	37623.735	36.191	 
1040.0	1.0	0.0	7.47428	7.4533	-5.64268	18.55261	28.63415	1.49433	0.66919	115.48464	119.88651	43.10888	0.33945	 	1514272.794	 	4.2325E-6	 	37442.998	36.1474	 
1035.0	1.0	0.0	7.4766	7.45098	-5.672	18.5361	28.56828	1.49208	0.67021	115.99967	120.26765	43.30776	0.33925	 	1658848.45	 	3.84891E-6	 	37262.478	36.104	 
1030.0	1.0	0.0	7.47892	7.44867	-5.70128	18.5196	28.50241	1.48981	0.67123	116.51481	120.64794	43.50675	0.33904	 	1818541.909	 	3.4975E-6	 	37082.171	36.0614	 
1025.0	1.0	0.0	7.48124	7.44636	-5.7305	18.50311	28.43653	1.48753	0.67225	117.03004	121.02735	43.70583	0.33884	 	1995067.364	 	3.17581E-6	 	36902.077	36.0188	 
1020.0	1.0	0.0	7.48356	7.44405	-5.75969	18.48663	28.37065	1.48524	0.67329	117.54536	121.40589	43.905	0.33863	 	2190348.171	 	2.88153E-6	 	36722.192	35.977	 
1015.0	1.0	0.0	7.48587	7.44175	-5.78882	18.47016	28.30476	1.48294	0.67433	118.06074	121.78353	44.10425	0.33843	 	2406544.143	 	2.61252E-6	 	36542.515	35.9354	 
1010.0	1.0	0.0	7.48818	7.43946	-5.81791	18.45369	28.23888	1.48063	0.67539	118.57617	122.16027	44.30358	0.33822	 	2646082.643	 	2.3668E-6	 	36363.044	35.8942	 
1005.0	1.0	0.0	7.49049	7.43716	-5.84696	18.43723	28.17298	1.47831	0.67645	119.09163	122.53608	44.50299	0.33802	 	2911694.018	 	2.14251E-6	 	36183.777	35.8534	 
1000.0	1.0	0.0	7.4928	7.43487	-5.87596	18.42077	28.10709	1.47598	0.67751	119.60711	122.91097	44.70246	0.33781	 	3206452.028	 	1.93795E-6	 	36004.71	35.8134	 
995.0	1.0	0.0	7.49511	7.43258	-5.90491	18.40432	28.04119	1.47364	0.67859	120.12259	123.28491	44.902	0.33761	 	3533820.022	 	1.75151E-6	 	35825.842	35.7736	 
990.0	1.0	0.0	7.49741	7.4303	-5.93382	18.38788	27.97528	1.47129	0.67968	120.63805	123.65789	45.10159	0.3374	 	3897703.71	 	1.58173E-6	 	35647.171	35.7342	 
985.0	1.0	0.0	7.49971	7.42802	-5.96268	18.37145	27.90937	1.46893	0.68077	121.15349	124.02991	45.30123	0.3372	 	4302511.537	 	1.42724E-6	 	35468.694	35.6954	 
980.0	1.0	0.0	7.50201	7.42574	-5.99149	18.35502	27.84346	1.46655	0.68187	121.66888	124.40094	45.50092	0.33699	 	4753223.829	 	1.28677E-6	 	35290.408	35.6572	 
975.0	1.0	0.0	7.50431	7.42347	-6.02026	18.3386	27.77754	1.46417	0.68298	122.18421	124.77098	45.70064	0.33679	 	5255472.042	 	1.15916E-6	 	35112.311	35.6194	 
970.0	1.0	0.0	7.5066	7.4212	-6.04898	18.32219	27.71162	1.46177	0.6841	122.69946	125.14002	45.9004	0.33658	 	5815629.689	 	1.04331E-6	 	34934.399	35.5824	 
965.0	1.0	0.0	7.50889	7.41894	-6.07766	18.30579	27.6457	1.45936	0.68523	123.21462	125.50804	46.10018	0.33638	 	6440916.772	 	9.38236E-7	 	34756.672	35.5454	 
960.0	1.0	0.0	7.51118	7.41668	-6.10629	18.28939	27.57977	1.45694	0.68637	123.72968	125.87503	46.29999	0.33617	 	7139519.828	 	8.43012E-7	 	34579.125	35.5094	 
955.0	1.0	0.0	7.51347	7.41442	-6.13488	18.273	27.51383	1.45451	0.68751	124.24461	126.24098	46.49981	0.33597	 	7920730.068	 	7.56786E-7	 	34401.755	35.474	 
950.0	1.0	0.0	7.51575	7.41216	-6.16342	18.25661	27.44789	1.45207	0.68867	124.75941	126.60588	46.69964	0.33576	 	8795102.508	 	6.78774E-7	 	34224.56	35.439	 
945.0	1.0	0.0	7.51804	7.40991	-6.19192	18.24024	27.38195	1.44962	0.68984	125.27405	126.96972	46.89948	0.33556	 	9774639.442	 	6.08256E-7	 	34047.537	35.4046	 
940.0	1.0	0.0	7.52032	7.40767	-6.22036	18.22387	27.31601	1.44715	0.69101	125.78853	127.33249	47.09931	0.33535	 	1.087300222E7	 	5.44568E-7	 	33870.682	35.371	 
935.0	1.0	0.0	7.5226	7.40542	-6.24877	18.20751	27.25005	1.44468	0.6922	126.30283	127.69416	47.29914	0.33515	 	1.210575596E7	 	4.87097E-7	 	33693.993	35.3378	 
930.0	1.0	0.0	7.52487	7.40318	-6.27713	18.19115	27.1841	1.44219	0.69339	126.81693	128.05475	47.49896	0.33494	 	1.349065256E7	 	4.35285E-7	 	33517.466	35.3054	 
925.0	1.0	0.0	7.52715	7.40095	-6.30544	18.1748	27.11814	1.43969	0.69459	127.33081	128.41422	47.69875	0.33474	 	1.504795842E7	 	3.88616E-7	 	33341.097	35.2738	 
920.0	1.0	0.0	7.52942	7.39871	-6.33371	18.15846	27.05217	1.43718	0.69581	127.84447	128.77257	47.89852	0.33453	 	1.680083436E7	 	3.46618E-7	 	33164.883	35.2428	 
915.0	1.0	0.0	7.53169	7.39648	-6.36193	18.14213	26.98621	1.43465	0.69703	128.35789	129.1298	48.09827	0.33433	 	1.877577637E7	 	3.08859E-7	 	32988.82	35.2126	 
910.0	1.0	0.0	7.53395	7.39426	-6.3901	18.1258	26.92023	1.43212	0.69827	128.87104	129.48588	48.29797	0.33412	 	2.100312772E7	 	2.74943E-7	 	32812.905	35.183	 
905.0	1.0	0.0	7.53622	7.39204	-6.41823	18.10948	26.85426	1.42957	0.69951	129.38393	129.84081	48.49764	0.33392	 	2.351767452E7	 	2.44508E-7	 	32637.133	35.1544	 
900.0	1.0	0.0	7.53848	7.38982	-6.44632	18.09317	26.78827	1.42701	0.70077	129.89652	130.19458	48.69726	0.33371	 	2.635933908E7	 	2.17223E-7	 	32461.501	35.1264	 
895.0	1.0	0.0	7.54074	7.3876	-6.47436	18.07686	26.72229	1.42444	0.70203	130.40881	130.54717	48.89683	0.33351	 	2.957398818E7	 	1.92786E-7	 	32286.005	35.0992	 
890.0	1.0	0.0	7.543	7.38539	-6.50235	18.06056	26.6563	1.42185	0.70331	130.92079	130.89859	49.09634	0.33331	 	3.321437624E7	 	1.70921E-7	 	32110.64	35.073	 
885.0	1.0	0.0	7.54525	7.38318	-6.5303	18.04427	26.5903	1.41925	0.7046	131.43243	131.2488	49.29578	0.3331	 	3.73412473E7	 	1.51378E-7	 	31935.401	35.0478	 
880.0	1.0	0.0	7.54751	7.38098	-6.55821	18.02798	26.5243	1.41664	0.7059	131.94373	131.59782	49.49516	0.3329	 	4.202462408E7	 	1.33927E-7	 	31760.285	35.0232	 
875.0	1.0	0.0	7.54976	7.37878	-6.58607	18.01171	26.4583	1.41402	0.70721	132.45466	131.94561	49.69446	0.33269	 	4.734531755E7	 	1.18361E-7	 	31585.286	34.9998	 
870.0	1.0	0.0	7.55201	7.37658	-6.61388	17.99544	26.39229	1.41138	0.70853	132.96522	132.29219	49.89368	0.33249	 	5.339669711E7	 	1.0449E-7	 	31410.399	34.9774	 
865.0	1.0	0.0	7.55425	7.37439	-6.64165	17.97917	26.32628	1.40873	0.70986	133.47538	132.63752	50.09282	0.33228	 	6.02867687E7	 	9.21434E-8	 	31235.62	34.9558	 
860.0	1.0	0.0	7.5565	7.3722	-6.66937	17.96292	26.26026	1.40607	0.7112	133.98514	132.98162	50.29187	0.33208	 	6.814061757E7	 	8.11649E-8	 	31060.942	34.9356	 
855.0	1.0	0.0	7.55874	7.37001	-6.69705	17.94667	26.19424	1.40339	0.71256	134.49448	133.32446	50.49082	0.33187	 	7.710328334E7	 	7.14136E-8	 	30886.361	34.9162	 
850.0	1.0	0.0	7.56098	7.36783	-6.72468	17.93042	26.12821	1.4007	0.71393	135.00338	133.66603	50.68966	0.33167	 	8.734314805E7	 	6.27618E-8	 	30711.871	34.898	 
845.0	1.0	0.0	7.56322	7.36565	-6.75227	17.91419	26.06218	1.398	0.71531	135.51184	134.00633	50.8884	0.33146	 	9.905593401E7	 	5.50942E-8	 	30537.465	34.8812	 
840.0	1.0	0.0	7.56545	7.36347	-6.77981	17.89796	25.99615	1.39528	0.7167	136.01983	134.34535	51.08703	0.33126	 	1.124694274E8	 	4.83065E-8	 	30363.138	34.8654	 
835.0	1.0	0.0	7.56768	7.3613	-6.80731	17.88174	25.93011	1.39255	0.71811	136.52735	134.68307	51.28554	0.33105	 	1.278490665E8	 	4.23046E-8	 	30188.883	34.851	 
830.0	1.0	0.0	7.56991	7.35913	-6.83477	17.86553	25.86407	1.38981	0.71952	137.03437	135.01949	51.48392	0.33085	 	1.455045625E8	 	3.70037E-8	 	30014.693	34.838	 
825.0	1.0	0.0	7.57214	7.35697	-6.86217	17.84932	25.79802	1.38705	0.72095	137.54088	135.3546	51.68218	0.33064	 	1.657977525E8	 	3.23273E-8	 	29840.561	34.8264	 
820.0	1.0	0.0	7.57437	7.35481	-6.88954	17.83312	25.73197	1.38428	0.7224	138.04688	135.68839	51.8803	0.33044	 	1.891519298E8	 	2.82069E-8	 	29666.479	34.8164	 
815.0	1.0	0.0	7.57659	7.35265	-6.91685	17.81693	25.66592	1.3815	0.72385	138.55234	136.02085	52.07828	0.33023	 	2.160629422E8	 	2.45808E-8	 	29492.441	34.8076	 
810.0	1.0	0.0	7.57881	7.3505	-6.94413	17.80074	25.59986	1.3787	0.72532	139.05725	136.35197	52.27612	0.33003	 	2.471124125E8	 	2.13934E-8	 	29318.437	34.8008	 
805.0	1.0	0.0	7.58103	7.34834	-6.97136	17.78456	25.5338	1.37588	0.72681	139.5616	136.68175	52.4738	0.32982	 	2.829835111E8	 	1.85954E-8	 	29144.46	34.7954	 
800.0	1.0	0.0	7.58324	7.3462	-6.99854	17.76839	25.46773	1.37305	0.7283	140.06537	137.01016	52.67133	0.32962	 	3.244797996E8	 	1.61421E-8	 	28970.501	34.7918	 
795.0	1.0	0.0	7.58546	7.34405	-7.02568	17.75223	25.40167	1.37021	0.72981	140.56855	137.33721	52.8687	0.32941	 	3.725477748E8	 	1.39938E-8	 	28796.549	34.7904	 
790.0	1.0	0.0	7.58767	7.34191	-7.05277	17.73607	25.33559	1.36735	0.73134	141.07113	137.66289	53.0659	0.32921	 	4.283038839E8	 	1.21152E-8	 	28622.595	34.7908	 
785.0	1.0	0.0	7.58988	7.33978	-7.07982	17.71992	25.26952	1.36448	0.73288	141.57309	137.98719	53.26293	0.329	 	4.930669426E8	 	1.04744E-8	 	28448.63	34.793	 
780.0	1.0	0.0	7.59208	7.33764	-7.10683	17.70377	25.20344	1.3616	0.73443	142.07441	138.31009	53.45978	0.3288	 	5.683970982E8	 	9.04326E-9	 	28274.641	34.7978	 
775.0	1.0	0.0	7.59429	7.33551	-7.13379	17.68764	25.13735	1.35869	0.736	142.57509	138.63159	53.65645	0.32859	 	6.561427315E8	 	7.79672E-9	 	28100.618	34.8046	 
770.0	1.0	0.0	7.59649	7.33339	-7.1607	17.67151	25.07127	1.35578	0.73758	143.07511	138.95169	53.85293	0.32839	 	7.584970036E8	 	6.71243E-9	 	27926.548	34.814	 
765.0	1.0	0.0	7.59869	7.33127	-7.18757	17.65539	25.00518	1.35284	0.73918	143.57445	139.27037	54.04922	0.32818	 	8.780661392E8	 	5.77058E-9	 	27752.418	34.826	 
760.0	1.0	0.0	7.60088	7.32915	-7.2144	17.63927	24.93908	1.3499	0.7408	144.07311	139.58762	54.24531	0.32798	 	1.017952016E9	 	4.95362E-9	 	27578.215	34.8406	 
755.0	1.0	0.0	7.60308	7.32703	-7.24118	17.62316	24.87299	1.34693	0.74243	144.57107	139.90344	54.44119	0.32777	 	1.18185222E9	 	4.246E-9	 	27403.923	34.8584	 
750.0	1.0	0.0	7.60527	7.32492	-7.26792	17.60706	24.80689	1.34396	0.74407	145.06831	140.21782	54.63687	0.32757	 	1.374181464E9	 	3.63397E-9	 	27229.528	34.879	 
745.0	1.0	0.0	7.60746	7.32281	-7.29461	17.59097	24.74078	1.34096	0.74573	145.56482	140.53075	54.83233	0.32736	 	1.600219175E9	 	3.10541E-9	 	27055.014	34.9028	 
740.0	1.0	0.0	7.60965	7.32071	-7.32126	17.57488	24.67468	1.33795	0.74741	146.06059	140.84223	55.02758	0.32716	 	1.8662892E9	 	2.64961E-9	 	26880.361	34.9306	 
735.0	1.0	0.0	7.61183	7.3186	-7.34786	17.5588	24.60857	1.33492	0.74911	146.55561	141.15224	55.2226	0.32695	 	2.179978993E9	 	2.25715E-9	 	26705.553	34.9616	 
730.0	1.0	0.0	7.61402	7.31651	-7.37442	17.54273	24.54245	1.33188	0.75082	147.04985	141.46078	55.41739	0.32675	 	2.550407435E9	 	1.91974E-9	 	26530.568	34.997	 
725.0	1.0	0.0	7.6162	7.31441	-7.40094	17.52667	24.47633	1.32882	0.75255	147.54332	141.76784	55.61194	0.32654	 	2.988552648E9	 	1.63013E-9	 	26355.385	35.0366	 
720.0	1.0	0.0	7.61837	7.31232	-7.42741	17.51061	24.41021	1.32575	0.75429	148.03599	142.07341	55.80626	0.32634	 	3.507653984E9	 	1.38193E-9	 	26179.981	35.0808	 
715.0	1.0	0.0	7.62055	7.31023	-7.45383	17.49456	24.34409	1.32266	0.75605	148.52784	142.37749	56.00033	0.32613	 	4.123705843E9	 	1.16956E-9	 	26004.33	35.1302	 
710.0	1.0	0.0	7.62272	7.30815	-7.48021	17.47851	24.27796	1.31955	0.75783	149.01888	142.68006	56.19415	0.32593	 	4.856065468E9	 	9.88148E-10	 	25828.407	35.1846	 
705.0	1.0	0.0	7.62489	7.30607	-7.50655	17.46247	24.21182	1.31642	0.75963	149.50908	142.98112	56.38771	0.32572	 	5.728202383E9	 	8.33439E-10	 	25652.182	35.245	 
700.0	1.0	0.0	7.62706	7.30399	-7.53284	17.44644	24.14568	1.31328	0.76145	149.99843	143.28067	56.58101	0.32552	 	6.768624293E9	 	7.01724E-10	 	25475.623	35.3118	 
695.0	1.0	0.0	7.62923	7.30192	-7.55909	17.43042	24.07954	1.31012	0.76329	150.48692	143.57869	56.77405	0.32531	 	8.012023182E9	 	5.89776E-10	 	25298.697	35.3852	 
690.0	1.0	0.0	7.63139	7.29985	-7.5853	17.41441	24.01339	1.30695	0.76514	150.97454	143.87519	56.96682	0.32511	 	9.500696773E9	 	4.94795E-10	 	25121.365	35.4664	 
685.0	1.0	0.0	7.63355	7.29778	-7.61146	17.3984	23.94724	1.30375	0.76702	151.46126	144.17014	57.15931	0.3249	 	1.12863E10	 	4.14351E-10	 	24943.589	35.5552	 
680.0	1.0	0.0	7.63571	7.29572	-7.63758	17.38239	23.88108	1.30054	0.76891	151.94709	144.46354	57.35152	0.3247	 	1.3432099999999998E10	 	3.46341E-10	 	24765.323	35.6532	 
675.0	1.0	0.0	7.63787	7.29366	-7.66365	17.3664	23.81491	1.29732	0.77082	152.432	144.7554	57.54345	0.32449	 	1.6015699999999998E10	 	2.88947E-10	 	24586.519	35.7608	 
670.0	1.0	0.0	7.64002	7.2916	-7.68968	17.35041	23.74874	1.29407	0.77276	152.91598	145.04569	57.73508	0.32429	 	1.91323E10	 	2.40603E-10	 	24407.124	35.879	 
665.0	1.0	0.0	7.64217	7.28955	-7.71566	17.33443	23.68256	1.29081	0.77471	153.39902	145.33442	57.92642	0.32409	 	2.28993E10	 	1.99957E-10	 	24227.08	36.0088	 
660.0	1.0	0.0	7.64432	7.2875	-7.7416	17.31846	23.61637	1.28753	0.77668	153.88111	145.62157	58.11746	0.32388	 	2.7461499999999996E10	 	1.65849E-10	 	24046.324	36.1512	 
655.0	1.0	0.0	7.64647	7.28546	-7.7675	17.30249	23.55018	1.28423	0.77868	154.36223	145.90715	58.30819	0.32368	 	3.2997999999999996E10	 	1.37283E-10	 	23864.783	36.3082	 
650.0	1.0	0.0	7.64861	7.28342	-7.79335	17.28653	23.48397	1.28091	0.7807	154.84237	146.19113	58.49861	0.32347	 	3.97307E10	 	1.13405E-10	 	23682.379	36.4808	 
645.0	1.0	0.0	7.65075	7.28138	-7.81916	17.27058	23.41776	1.27757	0.78273	155.32152	146.47353	58.68872	0.32327	 	4.793509999999999E10	 	9.34861E-11	 	23499.026	36.6706	 
640.0	1.0	0.0	7.65289	7.27934	-7.84492	17.25463	23.35154	1.27422	0.78479	155.79966	146.75432	58.8785	0.32306	 	5.795399999999999E10	 	7.69033E-11	 	23314.627	36.8798	 
635.0	1.0	0.0	7.65503	7.27731	-7.87064	17.2387	23.28531	1.27085	0.78688	156.27679	147.03351	59.06796	0.32286	 	7.02154E10	 	6.31265E-11	 	23129.074	37.1106	 
630.0	1.0	0.0	7.65716	7.27528	-7.89632	17.22277	23.21907	1.26746	0.78898	156.75289	147.31109	59.25709	0.32265	 	8.52539E10	 	5.1705E-11	 	22942.247	37.3654	 
625.0	1.0	0.0	7.65929	7.27326	-7.92195	17.20684	23.15282	1.26405	0.79111	157.22794	147.58704	59.44588	0.32245	 	1.0374E11	 	4.22562E-11	 	22754.011	37.6472	 
620.0	1.0	0.0	7.66142	7.27124	-7.94754	17.19092	23.08656	1.26062	0.79326	157.70194	147.86137	59.63433	0.32224	 	1.26514E11	 	3.44565E-11	 	22555.814	39.6394	 
615.0	1.0	0.0	7.66355	7.26922	-7.97309	17.17501	23.02029	1.25717	0.79544	158.17487	148.13407	59.82243	0.32204	 	1.54638E11	 	2.80322E-11	 	22353.485	40.4658	 
610.0	1.0	0.0	7.66567	7.2672	-7.99859	17.15911	22.95401	1.2537	0.79764	158.64671	148.40514	60.01019	0.32183	 	1.89448E11	 	2.27527E-11	 	22152.897	40.1176	 
605.0	1.0	0.0	7.66779	7.26519	-8.02405	17.14322	22.88771	1.25021	0.79986	159.11747	148.67456	60.19759	0.32163	 	2.32636E11	 	1.84238E-11	 	21953.987	39.782	 
600.0	1.0	0.0	7.66991	7.26318	-8.04946	17.12733	22.8214	1.24671	0.80211	159.58712	148.94233	60.38462	0.32142	 	2.86349E11	 	1.48827E-11	 	21756.693	39.4588	 
595.0	1.0	0.0	7.67203	7.26118	-8.07483	17.11145	22.75508	1.24318	0.80439	160.05565	149.20844	60.5713	0.32122	 	3.53316E11	 	1.19927E-11	 	21560.959	39.1468	 
590.0	1.0	0.0	7.67414	7.25918	-8.10016	17.09557	22.68875	1.23963	0.80669	160.52305	149.47289	60.7576	0.32101	 	4.37017E11	 	9.63996E-12	 	21366.73	38.8458	 
585.0	1.0	0.0	7.67626	7.25718	-8.12544	17.0797	22.62241	1.23607	0.80902	160.98931	149.73568	60.94353	0.32081	 	5.419E11	 	7.72914E-12	 	21173.955	38.555	 
580.0	1.0	0.0	7.67837	7.25519	-8.15068	17.06384	22.55605	1.23248	0.81137	161.45441	149.99679	61.12908	0.3206	 	6.73666E11	 	6.18113E-12	 	20982.585	38.274	 
575.0	1.0	0.0	7.68047	7.2532	-8.17588	17.04799	22.48967	1.22887	0.81375	161.91834	150.25623	61.31424	0.3204	 	8.39642E11	 	4.93021E-12	 	20792.574	38.0022	 
570.0	1.0	0.0	7.68258	7.25121	-8.20103	17.03214	22.42329	1.22525	0.81616	162.38109	150.51398	61.49901	0.32019	 	1.04927E12	 	3.92197E-12	 	20603.878	37.7392	 
565.0	1.0	0.0	7.68468	7.24923	-8.22614	17.0163	22.35689	1.2216	0.8186	162.84265	150.77004	61.68339	0.31999	 	1.31476E12	 	3.11145E-12	 	20416.457	37.4842	 
560.0	1.0	0.0	7.68678	7.24725	-8.25121	17.00047	22.29048	1.21793	0.82107	163.30301	151.02441	61.86737	0.31978	 	1.65192E12	 	2.46162E-12	 	20230.27	37.2374	 
555.0	1.0	0.0	7.68888	7.24527	-8.27623	16.98465	22.22405	1.21424	0.82356	163.76215	151.27707	62.05095	0.31958	 	2.08132E12	 	1.94204E-12	 	20045.281	36.9978	 
550.0	1.0	0.0	7.69097	7.2433	-8.30121	16.96883	22.15761	1.21053	0.82609	164.22006	151.52803	62.23412	0.31937	 	2.62976E12	 	1.52774E-12	 	19861.454	36.7654	 
545.0	1.0	0.0	7.69306	7.24133	-8.32614	16.95302	22.09116	1.20679	0.82864	164.67674	151.77728	62.41687	0.31917	 	3.3323E12	 	1.19833E-12	 	19678.756	36.5396	 
540.0	1.0	0.0	7.69515	7.23936	-8.35103	16.93722	22.02469	1.20304	0.83123	165.13215	152.02481	62.59921	0.31896	 	4.23492E12	 	9.37156E-13	 	19497.154	36.3204	 
535.0	1.0	0.0	7.69724	7.2374	-8.37588	16.92142	21.95821	1.19926	0.83385	165.58631	152.27062	62.78112	0.31876	 	5.39814E12	 	7.30692E-13	 	19316.619	36.107	 
530.0	1.0	0.0	7.69932	7.23544	-8.40069	16.90563	21.89171	1.19546	0.8365	166.03919	152.51471	62.96261	0.31855	 	6.90183E12	 	5.67962E-13	 	19137.122	35.8994	 
525.0	1.0	0.0	7.70141	7.23349	-8.42545	16.88985	21.82521	1.19164	0.83918	166.49078	152.75706	63.14366	0.31835	 	8.85176E12	 	4.4009E-13	 	18958.635	35.6974	 
520.0	1.0	0.0	7.70348	7.23153	-8.45017	16.87407	21.75869	1.18779	0.8419	166.94107	152.99768	63.32428	0.31814	 	1.13885E13	 	3.39919E-13	 	18781.133	35.5004	 
515.0	1.0	0.0	7.70556	7.22958	-8.47485	16.8583	21.69215	1.18392	0.84465	167.39005	153.23656	63.50446	0.31794	 	1.46994E13	 	2.61695E-13	 	18604.59	35.3086	 
510.0	1.0	0.0	7.70764	7.22764	-8.49948	16.84254	21.62561	1.18003	0.84743	167.83771	153.47369	63.68419	0.31773	 	1.90352E13	 	2.00805E-13	 	18428.983	35.1214	 
505.0	1.0	0.0	7.70971	7.2257	-8.52407	16.82679	21.55905	1.17612	0.85025	168.28403	153.70906	63.86347	0.31753	 	2.47323E13	 	1.53562E-13	 	18254.29	34.9386	 
500.0	1.0	0.0	7.71178	7.22376	-8.54862	16.81104	21.49248	1.17218	0.85311	168.729	153.94269	64.04229	0.31732	 	3.22442E13	 	1.1703E-13	 	18080.49	34.76	 
495.0	1.0	0.0	7.71384	7.22182	-8.57312	16.7953	21.4259	1.16822	0.856	169.17262	154.17455	64.22066	0.31712	 	4.21838E13	 	8.88764E-14	 	17907.561	34.5858	 
490.0	1.0	0.0	7.71591	7.21989	-8.59758	16.77957	21.35931	1.16423	0.85893	169.61487	154.40465	64.39856	0.31692	 	5.53831E13	 	6.72542E-14	 	17735.485	34.4152	 
485.0	1.0	0.0	7.71797	7.21796	-8.622	16.76384	21.2927	1.16022	0.8619	170.05574	154.63299	64.57599	0.31671	 	7.29753E13	 	5.07068E-14	 	17564.242	34.2486	 
480.0	1.0	0.0	7.72003	7.21603	-8.64637	16.74812	21.22609	1.15619	0.86491	170.49522	154.85954	64.75294	0.31651	 	9.65101E13	 	3.80886E-14	 	17393.816	34.0852	 
475.0	1.0	0.0	7.72209	7.21411	-8.6707	16.73241	21.15947	1.15213	0.86796	170.93329	155.08433	64.92942	0.3163	 	1.2811499999999998E14	 	2.8502E-14	 	17224.19	33.9252	 
470.0	1.0	0.0	7.72414	7.21219	-8.69499	16.71671	21.09283	1.14805	0.87105	171.36995	155.30733	65.10542	0.3161	 	1.70722E14	 	2.12458E-14	 	17055.346	33.7688	 
465.0	1.0	0.0	7.72619	7.21028	-8.71924	16.70101	21.02619	1.14394	0.87417	171.80519	155.52854	65.28093	0.31589	 	2.2839E14	 	1.57745E-14	 	16887.27	33.6152	 
460.0	1.0	0.0	7.72824	7.20837	-8.74344	16.68532	20.95953	1.1398	0.87735	172.23899	155.74797	65.45595	0.31569	 	3.06756E14	 	1.1665E-14	 	16719.947	33.4646	 
455.0	1.0	0.0	7.73029	7.20646	-8.7676	16.66963	20.89287	1.13564	0.88056	172.67134	155.9656	65.63048	0.31548	 	4.13692E14	 	8.59073E-15	 	16553.363	33.3168	 
450.0	1.0	0.0	7.73233	7.20455	-8.79172	16.65396	20.82619	1.13145	0.88382	173.10223	156.18143	65.8045	0.31528	 	5.6022799999999994E14	 	6.30014E-15	 	16387.504	33.1718	 
445.0	1.0	0.0	7.73437	7.20265	-8.81579	16.63829	20.75951	1.12724	0.88712	173.53166	156.39547	65.97802	0.31507	 	7.6189E14	 	4.60055E-15	 	16222.357	33.0294	 
440.0	1.0	0.0	7.73641	7.20075	-8.83982	16.62263	20.69282	1.123	0.89047	173.95961	156.6077	66.15103	0.31487	 	1.04064E15	 	3.34479E-15	 	16057.91	32.8894	 
435.0	1.0	0.0	7.73845	7.19886	-8.86381	16.60697	20.62612	1.11873	0.89387	174.38606	156.81812	66.32353	0.31466	 	1.42766E15	 	2.42096E-15	 	15894.151	32.7518	 
430.0	1.0	0.0	7.74048	7.19697	-8.88776	16.59132	20.55941	1.11444	0.89731	174.81102	157.02673	66.49551	0.31446	 	1.96747E15	 	1.74432E-15	 	15731.068	32.6166	 
425.0	1.0	0.0	7.74251	7.19508	-8.91166	16.57568	20.49269	1.11011	0.90081	175.23447	157.23353	66.66697	0.31425	 	2.72392E15	 	1.25095E-15	 	15568.65	32.4836	 
420.0	1.0	0.0	7.74454	7.19319	-8.93552	16.56005	20.42596	1.10576	0.90435	175.65639	157.4385	66.83791	0.31405	 	3.789E15	 	8.92872E-16	 	15406.887	32.3526	 
415.0	1.0	0.0	7.74657	7.19131	-8.95934	16.54442	20.35923	1.10139	0.90795	176.07678	157.64166	67.00832	0.31384	 	5.29595E15	 	6.342E-16	 	15245.768	32.2238	 
410.0	1.0	0.0	7.74859	7.18944	-8.98312	16.5288	20.29248	1.09698	0.91159	176.49564	157.84299	67.17819	0.31364	 	7.43871E15	 	4.48234E-16	 	15085.284	32.0968	 
405.0	1.0	0.0	7.75061	7.18756	-9.00685	16.51319	20.22573	1.09254	0.91529	176.91294	158.0425	67.34752	0.31343	 	1.05011E16	 	3.15195E-16	 	14925.425	31.9718	 
400.0	1.0	0.0	7.75263	7.18569	-9.03054	16.49758	20.15897	1.08808	0.91905	177.32868	158.24018	67.51632	0.31323	 	1.49004E16	 	2.20496E-16	 	14766.182	31.8486	 
395.0	1.0	0.0	7.75465	7.18382	-9.05419	16.48198	20.0922	1.08359	0.92286	177.74285	158.43602	67.68456	0.31302	 	2.12542E16	 	1.53432E-16	 	14607.547	31.727	 
390.0	1.0	0.0	7.75666	7.18196	-9.07779	16.46639	20.02542	1.07907	0.92673	178.15544	158.63003	67.85226	0.31282	 	3.04804E16	 	1.06189E-16	 	14449.51	31.6074	 
385.0	1.0	0.0	7.75867	7.1801	-9.10135	16.45081	19.95863	1.07451	0.93065	178.56644	158.8222	68.01941	0.31261	 	4.39523E16	 	7.30853E-17	 	14292.064	31.4892	 
380.0	1.0	0.0	7.76068	7.17824	-9.12488	16.43523	19.89184	1.06993	0.93464	178.97584	159.01253	68.18599	0.31241	 	6.37355E16	 	5.00171E-17	 	14135.202	31.3724	 
375.0	1.0	0.0	7.76268	7.17638	-9.14835	16.41966	19.82503	1.06532	0.93869	179.38363	159.20102	68.35202	0.3122	 	9.29557E16	 	3.40319E-17	 	13978.914	31.2576	 
370.0	1.0	0.0	7.76469	7.17453	-9.17179	16.4041	19.75822	1.06067	0.9428	179.78981	159.38767	68.51748	0.312	 	1.36372E17	 	2.30184E-17	 	13823.195	31.1438	 
365.0	1.0	0.0	7.76669	7.17268	-9.19518	16.38854	19.69139	1.056	0.94697	180.19435	159.57247	68.68238	0.31179	 	2.01273E17	 	1.54748E-17	 	13668.036	31.0318	 
360.0	1.0	0.0	7.76869	7.17084	-9.21853	16.37299	19.62456	1.05129	0.95121	180.59727	159.75543	68.8467	0.31159	 	2.98897E17	 	1.03389E-17	 	13513.432	30.9208	 
355.0	1.0	0.0	7.77068	7.169	-9.24184	16.35745	19.55772	1.04656	0.95551	180.99854	159.93653	69.01045	0.31139	 	4.46679E17	 	6.86364E-18	 	13359.375	30.8114	 
350.0	1.0	0.0	7.77267	7.16716	-9.26511	16.34191	19.49086	1.04179	0.95989	181.39815	160.11579	69.17362	0.31118	 	6.71852E17	 	4.52695E-18	 	13205.859	30.7032	 
345.0	1.0	0.0	7.77466	7.16533	-9.28833	16.32639	19.424	1.03699	0.96433	181.79611	160.29319	69.3362	0.31098	 	1.01724E18	 	2.9659E-18	 	13052.878	30.5962	 
340.0	1.0	0.0	7.77665	7.1635	-9.31151	16.31086	19.35712	1.03215	0.96885	182.1924	160.46874	69.4982	0.31077	 	1.55066E18	 	1.92991E-18	 	12900.426	30.4904	 
335.0	1.0	0.0	7.77864	7.16167	-9.33465	16.29535	19.29024	1.02728	0.97344	182.58701	160.64244	69.65961	0.31057	 	2.38026E18	 	1.24702E-18	 	12748.498	30.3856	 
330.0	1.0	0.0	7.78062	7.15984	-9.35775	16.27984	19.22334	1.02238	0.97811	182.97994	160.81429	69.82043	0.31036	 	3.67977E18	 	8.00002E-19	 	12597.087	30.2822	 
325.0	1.0	0.0	7.7826	7.15802	-9.38081	16.26434	19.15643	1.01745	0.98285	183.37118	160.98428	69.98066	0.31016	 	5.73039E18	 	5.09463E-19	 	12446.188	30.1798	 
320.0	1.0	0.0	7.78457	7.1562	-9.40382	16.24885	19.08951	1.01248	0.98767	183.76072	161.15241	70.14028	0.30995	 	8.99072E18	 	3.22001E-19	 	12295.797	30.0782	 
315.0	1.0	0.0	7.78655	7.15439	-9.42679	16.23337	19.02258	1.00748	0.99258	184.14856	161.31869	70.29931	0.30975	 	1.42146E19	 	2.01949E-19	 	12145.907	29.978	 
310.0	1.0	0.0	7.78852	7.15258	-9.44972	16.21789	18.95564	1.00244	0.99756	184.53468	161.48312	70.45773	0.30954	 	2.2651E19	 	1.25655E-19	 	11996.515	29.8784	 
305.0	1.0	0.0	7.79049	7.15077	-9.47261	16.20242	18.88869	0.99737	1.00264	184.91909	161.64569	70.61554	0.30934	 	3.63869E19	 	7.75501E-20	 	11847.615	29.78	 
300.0	1.0	0.0	7.79246	7.14897	-9.49546	16.18695	18.82172	0.99226	1.0078	185.30177	161.80641	70.77275	0.30913	 	5.89382E19	 	4.74633E-20	 	11699.203	29.6824	 
295.0	1.0	0.0	7.79442	7.14716	-9.51826	16.1715	18.75474	0.98712	1.01305	185.68272	161.96527	70.92934	0.30893	 	9.62806E19	 	2.88012E-20	 	11551.274	29.5858	 
290.0	1.0	0.0	7.79638	7.14537	-9.54102	16.15605	18.68775	0.98194	1.01839	186.06193	162.12229	71.08532	0.30872	 	1.5866E20	 	1.73238E-20	 	11403.824	29.49	 
285.0	1.0	0.0	7.79834	7.14357	-9.56374	16.1406	18.62074	0.97672	1.02383	186.43941	162.27745	71.24068	0.30852	 	2.6380699999999997E20	 	1.03265E-20	 	11256.849	29.395	 
280.0	1.0	0.0	7.8003	7.14178	-9.58642	16.12517	18.55372	0.97147	1.02937	186.81513	162.43076	71.39542	0.30831	 	4.4268999999999993E20	 	6.0986E-21	 	11110.346	29.3006	 
275.0	1.0	0.0	7.80225	7.13999	-9.60905	16.10974	18.48669	0.96618	1.035	187.18911	162.58223	71.54955	0.30811	 	7.499229999999999E20	 	3.56755E-21	 	10964.309	29.2074	 
270.0	1.0	0.0	7.8042	7.13821	-9.63165	16.09432	18.41965	0.96085	1.04074	187.56133	162.73186	71.70305	0.3079	 	1.2827800000000001E21	 	2.0666E-21	 	10818.736	29.1146	 
265.0	1.0	0.0	7.80615	7.13643	-9.6542	16.0789	18.35259	0.95548	1.04659	187.9318	162.87964	71.85593	0.3077	 	2.21625E21	 	1.18514E-21	 	10673.624	29.0224	 
260.0	1.0	0.0	7.80809	7.13465	-9.67671	16.06349	18.28551	0.95008	1.05254	188.3005	163.02558	72.00818	0.30749	 	3.8685100000000003E21	 	6.72655E-22	 	10528.967	28.9314	 
255.0	1.0	0.0	7.81004	7.13287	-9.69918	16.04809	18.21842	0.94464	1.05861	188.66744	163.16969	72.1598	0.30729	 	6.82419E21	 	3.7774E-22	 	10384.764	28.8406	 
250.0	1.0	0.0	7.81198	7.1311	-9.72161	16.0327	18.15132	0.93915	1.06479	189.03261	163.31197	72.31079	0.30708	 	1.2169499999999999E22	 	2.09817E-22	 	10241.012	28.7504	 
245.0	1.0	0.0	7.81391	7.12933	-9.74399	16.01731	18.0842	0.93363	1.07109	189.39602	163.45242	72.46116	0.30688	 	2.1945399999999997E22	 	1.15239E-22	 	10097.706	28.6612	 
240.0	1.0	0.0	7.81585	7.12757	-9.76634	16.00193	18.01707	0.92806	1.07751	189.75765	163.59104	72.61089	0.30667	 	4.0032E22	 	6.25639E-23	 	9954.845	28.5722	 
235.0	1.0	0.0	7.81778	7.12581	-9.78864	15.98656	17.94992	0.92246	1.08406	190.11751	163.72785	72.76	0.30647	 	7.389419999999999E22	 	3.35636E-23	 	9812.425	28.484	 
230.0	1.0	0.0	7.81971	7.12405	-9.8109	15.9712	17.88276	0.91681	1.09073	190.4756	163.86285	72.90847	0.30627	 	1.38072E23	 	1.7786E-23	 	9670.444	28.3962	 
225.0	1.0	0.0	7.82164	7.12229	-9.83312	15.95584	17.81558	0.91113	1.09754	190.83191	163.99603	73.05631	0.30606	 	2.61247E23	 	9.30668E-24	 	9528.9	28.3088	 
220.0	1.0	0.0	7.82356	7.12054	-9.8553	15.94049	17.74838	0.90539	1.10449	191.18646	164.12742	73.20352	0.30586	 	5.0074399999999995E23	 	4.80673E-24	 	9387.79	28.222	 
215.0	1.0	0.0	7.82548	7.11879	-9.87743	15.92514	17.68117	0.89962	1.11158	191.53924	164.25702	73.3501	0.30565	 	9.7268E23	 	2.44946E-24	 	9247.112	28.1356	 
210.0	1.0	0.0	7.8274	7.11705	-9.89953	15.90981	17.61394	0.89381	1.11881	191.89024	164.38483	73.49604	0.30545	 	1.9155500000000001E24	 	1.23105E-24	 	9106.864	28.0496	 
205.0	1.0	0.0	7.82932	7.11531	-9.92158	15.89448	17.5467	0.88795	1.12619	192.23949	164.51086	73.64136	0.30524	 	3.8262500000000004E24	 	6.09927E-25	 	8967.044	27.964	 
200.0	1.0	0.0	7.83123	7.11357	-9.94359	15.87915	17.47943	0.88204	1.13373	192.58697	164.63512	73.78604	0.30504	 	7.75541E24	 	2.9777E-25	 	8827.651	27.8786	 
195.0	1.0	0.0	7.83314	7.11183	-9.96556	15.86384	17.41216	0.87609	1.14143	192.9327	164.75762	73.9301	0.30483	 	1.59585E25	 	1.43179E-25	 	8688.683	27.7936	 
190.0	1.0	0.0	7.83505	7.1101	-9.98749	15.84853	17.34486	0.8701	1.14929	193.27667	164.87837	74.07353	0.30463	 	3.3353900000000003E25	 	6.77739E-26	 	8550.138	27.709	 
185.0	1.0	0.0	7.83696	7.10837	-10.00938	15.83323	17.27755	0.86406	1.15733	193.6189	164.99738	74.21634	0.30442	 	7.08417E25	 	3.1565E-26	 	8412.015	27.6246	 
180.0	1.0	0.0	7.83886	7.10664	-10.03123	15.81793	17.21021	0.85797	1.16554	193.95939	165.11467	74.35853	0.30422	 	1.5298600000000002E26	 	1.44569E-26	 	8274.313	27.5404	 
175.0	1.0	0.0	7.84076	7.10492	-10.05303	15.80265	17.14287	0.85184	1.17393	194.29815	165.23024	74.5001	0.30401	 	3.3610700000000004E26	 	6.50778E-27	 	8137.031	27.4564	 
170.0	1.0	0.0	7.84266	7.1032	-10.0748	15.78737	17.0755	0.84566	1.18251	194.63519	165.3441	74.64105	0.30381	 	7.516520000000001E26	 	2.87753E-27	 	8000.169	27.3724	 
165.0	1.0	0.0	7.84455	7.10149	-10.09652	15.77209	17.00811	0.83943	1.19128	194.97052	165.45628	74.78139	0.3036	 	1.7121199999999998E27	 	1.24904E-27	 	7863.725	27.2888	 
160.0	1.0	0.0	7.84645	7.09977	-10.1182	15.75683	16.94071	0.83315	1.20026	195.30415	165.56679	74.92112	0.3034	 	3.9747199999999996E27	 	5.31886E-28	 	7727.7	27.205	 
155.0	1.0	0.0	7.84834	7.09807	-10.13984	15.74157	16.87329	0.82683	1.20944	195.63609	165.67564	75.06025	0.30319	 	9.41071E27	 	2.22055E-28	 	7592.093	27.1214	 
150.0	1.0	0.0	7.85022	7.09636	-10.16144	15.72631	16.80584	0.82045	1.21884	195.96637	165.78285	75.19879	0.30299	 	2.27397E28	 	9.08231E-29	 	7456.905	27.0376	 
145.0	1.0	0.0	7.85211	7.09466	-10.183	15.71107	16.73838	0.81402	1.22847	196.29498	165.88843	75.33672	0.30278	 	5.61191E28	 	3.6367E-29	 	7322.135	26.954	 
140.0	1.0	0.0	7.85399	7.09296	-10.20452	15.69583	16.6709	0.80754	1.23832	196.62196	165.99242	75.47408	0.30258	 	1.4155800000000002E29	 	1.4245E-29	 	7187.783	26.8704	 
135.0	1.0	0.0	7.85587	7.09126	-10.22599	15.6806	16.6034	0.80101	1.24842	196.94731	166.09483	75.61085	0.30237	 	3.65259E29	 	5.45388E-30	 	7053.852	26.7862	 
130.0	1.0	0.0	7.85774	7.08957	-10.24743	15.66538	16.53588	0.79443	1.25876	197.27107	166.19567	75.74706	0.30217	 	9.648960000000001E29	 	2.03926E-30	 	6920.341	26.7022	 
125.0	1.0	0.0	7.85962	7.08788	-10.26882	15.65016	16.46834	0.7878	1.26936	197.59325	166.29498	75.8827	0.30197	 	2.6119E30	 	7.44007E-31	 	6787.251	26.618	 
120.0	1.0	0.0	7.86149	7.08619	-10.29018	15.63495	16.40078	0.78111	1.28023	197.91387	166.39278	76.01778	0.30176	 	7.25158E30	 	2.64614E-31	 	6654.585	26.5332	 
115.0	1.0	0.0	7.86336	7.08451	-10.31149	15.61975	16.3332	0.77437	1.29138	198.23297	166.4891	76.15232	0.30156	 	2.0669699999999997E31	 	9.16541E-32	 	6522.343	26.4484	 
110.0	1.0	0.0	7.86522	7.08283	-10.33276	15.60455	16.26559	0.76757	1.30282	198.55057	166.58396	76.28633	0.30135	 	6.05493E31	 	3.08849E-32	 	6390.528	26.363	 
105.0	1.0	0.0	7.86708	7.08115	-10.35399	15.58936	16.19797	0.76071	1.31455	198.8667	166.6774	76.41982	0.30115	 	1.82485E32	 	1.0114E-32	 	6259.143	26.277	 
100.0	1.0	0.0	7.86894	7.07948	-10.37518	15.57418	16.13032	0.7538	1.32661	199.1814	166.76945	76.5528	0.30094	 	5.66483E32	 	3.21502E-33	 	6128.189	26.1908	 
95.0	1.0	0.0	7.8708	7.07781	-10.39633	15.55901	16.06265	0.74684	1.33898	199.4947	166.86014	76.68528	0.30074	 	1.81346E33	 	9.90838E-34	 	5997.67	26.1038	 
90.0	1.0	0.0	7.87266	7.07614	-10.41744	15.54384	15.99496	0.73981	1.3517	199.80665	166.94951	76.81728	0.30053	 	5.9944E33	 	2.95683E-34	 	5867.589	26.0162	 
85.0	1.0	0.0	7.87451	7.07447	-10.43851	15.52868	15.92725	0.73273	1.36477	200.11727	167.0376	76.94882	0.30033	 	2.0487100000000002E34	 	8.53239E-35	 	5737.95	25.9278	 
80.0	1.0	0.0	7.87636	7.07281	-10.45953	15.51353	15.85951	0.72558	1.3782	200.42663	167.12446	77.07991	0.30012	 	7.249860000000001E34	 	2.37748E-35	 	5608.758	25.8384	 
75.0	1.0	0.0	7.8782	7.07116	-10.48052	15.49838	15.79175	0.71838	1.39202	200.73477	167.21012	77.21057	0.29992	 	2.6603799999999997E35	 	6.38719E-36	 	5480.015	25.7486	 
70.0	1.0	0.0	7.88005	7.0695	-10.50146	15.48324	15.72397	0.71111	1.40624	201.04174	167.29463	77.34083	0.29971	 	1.01394E36	 	1.65181E-36	 	5351.729	25.6572	 
65.0	1.0	0.0	7.88189	7.06785	-10.52237	15.46811	15.65617	0.70379	1.42088	201.3476	167.37805	77.4707	0.29951	 	4.0203299999999997E36	 	4.1052E-37	 	5223.904	25.565	 
60.0	1.0	0.0	7.88373	7.0662	-10.54323	15.45299	15.58833	0.6964	1.43596	201.65242	167.46043	77.6002	0.2993	 	1.66138E37	 	9.78715E-38	 	5096.546	25.4716	 
55.0	1.0	0.0	7.88556	7.06456	-10.56406	15.43787	15.52048	0.68895	1.45149	201.95625	167.54183	77.72937	0.2991	 	7.1689799999999995E37	 	2.2341E-38	 	4969.663	25.3766	 
50.0	1.0	0.0	7.88739	7.06292	-10.58484	15.42276	15.4526	0.68143	1.46751	202.25917	167.62231	77.85823	0.29889	 	3.2366399999999997E38	 	4.873E-39	 	4843.261	25.2804	 
45.0	1.0	0.0	7.88923	7.06128	-10.60558	15.40766	15.3847	0.67385	1.48402	202.56126	167.70194	77.98681	0.29869	 	1.53217E39	 	1.01347E-39	 	4717.348	25.1826	 
40.0	1.0	0.0	7.89105	7.05964	-10.62628	15.39256	15.31677	0.6662	1.50106	202.86261	167.78079	78.11515	0.29848	 	7.62224E39	 	2.00519E-40	 	4591.934	25.0828	 
35.0	1.0	0.0	7.89288	7.05801	-10.64695	15.37747	15.24881	0.65848	1.51864	203.16329	167.85894	78.24326	0.29828	 	3.99457E40	 	3.76512E-41	 	4467.028	24.9812	 
30.0	1.0	0.0	7.8947	7.05638	-10.66757	15.36239	15.18083	0.6507	1.53681	203.46341	167.93647	78.37121	0.29808	 	2.2109900000000003E41	 	6.69202E-42	 	4342.639	24.8778	 
25.0	1.0	0.0	7.89652	7.05475	-10.68815	 	15.11282	0.64285	1.55558	203.76308	168.01346	78.49902	0.29787	 	1.29607E42	 	1.12278E-42	 	4218.779	 	 
