T (C)	Fraction solid (wt)-TOTAL	Fraction liquid (wt)-LIQUID	Density (g/(cm)^3)-TOTAL	Molar volume (cm^3)-TOTAL	Volume change (%)-  	Average expansion coeff. (10e-6 1/K)-  	Thermal conductivity (W/(m*K))-TOTAL	Electrical resistivity (10e-6 Ohm*m)-TOTAL	Electrical conductivity (10e6 1/(Ohm*m))-TOTAL	Young's modulus (GPa)-TOTAL	Bulk modulus (GPa)-TOTAL	Shear modulus(GPa)-TOTAL	Poisson's ratio-TOTAL	Liquid viscosity (mPa s)-  	Total viscosity (mPa s)-  	Liquid diffusivity (10e-9 (m^2)/s)-  	Total diffusivity (10e-9 (m^2)/s)-  	Surface Tension (mN/m)-  	Enthalpy (J/mole)-TOTAL	Specific heat (J/(mole K))-TOTAL	Latent heat (J/mole)-TOTAL
1500.0	0.0	1.0	6.99049	7.87127	0.0	29.73852	31.04108	1.86134	0.53725	0.0	106.62143	0.0	0.49542	6.60358	6.60358	1.31055	1.31055	1766.6915	64257.488	 	0.0
1495.0	0.0	1.0	6.99439	7.86689	-0.0556581	29.69686	30.96539	1.86063	0.53745	0.0	106.80551	0.0	0.49542	6.66143	6.66143	1.2955	1.2955	1768.49196	64038.278	43.842	0.0
1490.0	0.0	1.0	6.99827	7.86252	-0.11116	29.65531	30.8897	1.85992	0.53766	0.0	106.9896	0.0	0.49542	6.72012	6.72012	1.28056	1.28056	1770.28937	63819.549	43.7458	0.0
1485.0	0.0	1.0	7.00215	7.85817	-0.16651	29.61387	30.81401	1.8592	0.53787	0.0	107.17368	0.0	0.49542	6.77967	6.77967	1.26571	1.26571	1772.08368	63601.299	43.65	0.0
1480.0	0.0	1.0	7.00603	7.85382	-0.22171	29.57254	30.73831	1.85848	0.53808	0.0	107.35777	0.0	0.49542	6.84008	6.84008	1.25096	1.25096	1773.87485	63383.523	43.5552	0.0
1475.0	0.0	1.0	7.00989	7.84949	-0.27675	29.53133	30.66262	1.85775	0.53829	0.0	107.54186	0.0	0.49542	6.90139	6.90139	1.23631	1.23631	1775.66286	63166.218	43.461	0.0
1470.0	0.0	1.0	7.01375	7.84517	-0.33164	29.49024	30.58693	1.85702	0.5385	0.0	107.72594	0.0	0.49542	6.9636	6.9636	1.22177	1.22177	1777.44766	62949.383	43.367	0.0
1465.0	0.0	1.0	7.01761	7.84086	-0.38637	29.44927	30.51124	1.85629	0.53871	0.0	107.91003	0.0	0.49542	7.02673	7.02673	1.20731	1.20731	1779.22921	62733.014	43.2738	0.0
1460.0	0.0	1.0	7.02145	7.83656	-0.44095	29.40842	30.43555	1.85555	0.53892	0.0	108.09411	0.0	0.49542	7.09081	7.09081	1.19296	1.19296	1781.00746	62517.107	43.1814	0.0
1455.0	0.0	1.0	7.02529	7.83228	-0.49537	29.36769	30.35985	1.85481	0.53914	0.0	108.2782	0.0	0.49542	7.15585	7.15585	1.17871	1.17871	1782.78237	62301.66	43.0894	0.0
1450.0	0.0	1.0	7.02913	7.82801	-0.54964	29.32708	30.28416	1.85407	0.53936	0.0	108.46229	0.0	0.49542	7.22186	7.22186	1.16456	1.16456	1784.5539	62086.703	42.9914	0.0
1445.0	0.0	1.0	7.03295	7.82375	-0.60376	29.28659	30.20847	1.85332	0.53957	0.0	108.64637	0.0	0.49542	7.28888	7.28888	1.1505	1.1505	1786.32201	61872.284	42.8838	0.0
1440.0	0.0	1.0	7.03678	7.8195	-0.65772	29.24623	30.13278	1.85257	0.53979	0.0	108.83046	0.0	0.49542	7.35691	7.35691	1.13655	1.13655	1788.08665	61658.396	42.7776	0.0
1435.0	0.0	1.0	7.04059	7.81527	-0.71153	29.206	30.05709	1.85181	0.54001	0.0	109.01454	0.0	0.49542	7.42598	7.42598	1.12269	1.12269	1789.84778	61445.035	42.6722	0.0
1430.0	0.0	1.0	7.0444	7.81104	-0.76518	29.16589	29.9814	1.85105	0.54023	0.0	109.19863	0.0	0.49542	7.49611	7.49611	1.10893	1.10893	1791.60534	61232.196	42.5678	0.0
1425.0	0.0	1.0	7.0482	7.80683	-0.81868	29.12591	29.9057	1.85029	0.54046	0.0	109.38272	0.0	0.49542	7.56732	7.56732	1.09527	1.09527	1793.35929	61019.878	42.4636	0.0
1420.0	0.0	1.0	7.05199	7.80263	-0.87203	29.08607	29.83001	1.84952	0.54068	0.0	109.5668	0.0	0.49542	7.63964	7.63964	1.08171	1.08171	1795.10959	60808.076	42.3604	0.0
1415.0	0.0	1.0	7.05577	7.79845	-0.92522	29.04635	29.75432	1.84875	0.54091	0.0	109.75089	0.0	0.49542	7.71308	7.71308	1.06824	1.06824	1796.85618	60596.787	42.2578	0.0
1410.85	0.0	1.0	7.05891	7.79498	-0.96929	29.01346	29.69144	1.84811	0.54109	0.0	109.90382	0.0	0.49542	7.77497	7.77497	1.05713	1.05713	1798.30434	60421.658	42.1604	0.0
1410.0	0.03097	0.96903	7.06419	7.78909	-1.0441	28.82743	29.73647	1.84438	0.54219	7.07568E-5	109.68538	2.37234E-5	0.49129	7.78504	8.11899	1.05523	1.01183	1798.00255	60028.019	465.223	357.985
1405.0	0.19601	0.80399	7.09292	7.75768	-1.44313	27.84122	29.97836	1.82407	0.54823	0.1162	108.55268	0.0395477	0.46909	7.84394	25.34589	1.0442	0.32315	1796.33929	57915.265	422.551	2260.465
1400.0	0.32465	0.67535	7.11599	7.73245	-1.76371	27.06301	30.16081	1.80763	0.55321	0.89071	107.73353	0.30681	0.45155	7.9038	132.74233	1.0332	0.0615194	1794.80202	56224.887	338.076	3741.07
1395.0	0.42675	0.57325	7.13494	7.71203	-2.02307	26.4477	30.29976	1.79396	0.55742	2.70078	107.15077	0.93941	0.43748	7.96466	393.84304	1.02224	0.0206728	1793.3746	54842.182	276.541	4914.501
1390.0	0.50908	0.49092	7.15081	7.69492	-2.24042	25.94397	30.40432	1.78244	0.56103	5.54506	106.74134	1.94426	0.426	8.0265	827.68827	1.01133	0.00980734	1792.05388	53688.366	230.763	5859.537
1385.0	0.57643	0.42357	7.1644	7.68039	-2.42512	25.52708	30.48207	1.77254	0.56416	9.22605	106.46626	3.2566	0.41652	8.08889	1426.72845	1.00051	0.00567243	1790.82988	52707.829	196.107	6631.788
1380.0	0.63221	0.36779	7.17618	7.66788	-2.58403	25.1789	30.53832	1.76394	0.56691	13.49561	106.29496	4.79051	0.40858	8.15265	2173.34718	0.98969	0.00371253	1789.69266	51861.043	169.357	7270.776
1375.0	0.6789	0.3211	7.18661	7.65686	-2.72406	24.88093	30.57696	1.75639	0.56935	18.1283	106.20509	6.4658	0.40186	8.21702	3049.08215	0.97897	0.00263824	1788.63887	51118.946	148.419	7805.56
1370.0	0.71839	0.28161	7.19592	7.64703	-2.84883	24.6235	30.60112	1.74968	0.57153	22.94022	106.17942	8.21571	0.39612	8.28267	4037.89622	0.96826	0.00198613	1787.66072	50459.924	131.804	8257.753
1365.0	0.75207	0.24793	7.20438	7.63818	-2.96135	24.39865	30.61337	1.74365	0.57351	27.79538	106.20644	9.98994	0.39117	8.34897	5127.91582	0.95765	0.00155919	1786.75205	49867.655	118.454	8643.672
1364.17	0.75754	0.24246	7.20581	7.63669	-2.9802	24.36059	30.61533	1.74266	0.57383	28.65529	106.21277	10.30498	0.39036	8.36016	5328.10214	0.95589	0.00149985	1786.60271	49771.294	 	8705.996
1360.0	0.78815	0.21185	7.21393	7.62835	-3.08619	24.13728	30.6478	1.73638	0.57591	33.14723	106.14099	11.95957	0.3858	8.40516	6522.90136	0.94835	0.001222	1785.63657	49258.752	121.781	9046.704
1355.0	0.82029	0.17971	7.22305	7.61901	-3.20482	23.89158	30.67269	1.72966	0.57815	38.54108	106.121	13.9543	0.38098	8.4602	8078.77455	0.93929	9.83639E-4	1784.55598	48694.1	112.93	9405.959
1350.0	0.84824	0.15176	7.23165	7.61029	-3.31563	23.66629	30.68469	1.72367	0.58016	43.88523	106.16011	15.93819	0.37673	8.51647	9764.02945	0.93022	8.11365E-4	1783.54239	48174.834	103.853	9720.299
1345.0	0.87275	0.12725	7.23983	7.60204	-3.42045	23.45641	30.686	1.71829	0.58197	49.14897	106.24606	17.89876	0.37297	8.57393	11578.31802	0.92114	6.82119E-4	1782.59154	47693.166	96.3336	9997.507
1340.0	0.89441	0.10559	7.24769	7.59419	-3.5202	23.25947	30.67845	1.7134	0.58363	54.31921	106.37008	19.83015	0.36961	8.6327	13525.29636	0.91204	5.82123E-4	1781.69443	47242.972	90.0388	10243.708
1335.0	0.91373	0.0862677	7.25531	7.5866	-3.61662	23.07063	30.66346	1.70893	0.58516	59.41667	106.52406	21.73923	0.36658	8.69271	15614.36097	0.90294	5.02677E-4	1780.85177	46818.743	84.8458	10464.406
1330.0	0.93121	0.0687865	7.2628	7.57919	-3.71069	22.88713	30.64251	1.70478	0.58659	64.51121	106.70199	23.65128	0.3638	8.75434	17864.48253	0.89379	4.37996E-4	1780.05439	46415.394	80.6698	10664.684
1327.69	0.93867	0.0613281	7.26621	7.57583	-3.75342	22.80403	30.63081	1.70297	0.58721	66.86261	106.79201	24.53488	0.3626	8.78296	18957.47581	0.8896	4.12148E-4	1779.69484	46235.493	 	10750.766
1325.0	0.9496	0.0503955	7.27115	7.57098	-3.815	22.6725	30.62301	1.70054	0.58805	70.46432	106.88047	25.88944	0.36087	8.82261	20492.99664	0.88411	3.80626E-4	1779.97192	45996.271	83.8246	10881.194
1320.0	0.96824	0.0317571	7.27997	7.56239	-3.9242	22.44197	30.60294	1.69633	0.58951	77.77113	107.06546	28.63691	0.35788	8.89796	23501.6835	0.87388	3.3086E-4	1780.49297	45571.622	84.9298	11103.683
1315.0	0.98485	0.0151474	7.28836	7.55426	-4.02746	22.227	30.5764	1.69248	0.59085	86.72004	107.27408	31.99578	0.35518	8.9751	26710.14351	0.86365	2.90203E-4	1781.01772	45170.698	80.1848	11302.898
1310.0	1.0	0.0	7.2965	7.54643	-4.12696	22.02141	30.54542	1.68886	0.59212	95.02269	107.50034	35.1239	0.35268	 	30163.52277	 	2.56169E-4	 	44787.521	76.6354	11484.816
1305.0	1.0	0.0	7.29918	7.54366	-4.1621	22.0039	30.47936	1.68718	0.59271	95.44028	107.81821	35.28377	0.35247	 	32131.34685	 	2.39721E-4	 	44545.186	48.467	 
1300.0	1.0	0.0	7.30185	7.5409	-4.19718	21.98641	30.41331	1.68548	0.5933	95.85758	108.13486	35.44357	0.35226	 	34241.326	 	2.24236E-4	 	44354.39	38.1592	 
1295.0	1.0	0.0	7.30452	7.53814	-4.2322	21.96894	30.34725	1.68378	0.5939	96.27461	108.4503	35.60333	0.35204	 	36504.69007	 	2.09665E-4	 	44163.906	38.0968	 
1290.0	1.0	0.0	7.30719	7.53539	-4.26718	21.95149	30.2812	1.68207	0.5945	96.69135	108.76451	35.76303	0.35183	 	38933.62997	 	1.95958E-4	 	43973.722	38.0368	 
1285.0	1.0	0.0	7.30986	7.53264	-4.3021	21.93406	30.21514	1.68036	0.59511	97.10781	109.07752	35.92268	0.35162	 	41541.38612	 	1.83069E-4	 	43783.838	37.9768	 
1280.0	1.0	0.0	7.31252	7.5299	-4.33696	21.91666	30.14909	1.67864	0.59572	97.52399	109.38932	36.08227	0.35141	 	44342.34562	 	1.70955E-4	 	43594.248	37.918	 
1275.0	1.0	0.0	7.31518	7.52716	-4.37177	21.89927	30.08303	1.67691	0.59634	97.93988	109.69991	36.24181	0.3512	 	47352.14901	 	1.59573E-4	 	43404.952	37.8592	 
1270.0	1.0	0.0	7.31784	7.52442	-4.40653	21.88191	30.01698	1.67517	0.59695	98.35549	110.00931	36.40129	0.35099	 	50587.80768	 	1.48884E-4	 	43215.951	37.8002	 
1265.0	1.0	0.0	7.3205	7.52169	-4.44124	21.86457	29.95092	1.67342	0.59758	98.77082	110.31751	36.56072	0.35078	 	54067.83302	 	1.3885E-4	 	43027.244	37.7414	 
1260.0	1.0	0.0	7.32316	7.51896	-4.47589	21.84725	29.88487	1.67167	0.5982	99.18586	110.62453	36.72008	0.35057	 	57812.37854	 	1.29435E-4	 	42838.831	37.6826	 
1255.0	1.0	0.0	7.32581	7.51624	-4.51049	21.82996	29.81881	1.66991	0.59883	99.60061	110.93035	36.8794	0.35036	 	61843.39647	 	1.20603E-4	 	42650.713	37.6236	 
1250.0	1.0	0.0	7.32846	7.51352	-4.54504	21.81268	29.75276	1.66814	0.59947	100.01507	111.235	37.03865	0.35014	 	66184.81022	 	1.12324E-4	 	42462.89	37.5646	 
1245.0	1.0	0.0	7.33111	7.51081	-4.57953	21.79543	29.6867	1.66637	0.60011	100.42924	111.53846	37.19785	0.34993	 	70862.70455	 	1.04564E-4	 	42275.361	37.5058	 
1240.0	1.0	0.0	7.33376	7.50809	-4.61398	21.7782	29.62064	1.66458	0.60075	100.84313	111.84075	37.35699	0.34972	 	75905.53534	 	9.72961E-5	 	42088.119	37.4484	 
1235.0	1.0	0.0	7.3364	7.50539	-4.64836	21.76099	29.55459	1.66279	0.6014	101.25672	112.14188	37.51608	0.34951	 	81344.3611	 	9.04907E-5	 	41901.162	37.3914	 
1230.0	1.0	0.0	7.33905	7.50268	-4.6827	21.7438	29.48853	1.66099	0.60205	101.67002	112.44183	37.6751	0.3493	 	87213.09861	 	8.41216E-5	 	41714.488	37.3348	 
1225.0	1.0	0.0	7.34169	7.49999	-4.71698	21.72664	29.42247	1.65918	0.60271	102.08303	112.74062	37.83407	0.34909	 	93548.80539	 	7.81635E-5	 	41528.097	37.2782	 
1220.0	1.0	0.0	7.34432	7.49729	-4.75122	21.70949	29.35642	1.65736	0.60337	102.49575	113.03826	37.99298	0.34888	 	100391.992	 	7.25924E-5	 	41341.989	37.2216	 
1215.0	1.0	0.0	7.34696	7.4946	-4.7854	21.69237	29.29036	1.65554	0.60403	102.90817	113.33474	38.15183	0.34867	 	107786.9674	 	6.73856E-5	 	41156.163	37.1652	 
1210.0	1.0	0.0	7.3496	7.49192	-4.81952	21.67527	29.2243	1.65371	0.6047	103.3203	113.63007	38.31062	0.34846	 	115782.2212	 	6.25216E-5	 	40970.618	37.109	 
1205.0	1.0	0.0	7.35223	7.48923	-4.8536	21.65819	29.15825	1.65187	0.60538	103.73213	113.92426	38.46935	0.34824	 	124430.8475	 	5.79799E-5	 	40785.354	37.0528	 
1200.0	1.0	0.0	7.35486	7.48656	-4.88762	21.64113	29.09219	1.65002	0.60605	104.14367	114.2173	38.62802	0.34803	 	133791.0133	 	5.37411E-5	 	40600.371	36.9966	 
1195.0	1.0	0.0	7.35749	7.48388	-4.92159	21.6241	29.02613	1.64816	0.60674	104.55491	114.50921	38.78663	0.34782	 	143926.4792	 	4.97871E-5	 	40415.669	36.9404	 
1190.0	1.0	0.0	7.36011	7.48121	-4.95551	21.60709	28.96007	1.64629	0.60743	104.96585	114.79998	38.94517	0.34761	 	154907.1764	 	4.61003E-5	 	40231.245	36.8848	 
1185.0	1.0	0.0	7.36273	7.47855	-4.98938	21.59009	28.89401	1.64442	0.60812	105.3765	115.08962	39.10366	0.3474	 	166809.8473	 	4.26646E-5	 	40047.102	36.8286	 
1180.0	1.0	0.0	7.36536	7.47588	-5.02319	21.57312	28.82796	1.64253	0.60882	105.78684	115.37813	39.26209	0.34719	 	179718.757	 	3.94642E-5	 	39863.236	36.7732	 
1175.0	1.0	0.0	7.36798	7.47323	-5.05696	21.55618	28.7619	1.64064	0.60952	106.19689	115.66552	39.42045	0.34698	 	193726.4841	 	3.64847E-5	 	39679.649	36.7174	 
1170.0	1.0	0.0	7.37059	7.47057	-5.09067	21.53925	28.69584	1.63874	0.61022	106.60663	115.95179	39.57875	0.34677	 	208934.8007	 	3.37122E-5	 	39496.34	36.6618	 
1165.0	1.0	0.0	7.37321	7.46792	-5.12433	21.52234	28.62978	1.63683	0.61094	107.01607	116.23694	39.73699	0.34655	 	225455.6508	 	3.11336E-5	 	39313.308	36.6064	 
1160.0	1.0	0.0	7.37582	7.46528	-5.15794	21.50546	28.56372	1.63491	0.61165	107.42521	116.52099	39.89517	0.34634	 	243412.2403	 	2.87366E-5	 	39130.553	36.551	 
1155.0	1.0	0.0	7.37843	7.46264	-5.1915	21.4886	28.49766	1.63299	0.61238	107.83405	116.80393	40.05329	0.34613	 	262940.252	 	2.65096E-5	 	38948.075	36.4956	 
1150.0	1.0	0.0	7.38104	7.46	-5.225	21.47176	28.4316	1.63105	0.6131	108.24259	117.08576	40.21134	0.34592	 	284189.1992	 	2.44416E-5	 	38765.872	36.4406	 
1145.0	1.0	0.0	7.38365	7.45737	-5.25846	21.45494	28.36554	1.6291	0.61383	108.65082	117.36649	40.36933	0.34571	 	307323.9369	 	2.25223E-5	 	38583.945	36.3854	 
1140.0	1.0	0.0	7.38625	7.45474	-5.29186	21.43815	28.29948	1.62715	0.61457	109.05874	117.64613	40.52725	0.3455	 	332526.3487	 	2.07419E-5	 	38402.292	36.3306	 
1135.0	1.0	0.0	7.38885	7.45211	-5.32522	21.42137	28.23342	1.62519	0.61531	109.46636	117.92467	40.68511	0.34529	 	359997.2311	 	1.90913E-5	 	38220.914	36.2756	 
1130.0	1.0	0.0	7.39145	7.44949	-5.35852	21.40462	28.16736	1.62321	0.61606	109.87367	118.20212	40.84291	0.34508	 	389958.4006	 	1.75619E-5	 	38039.81	36.2208	 
1125.0	1.0	0.0	7.39405	7.44687	-5.39177	21.38789	28.1013	1.62123	0.61681	110.28068	118.47849	41.00064	0.34487	 	422655.0505	 	1.61456E-5	 	37858.98	36.166	 
1120.0	1.0	0.0	7.39665	7.44426	-5.42498	21.37118	28.03524	1.61924	0.61757	110.68737	118.75378	41.1583	0.34465	 	458358.3895	 	1.48347E-5	 	37678.422	36.1116	 
1115.0	1.0	0.0	7.39924	7.44165	-5.45813	21.35449	27.96918	1.61724	0.61834	111.09376	119.02798	41.3159	0.34444	 	497368.5976	 	1.36221E-5	 	37498.137	36.057	 
1110.0	1.0	0.0	7.40183	7.43904	-5.49123	21.33783	27.90312	1.61523	0.61911	111.49984	119.30112	41.47344	0.34423	 	540018.1398	 	1.25011E-5	 	37318.124	36.0026	 
1105.0	1.0	0.0	7.40442	7.43644	-5.52428	21.32118	27.83706	1.61321	0.61988	111.90561	119.57318	41.63091	0.34402	 	586675.4836	 	1.14653E-5	 	37138.383	35.9482	 
1100.0	1.0	0.0	7.40701	7.43384	-5.55728	21.30456	27.77099	1.61118	0.62066	112.31106	119.84418	41.78831	0.34381	 	637749.2723	 	1.05088E-5	 	36958.913	35.894	 
1095.0	1.0	0.0	7.40959	7.43125	-5.59023	21.28796	27.70493	1.60914	0.62145	112.71621	120.11411	41.94565	0.3436	 	693693.0136	 	9.62616E-6	 	36779.713	35.84	 
1090.0	1.0	0.0	7.41218	7.42866	-5.62313	21.27138	27.63887	1.60709	0.62224	113.12104	120.38298	42.10292	0.34339	 	755010.3511	 	8.81206E-6	 	36600.784	35.7858	 
1085.0	1.0	0.0	7.41476	7.42608	-5.65598	21.25482	27.57281	1.60503	0.62304	113.52556	120.6508	42.26012	0.34318	 	822260.9948	 	8.06167E-6	 	36422.124	35.732	 
1080.0	1.0	0.0	7.41734	7.42349	-5.68878	21.23829	27.50675	1.60297	0.62384	113.92977	120.91756	42.41725	0.34296	 	896067.3994	 	7.37042E-6	 	36243.733	35.6782	 
1075.0	1.0	0.0	7.41991	7.42092	-5.72152	21.22178	27.44068	1.60089	0.62465	114.33366	121.18327	42.57432	0.34275	 	977122.2882	 	6.73404E-6	 	36065.611	35.6244	 
1070.0	1.0	0.0	7.42249	7.41834	-5.75422	21.20528	27.37462	1.5988	0.62547	114.73724	121.44794	42.73132	0.34254	 	1066197.139	 	6.14856E-6	 	35887.758	35.5706	 
1065.0	1.0	0.0	7.42506	7.41577	-5.78687	21.18881	27.30856	1.5967	0.62629	115.1405	121.71156	42.88825	0.34233	 	1164151.758	 	5.61025E-6	 	35710.172	35.5172	 
1060.0	1.0	0.0	7.42763	7.41321	-5.81947	21.17237	27.24249	1.59459	0.62712	115.54344	121.97414	43.04511	0.34212	 	1271945.098	 	5.11561E-6	 	35532.853	35.4638	 
1055.0	1.0	0.0	7.4302	7.41064	-5.85203	21.15594	27.17643	1.59247	0.62795	115.94607	122.23569	43.20191	0.34191	 	1390647.478	 	4.6614E-6	 	35355.802	35.4102	 
1050.0	1.0	0.0	7.43276	7.40809	-5.88453	21.13954	27.11037	1.59035	0.62879	116.34838	122.49621	43.35863	0.3417	 	1521454.413	 	4.2446E-6	 	35179.016	35.3572	 
1045.0	1.0	0.0	7.43533	7.40553	-5.91698	21.12315	27.0443	1.58821	0.62964	116.75037	122.7557	43.51529	0.34149	 	1665702.269	 	3.86237E-6	 	35002.497	35.3038	 
1040.0	1.0	0.0	7.43789	7.40298	-5.94938	21.10679	26.97824	1.58606	0.63049	117.15205	123.01416	43.67188	0.34128	 	1824885.995	 	3.51209E-6	 	34826.242	35.251	 
1035.0	1.0	0.0	7.44045	7.40043	-5.98174	21.09045	26.91217	1.5839	0.63135	117.5534	123.2716	43.82839	0.34106	 	2000679.24	 	3.19129E-6	 	34650.253	35.1978	 
1030.0	1.0	0.0	7.44301	7.39789	-6.01404	21.07413	26.84611	1.58172	0.63222	117.95443	123.52802	43.98484	0.34085	 	2194957.173	 	2.89771E-6	 	34474.528	35.145	 
1025.0	1.0	0.0	7.44556	7.39535	-6.0463	21.05784	26.78004	1.57954	0.63309	118.35515	123.78343	44.14121	0.34064	 	2409822.411	 	2.62922E-6	 	34299.067	35.0922	 
1020.0	1.0	0.0	7.44811	7.39282	-6.0785	21.04156	26.71398	1.57735	0.63397	118.75554	124.03782	44.29752	0.34043	 	2647634.489	 	2.38384E-6	 	34123.869	35.0396	 
1015.0	1.0	0.0	7.45066	7.39029	-6.11066	21.02531	26.64791	1.57515	0.63486	119.1556	124.29121	44.45375	0.34022	 	2911043.39	 	2.15975E-6	 	33948.935	34.9868	 
1010.0	1.0	0.0	7.45321	7.38776	-6.14277	21.00908	26.58185	1.57293	0.63576	119.55535	124.54359	44.60992	0.34001	 	3203027.734	 	1.95526E-6	 	33774.262	34.9346	 
1005.0	1.0	0.0	7.45576	7.38524	-6.17483	20.99287	26.51578	1.57071	0.63666	119.95477	124.79497	44.76601	0.3398	 	3526938.291	 	1.76877E-6	 	33599.852	34.882	 
1000.0	1.0	0.0	7.45831	7.38272	-6.20684	20.97668	26.44972	1.56847	0.63756	120.35387	125.04535	44.92203	0.33959	 	3886547.635	 	1.59883E-6	 	33425.703	34.8298	 
995.0	1.0	0.0	7.46085	7.3802	-6.2388	20.96052	26.38365	1.56622	0.63848	120.75264	125.29474	45.07797	0.33938	 	4286106.825	 	1.44409E-6	 	33251.816	34.7774	 
990.0	1.0	0.0	7.46339	7.37769	-6.27072	20.94438	26.31758	1.56396	0.6394	121.15109	125.54313	45.23385	0.33916	 	4730410.186	 	1.3033E-6	 	33078.188	34.7256	 
985.0	1.0	0.0	7.46593	7.37518	-6.30258	20.92825	26.25152	1.56169	0.64033	121.54921	125.79054	45.38965	0.33895	 	5224869.41	 	1.17529E-6	 	32904.821	34.6734	 
980.0	1.0	0.0	7.46846	7.37267	-6.3344	20.91215	26.18545	1.55941	0.64127	121.94701	126.03696	45.54538	0.33874	 	5775598.392	 	1.05899E-6	 	32731.713	34.6216	 
975.0	1.0	0.0	7.471	7.37017	-6.36617	20.89607	26.11938	1.55712	0.64221	122.34447	126.28239	45.70104	0.33853	 	6389510.457	 	9.53424E-7	 	32558.864	34.5698	 
970.0	1.0	0.0	7.47353	7.36768	-6.39789	20.88002	26.05331	1.55481	0.64316	122.74161	126.52685	45.85662	0.33832	 	7074429.876	 	8.57667E-7	 	32386.274	34.518	 
965.0	1.0	0.0	7.47606	7.36518	-6.42957	20.86398	25.98725	1.5525	0.64412	123.13842	126.77033	46.01213	0.33811	 	7839219.92	 	7.70881E-7	 	32213.942	34.4664	 
960.0	1.0	0.0	7.47859	7.36269	-6.46119	20.84797	25.92118	1.55017	0.64509	123.5349	127.01284	46.16756	0.3379	 	8693930.013	 	6.92287E-7	 	32041.868	34.4148	 
955.0	1.0	0.0	7.48111	7.36021	-6.49277	20.83198	25.85511	1.54783	0.64607	123.93105	127.25438	46.32293	0.33769	 	9649965.031	 	6.21173E-7	 	31870.05	34.3636	 
950.0	1.0	0.0	7.48364	7.35773	-6.5243	20.81601	25.78904	1.54548	0.64705	124.32687	127.49495	46.47821	0.33747	 	1.072028025E7	 	5.56878E-7	 	31698.489	34.3122	 
945.0	1.0	0.0	7.48616	7.35525	-6.55578	20.80006	25.72297	1.54311	0.64804	124.72236	127.73456	46.63342	0.33726	 	1.191960606E7	 	4.98799E-7	 	31527.184	34.261	 
940.0	1.0	0.0	7.48868	7.35277	-6.58722	20.78413	25.6569	1.54074	0.64904	125.11752	127.97321	46.78856	0.33705	 	1.326470728E7	 	4.46379E-7	 	31356.135	34.2098	 
935.0	1.0	0.0	7.49119	7.3503	-6.61861	20.76823	25.59083	1.53835	0.65005	125.51235	128.2109	46.94362	0.33684	 	1.47746826E7	 	3.99107E-7	 	31185.341	34.1588	 
930.0	1.0	0.0	7.49371	7.34784	-6.64995	20.75235	25.52476	1.53595	0.65106	125.90684	128.44764	47.09861	0.33663	 	1.647131093E7	 	3.56515E-7	 	31014.801	34.108	 
925.0	1.0	0.0	7.49622	7.34537	-6.68124	20.73649	25.45869	1.53353	0.65209	126.301	128.68343	47.25352	0.33642	 	1.83794522E7	 	3.18174E-7	 	30844.515	34.0572	 
920.0	1.0	0.0	7.49873	7.34291	-6.71249	20.72065	25.39262	1.53111	0.65312	126.69482	128.91827	47.40835	0.33621	 	2.052751176E7	 	2.83691E-7	 	30674.483	34.0064	 
915.0	1.0	0.0	7.50124	7.34046	-6.74369	20.70483	25.32655	1.52867	0.65416	127.08831	129.15216	47.56311	0.336	 	2.294797908E7	 	2.52705E-7	 	30504.704	33.9558	 
910.0	1.0	0.0	7.50375	7.33801	-6.77484	20.68903	25.26048	1.52622	0.65522	127.48147	129.38511	47.71779	0.33579	 	2.567805327E7	 	2.24887E-7	 	30335.177	33.9054	 
905.0	1.0	0.0	7.50625	7.33556	-6.80594	20.67326	25.19441	1.52375	0.65628	127.87429	129.61713	47.8724	0.33557	 	2.876037028E7	 	1.99937E-7	 	30165.902	33.855	 
900.0	1.0	0.0	7.50875	7.33311	-6.837	20.65751	25.12834	1.52127	0.65734	128.26677	129.8482	48.02692	0.33536	 	3.224384906E7	 	1.7758E-7	 	29996.879	33.8046	 
895.0	1.0	0.0	7.51125	7.33067	-6.86801	20.64178	25.06227	1.51878	0.65842	128.65891	130.07835	48.18137	0.33515	 	3.618467753E7	 	1.57565E-7	 	29828.107	33.7544	 
890.0	1.0	0.0	7.51375	7.32824	-6.89898	20.62607	24.9962	1.51628	0.65951	129.05072	130.30756	48.33574	0.33494	 	4.064746253E7	 	1.39665E-7	 	29659.585	33.7044	 
885.0	1.0	0.0	7.51625	7.3258	-6.92989	20.61038	24.93013	1.51376	0.66061	129.44219	130.53585	48.49004	0.33473	 	4.570657272E7	 	1.23672E-7	 	29491.314	33.6542	 
880.0	1.0	0.0	7.51874	7.32337	-6.96076	20.59472	24.86405	1.51123	0.66171	129.83332	130.76322	48.64425	0.33452	 	5.144770857E7	 	1.09397E-7	 	29323.291	33.6046	 
875.0	1.0	0.0	7.52123	7.32095	-6.99159	20.57907	24.79798	1.50869	0.66283	130.22411	130.98966	48.79839	0.33431	 	5.796973995E7	 	9.66683E-8	 	29155.518	33.5546	 
870.0	1.0	0.0	7.52372	7.31852	-7.02237	20.56345	24.73191	1.50613	0.66395	130.61456	131.21519	48.95245	0.3341	 	6.538685972E7	 	8.53295E-8	 	28987.992	33.5052	 
865.0	1.0	0.0	7.52621	7.3161	-7.0531	20.54785	24.66584	1.50356	0.66509	131.00467	131.4398	49.10643	0.33389	 	7.383111046E7	 	7.52397E-8	 	28820.715	33.4554	 
860.0	1.0	0.0	7.5287	7.31369	-7.08379	20.53227	24.59976	1.50098	0.66623	131.39444	131.6635	49.26033	0.33367	 	8.345535278E7	 	6.62704E-8	 	28653.685	33.406	 
855.0	1.0	0.0	7.53118	7.31128	-7.11443	20.51671	24.53369	1.49838	0.66739	131.78387	131.88628	49.41415	0.33346	 	9.443675673E7	 	5.83059E-8	 	28486.901	33.3568	 
850.0	1.0	0.0	7.53366	7.30887	-7.14502	20.50118	24.46761	1.49577	0.66855	132.17295	132.10817	49.56789	0.33325	 	1.069809135E8	 	5.12411E-8	 	28320.364	33.3074	 
845.0	1.0	0.0	7.53614	7.30646	-7.17557	20.48567	24.40154	1.49314	0.66973	132.56169	132.32915	49.72156	0.33304	 	1.213266842E8	 	4.49811E-8	 	28154.072	33.2584	 
840.0	1.0	0.0	7.53862	7.30406	-7.20607	20.47018	24.33547	1.4905	0.67092	132.95009	132.54923	49.87514	0.33283	 	1.377519242E8	 	3.94405E-8	 	27988.026	33.2092	 
835.0	1.0	0.0	7.54109	7.30167	-7.23653	20.45471	24.26939	1.48784	0.67211	133.33815	132.76841	50.02864	0.33262	 	1.565802517E8	 	3.45421E-8	 	27822.223	33.1606	 
830.0	1.0	0.0	7.54357	7.29927	-7.26694	20.43926	24.20332	1.48517	0.67332	133.72586	132.98669	50.18206	0.33241	 	1.781890599E8	 	3.02162E-8	 	27656.665	33.1116	 
825.0	1.0	0.0	7.54604	7.29688	-7.2973	20.42383	24.13724	1.48249	0.67454	134.11322	133.20409	50.3354	0.3322	 	2.030190145E8	 	2.64005E-8	 	27491.35	33.063	 
820.0	1.0	0.0	7.54851	7.2945	-7.32762	20.40843	24.07116	1.47979	0.67577	134.50024	133.42059	50.48866	0.33198	 	2.315853283E8	 	2.30386E-8	 	27326.278	33.0144	 
815.0	1.0	0.0	7.55097	7.29211	-7.3579	20.39305	24.00509	1.47708	0.67701	134.88691	133.63621	50.64184	0.33177	 	2.644911616E8	 	2.008E-8	 	27161.448	32.966	 
810.0	1.0	0.0	7.55344	7.28973	-7.38813	20.37768	23.93901	1.47435	0.67827	135.27324	133.85095	50.79493	0.33156	 	3.024435734E8	 	1.74796E-8	 	26996.859	32.9178	 
805.0	1.0	0.0	7.5559	7.28736	-7.41831	20.36235	23.87293	1.4716	0.67953	135.65922	134.0648	50.94795	0.33135	 	3.462725351E8	 	1.51966E-8	 	26832.512	32.8694	 
800.0	1.0	0.0	7.55836	7.28499	-7.44845	20.34703	23.80686	1.46885	0.68081	136.04485	134.27777	51.10088	0.33114	 	3.969536268E8	 	1.31949E-8	 	26668.405	32.8214	 
795.0	1.0	0.0	7.56082	7.28262	-7.47854	20.33173	23.74078	1.46607	0.6821	136.43013	134.48988	51.25373	0.33093	 	4.556351683E8	 	1.1442E-8	 	26504.537	32.7736	 
790.0	1.0	0.0	7.56328	7.28025	-7.50859	20.31646	23.6747	1.46328	0.6834	136.81507	134.7011	51.40649	0.33072	 	5.236707007E8	 	9.90884E-9	 	26340.909	32.7256	 
785.0	1.0	0.0	7.56573	7.27789	-7.5386	20.30121	23.60863	1.46048	0.68471	137.19965	134.91146	51.55918	0.33051	 	6.026579297E8	 	8.56965E-9	 	26177.519	32.678	 
780.0	1.0	0.0	7.56818	7.27553	-7.56855	20.28598	23.54255	1.45765	0.68603	137.58388	135.12095	51.71178	0.3303	 	6.944854872E8	 	7.4014E-9	 	26014.367	32.6304	 
775.0	1.0	0.0	7.57063	7.27318	-7.59847	20.27077	23.47647	1.45482	0.68737	137.96777	135.32958	51.8643	0.33008	 	8.013891671E8	 	6.38361E-9	 	25851.452	32.583	 
770.0	1.0	0.0	7.57308	7.27083	-7.62834	20.25558	23.41039	1.45196	0.68872	138.3513	135.53734	52.01673	0.32987	 	9.260196589E8	 	5.49811E-9	 	25688.773	32.5358	 
765.0	1.0	0.0	7.57553	7.26848	-7.65816	20.24042	23.34431	1.44909	0.69009	138.73448	135.74425	52.16908	0.32966	 	1.071524258E9	 	4.72873E-9	 	25526.331	32.4884	 
760.0	1.0	0.0	7.57797	7.26613	-7.68794	20.22527	23.27823	1.44621	0.69146	139.11731	135.9503	52.32135	0.32945	 	1.241645596E9	 	4.06118E-9	 	25364.123	32.4416	 
755.0	1.0	0.0	7.58041	7.26379	-7.71768	20.21015	23.21215	1.44331	0.69285	139.49979	136.15549	52.47353	0.32924	 	1.440841122E9	 	3.48279E-9	 	25202.15	32.3946	 
750.0	1.0	0.0	7.58285	7.26146	-7.74737	20.19505	23.14607	1.44039	0.69426	139.88191	136.35984	52.62563	0.32903	 	1.67442794E9	 	2.98236E-9	 	25040.41	32.348	 
745.0	1.0	0.0	7.58529	7.25912	-7.77702	20.17997	23.07999	1.43745	0.69567	140.26368	136.56334	52.77764	0.32882	 	1.948758677E9	 	2.55E-9	 	24878.903	32.3014	 
740.0	1.0	0.0	7.58773	7.25679	-7.80663	20.16492	23.01391	1.4345	0.69711	140.6451	136.76599	52.92957	0.32861	 	2.271435377E9	 	2.17701E-9	 	24717.629	32.2548	 
735.0	1.0	0.0	7.59016	7.25447	-7.83619	20.14988	22.94783	1.43153	0.69855	141.02616	136.96779	53.08141	0.32839	 	2.651570091E9	 	1.8557E-9	 	24556.585	32.2088	 
730.0	1.0	0.0	7.59259	7.25214	-7.8657	20.13487	22.88175	1.42855	0.70001	141.40686	137.16876	53.23317	0.32818	 	3.100102926E9	 	1.57934E-9	 	24395.772	32.1626	 
725.0	1.0	0.0	7.59502	7.24982	-7.89517	20.11988	22.81567	1.42554	0.70149	141.78722	137.36889	53.38484	0.32797	 	3.630190863E9	 	1.342E-9	 	24235.189	32.1166	 
720.0	1.0	0.0	7.59745	7.24751	-7.9246	20.10491	22.74958	1.42252	0.70298	142.16721	137.56818	53.53642	0.32776	 	4.25768398E9	 	1.13849E-9	 	24074.834	32.071	 
715.0	1.0	0.0	7.59987	7.24519	-7.95399	20.08996	22.6835	1.41948	0.70448	142.54685	137.76664	53.68792	0.32755	 	5.001709751E9	 	9.64253E-10	 	23914.707	32.0254	 
710.0	1.0	0.0	7.6023	7.24288	-7.98333	20.07503	22.61742	1.41643	0.706	142.92613	137.96427	53.83934	0.32734	 	5.885391272E9	 	8.15326E-10	 	23754.807	31.98	 
705.0	1.0	0.0	7.60472	7.24058	-8.01263	20.06013	22.55134	1.41335	0.70754	143.30505	138.16108	53.99066	0.32713	 	6.936731751E9	 	6.88236E-10	 	23595.133	31.9348	 
700.0	1.0	0.0	7.60714	7.23827	-8.04188	20.04525	22.48525	1.41026	0.70909	143.68361	138.35705	54.1419	0.32692	 	8.189705805E9	 	5.7996E-10	 	23435.684	31.8898	 
695.0	1.0	0.0	7.60955	7.23598	-8.07109	20.03039	22.41917	1.40715	0.71066	144.06182	138.55221	54.29306	0.32671	 	9.685608485E9	 	4.87868E-10	 	23276.458	31.8452	 
690.0	1.0	0.0	7.61197	7.23368	-8.10026	20.01555	22.35309	1.40402	0.71224	144.43966	138.74654	54.44412	0.32649	 	1.14747E10	 	4.09674E-10	 	23117.455	31.8006	 
685.0	1.0	0.0	7.61438	7.23139	-8.12938	20.00073	22.287	1.40088	0.71384	144.81715	138.94006	54.5951	0.32628	 	1.3618399999999998E10	 	3.43395E-10	 	22958.674	31.7562	 
680.0	1.0	0.0	7.61679	7.2291	-8.15846	19.98593	22.22092	1.39771	0.71546	145.19427	139.13276	54.74599	0.32607	 	1.6191699999999998E10	 	2.87314E-10	 	22800.112	31.7124	 
675.0	1.0	0.0	7.6192	7.22681	-8.1875	19.97116	22.15483	1.39453	0.71709	145.57104	139.32465	54.89679	0.32586	 	1.92863E10	 	2.39947E-10	 	22641.77	31.6684	 
670.0	1.0	0.0	7.62161	7.22453	-8.2165	19.95641	22.08875	1.39132	0.71874	145.94744	139.51573	55.0475	0.32565	 	2.30151E10	 	2.00011E-10	 	22483.645	31.625	 
665.0	1.0	0.0	7.62401	7.22225	-8.24545	19.94168	22.02266	1.3881	0.72041	146.32348	139.70601	55.19813	0.32544	 	2.7516599999999996E10	 	1.66404E-10	 	22325.736	31.5818	 
660.0	1.0	0.0	7.62642	7.21998	-8.27436	19.92697	21.95657	1.38486	0.7221	146.69916	139.89547	55.34867	0.32523	 	3.2961699999999996E10	 	1.38175E-10	 	22168.041	31.539	 
655.0	1.0	0.0	7.62882	7.2177	-8.30323	19.91228	21.89049	1.38159	0.7238	147.07448	140.08414	55.49911	0.32502	 	3.95611E10	 	1.14508E-10	 	22010.559	31.4964	 
650.0	1.0	0.0	7.63122	7.21543	-8.33205	19.89762	21.8244	1.37831	0.72552	147.44944	140.272	55.64947	0.32481	 	4.757579999999999E10	 	9.4705E-11	 	21853.288	31.4542	 
645.0	1.0	0.0	7.63361	7.21317	-8.36084	19.88298	21.75831	1.37501	0.72727	147.82403	140.45907	55.79974	0.32459	 	5.732939999999999E10	 	7.8167E-11	 	21696.225	31.4126	 
640.0	1.0	0.0	7.63601	7.21091	-8.38958	19.86835	21.69222	1.37169	0.72903	148.19825	140.64534	55.94992	0.32438	 	6.92238E10	 	6.43833E-11	 	21539.369	31.3712	 
635.0	1.0	0.0	7.6384	7.20865	-8.41827	19.85375	21.62614	1.36835	0.73081	148.57211	140.83082	56.10001	0.32417	 	8.37598E10	 	5.29186E-11	 	21382.717	31.3304	 
630.0	1.0	0.0	7.64079	7.20639	-8.44693	19.83918	21.56005	1.36499	0.73261	148.94561	141.0155	56.25001	0.32396	 	1.01562E11	 	4.34024E-11	 	21226.267	31.29	 
625.0	1.0	0.0	7.64318	7.20414	-8.47554	19.82462	21.49396	1.3616	0.73443	149.31874	141.1994	56.39992	0.32375	 	1.23413E11	 	3.55201E-11	 	21070.017	31.25	 
620.0	1.0	0.0	7.64557	7.20189	-8.50411	19.81009	21.42787	1.3582	0.73627	149.6915	141.38252	56.54974	0.32354	 	1.50293E11	 	2.90049E-11	 	20913.962	31.211	 
615.0	1.0	0.0	7.64795	7.19965	-8.53264	19.79557	21.36178	1.35477	0.73813	150.0639	141.56485	56.69947	0.32333	 	1.83434E11	 	2.36316E-11	 	20758.1	31.1724	 
610.0	1.0	0.0	7.65034	7.1974	-8.56113	19.78108	21.29569	1.35133	0.74001	150.43593	141.7464	56.8491	0.32312	 	2.24389E11	 	1.92097E-11	 	20602.428	31.1344	 
605.0	1.0	0.0	7.65272	7.19516	-8.58958	19.76661	21.2296	1.34786	0.74192	150.80759	141.92717	56.99865	0.3229	 	2.75118E11	 	1.55789E-11	 	20446.941	31.0974	 
600.0	1.0	0.0	7.65509	7.19293	-8.61798	19.75216	21.1635	1.34437	0.74384	151.17889	142.10716	57.14811	0.32269	 	3.38105E11	 	1.26044E-11	 	20291.635	31.0612	 
595.0	1.0	0.0	7.65747	7.1907	-8.64635	19.73774	21.09741	1.34086	0.74579	151.54982	142.28638	57.29747	0.32248	 	4.16501E11	 	1.01734E-11	 	20136.505	31.026	 
590.0	1.0	0.0	7.65985	7.18847	-8.67467	19.72334	21.03132	1.33733	0.74776	151.92037	142.46483	57.44674	0.32227	 	5.14315E11	 	8.19112E-12	 	19981.546	30.9918	 
585.0	1.0	0.0	7.66222	7.18624	-8.70295	19.70895	20.96523	1.33377	0.74975	152.29056	142.6425	57.59592	0.32206	 	6.36665E11	 	6.57869E-12	 	19826.751	30.959	 
580.0	1.0	0.0	7.66459	7.18402	-8.73118	19.69459	20.89913	1.33019	0.75177	152.66038	142.81941	57.74501	0.32185	 	7.90094E11	 	5.27027E-12	 	19671.904	30.9694	 
575.0	1.0	0.0	7.66696	7.1818	-8.75938	19.68025	20.83304	1.32659	0.75381	153.02983	142.99556	57.894	0.32164	 	9.82998E11	 	4.21121E-12	 	19516.944	30.992	 
570.0	1.0	0.0	7.66933	7.17958	-8.78754	19.66594	20.76695	1.32297	0.75588	153.39891	143.17094	58.0429	0.32143	 	1.22617E12	 	3.35613E-12	 	19362.281	30.9326	 
565.0	1.0	0.0	7.67169	7.17737	-8.81565	19.65164	20.70085	1.31932	0.75796	153.76761	143.34557	58.19171	0.32122	 	1.53355E12	 	2.66754E-12	 	19207.914	30.8734	 
560.0	1.0	0.0	7.67405	7.17516	-8.84373	19.63737	20.63476	1.31565	0.76008	154.13595	143.51943	58.34043	0.321	 	1.92313E12	 	2.11447E-12	 	19053.837	30.8154	 
555.0	1.0	0.0	7.67641	7.17295	-8.87176	19.62312	20.56866	1.31196	0.76222	154.50391	143.69254	58.48905	0.32079	 	2.41828E12	 	1.67143E-12	 	18900.05	30.7574	 
550.0	1.0	0.0	7.67877	7.17075	-8.89975	19.60889	20.50256	1.30824	0.76438	154.8715	143.8649	58.63758	0.32058	 	3.04941E12	 	1.3175E-12	 	18746.55	30.7	 
545.0	1.0	0.0	7.68113	7.16855	-8.9277	19.59468	20.43647	1.3045	0.76658	155.23871	144.0365	58.78602	0.32037	 	3.85615E12	 	1.03554E-12	 	18593.333	30.6434	 
540.0	1.0	0.0	7.68348	7.16635	-8.95561	19.58049	20.37037	1.30074	0.76879	155.60556	144.20736	58.93436	0.32016	 	4.89043E12	 	8.1154E-13	 	18440.397	30.5872	 
535.0	1.0	0.0	7.68584	7.16416	-8.98349	19.56633	20.30427	1.29695	0.77104	155.97202	144.37747	59.0826	0.31995	 	6.22039E12	 	6.34105E-13	 	18287.741	30.5312	 
530.0	1.0	0.0	7.68819	7.16197	-9.01132	19.55218	20.23817	1.29313	0.77332	156.33812	144.54683	59.23076	0.31974	 	7.93576E12	 	4.93963E-13	 	18135.362	30.4758	 
525.0	1.0	0.0	7.69054	7.15978	-9.0391	19.53806	20.17207	1.28929	0.77562	156.70384	144.71545	59.37882	0.31953	 	1.01551E13	 	3.83606E-13	 	17983.258	30.4208	 
520.0	1.0	0.0	7.69288	7.1576	-9.06685	19.52396	20.10597	1.28543	0.77795	157.06918	144.88333	59.52678	0.31932	 	1.30357E13	 	2.96968E-13	 	17831.427	30.3662	 
515.0	1.0	0.0	7.69523	7.15542	-9.09456	19.50988	20.03987	1.28154	0.78031	157.43415	145.05047	59.67465	0.3191	 	1.67863E13	 	2.2916E-13	 	17679.867	30.312	 
510.0	1.0	0.0	7.69757	7.15324	-9.12223	19.49583	19.97377	1.27762	0.7827	157.79874	145.21688	59.82242	0.31889	 	2.16861E13	 	1.76258E-13	 	17528.577	30.258	 
505.0	1.0	0.0	7.69991	7.15106	-9.14986	19.48179	19.90767	1.27368	0.78513	158.16296	145.38255	59.9701	0.31868	 	2.81085E13	 	1.35118E-13	 	17377.556	30.2042	 
500.0	1.0	0.0	7.70225	7.14889	-9.17745	19.46778	19.84157	1.26971	0.78758	158.5268	145.5475	60.11768	0.31847	 	3.65554E13	 	1.03228E-13	 	17226.8	30.1512	 
495.0	1.0	0.0	7.70459	7.14672	-9.205	19.45379	19.77547	1.26572	0.79007	158.89026	145.71171	60.26516	0.31826	 	4.77035E13	 	7.85928E-14	 	17076.31	30.098	 
490.0	1.0	0.0	7.70692	7.14456	-9.23251	19.43982	19.70937	1.2617	0.79258	159.25334	145.87519	60.41255	0.31805	 	6.24689E13	 	5.96256E-14	 	16926.084	30.0452	 
485.0	1.0	0.0	7.70926	7.14239	-9.25998	19.42587	19.64326	1.25765	0.79513	159.61604	146.03795	60.55985	0.31784	 	8.20962E13	 	4.50733E-14	 	16776.12	29.9928	 
480.0	1.0	0.0	7.71159	7.14024	-9.28741	19.41195	19.57716	1.25357	0.79772	159.97837	146.19999	60.70704	0.31763	 	1.08282E14	 	3.39477E-14	 	16626.417	29.9406	 
475.0	1.0	0.0	7.71392	7.13808	-9.3148	19.39804	19.51106	1.24947	0.80034	160.34032	146.36131	60.85414	0.31741	 	1.43351E14	 	2.54728E-14	 	16476.974	29.8886	 
470.0	1.0	0.0	7.71624	7.13593	-9.34215	19.38416	19.44495	1.24534	0.80299	160.70188	146.5219	61.00115	0.3172	 	1.90494E14	 	1.90407E-14	 	16327.79	29.8368	 
465.0	1.0	0.0	7.71857	7.13378	-9.36946	19.3703	19.37885	1.24118	0.80569	161.06307	146.68178	61.14805	0.31699	 	2.5411799999999997E14	 	1.41774E-14	 	16178.863	29.7854	 
460.0	1.0	0.0	7.72089	7.13163	-9.39673	19.35646	19.31274	1.23699	0.80841	161.42387	146.84095	61.29486	0.31678	 	3.40329E14	 	1.05143E-14	 	16030.194	29.7338	 
455.0	1.0	0.0	7.72321	7.12949	-9.42397	19.34265	19.24663	1.23277	0.81118	161.7843	146.9994	61.44157	0.31657	 	4.57618E14	 	7.76613E-15	 	15881.781	29.6826	 
450.0	1.0	0.0	7.72553	7.12735	-9.45116	19.32885	19.18053	1.22853	0.81398	162.14434	147.15715	61.58818	0.31636	 	6.17855E14	 	5.71253E-15	 	15733.623	29.6316	 
445.0	1.0	0.0	7.72785	7.12521	-9.47832	19.31508	19.11442	1.22425	0.81682	162.50401	147.31418	61.7347	0.31615	 	8.37694E14	 	4.18424E-15	 	15585.719	29.5808	 
440.0	1.0	0.0	7.73017	7.12307	-9.50543	19.30133	19.04831	1.21995	0.81971	162.86328	147.47051	61.88112	0.31594	 	1.14061E15	 	3.05161E-15	 	15438.068	29.5302	 
435.0	1.0	0.0	7.73248	7.12094	-9.53251	19.2876	18.9822	1.21562	0.82263	163.22218	147.62613	62.02743	0.31573	 	1.55986E15	 	2.21578E-15	 	15290.671	29.4794	 
430.0	1.0	0.0	7.73479	7.11881	-9.55955	19.27389	18.91609	1.21125	0.82559	163.5807	147.78105	62.17365	0.31551	 	2.14272E15	 	1.60166E-15	 	15143.525	29.4292	 
425.0	1.0	0.0	7.7371	7.11669	-9.58655	19.2602	18.84999	1.20686	0.8286	163.93883	147.93528	62.31977	0.3153	 	2.95678E15	 	1.15243E-15	 	14996.631	29.3788	 
420.0	1.0	0.0	7.73941	7.11457	-9.61351	19.24654	18.78388	1.20243	0.83165	164.29657	148.0888	62.4658	0.31509	 	4.09914E15	 	8.25318E-16	 	14849.988	29.3286	 
415.0	1.0	0.0	7.74172	7.11245	-9.64043	19.23289	18.71776	1.19797	0.83474	164.65394	148.24163	62.61172	0.31488	 	5.70988E15	 	5.88224E-16	 	14703.595	29.2786	 
410.0	1.0	0.0	7.74402	7.11033	-9.66732	19.21927	18.65165	1.19348	0.83788	165.01092	148.39376	62.75754	0.31467	 	7.99225E15	 	4.1719E-16	 	14557.452	29.2286	 
405.0	1.0	0.0	7.74632	7.10822	-9.69417	19.20567	18.58554	1.18896	0.84107	165.36751	148.5452	62.90327	0.31446	 	1.12425E16	 	2.94407E-16	 	14411.558	29.1788	 
400.0	1.0	0.0	7.74862	7.10611	-9.72097	19.1921	18.51943	1.18441	0.8443	165.72372	148.69595	63.04889	0.31425	 	1.58951E16	 	2.06698E-16	 	14265.913	29.129	 
395.0	1.0	0.0	7.75092	7.104	-9.74774	19.17854	18.45332	1.17982	0.84758	166.07954	148.84602	63.19442	0.31404	 	2.25897E16	 	1.44361E-16	 	14120.517	29.0792	 
390.0	1.0	0.0	7.75322	7.1019	-9.77448	19.16501	18.3872	1.17521	0.85091	166.43498	148.9954	63.33984	0.31383	 	3.22746E16	 	1.00285E-16	 	13975.369	29.0296	 
385.0	1.0	0.0	7.75551	7.0998	-9.80117	19.15149	18.32109	1.17055	0.8543	166.79003	149.14409	63.48516	0.31361	 	4.63624E16	 	6.9286E-17	 	13830.469	28.98	 
380.0	1.0	0.0	7.7578	7.0977	-9.82783	19.138	18.25497	1.16587	0.85773	167.14469	149.2921	63.63039	0.3134	 	6.6969900000000008E16	 	4.76014E-17	 	13685.816	28.9306	 
375.0	1.0	0.0	7.76009	7.0956	-9.85444	19.12453	18.18886	1.16115	0.86122	167.49897	149.43944	63.77551	0.31319	 	9.72876E16	 	3.25166E-17	 	13541.411	28.881	 
370.0	1.0	0.0	7.76238	7.09351	-9.88103	19.11109	18.12274	1.15639	0.86476	167.85286	149.58609	63.92053	0.31298	 	1.42153E17	 	2.20822E-17	 	13397.253	28.8316	 
365.0	1.0	0.0	7.76467	7.09142	-9.90757	19.09766	18.05663	1.15161	0.86835	168.20636	149.73207	64.06545	0.31277	 	2.08948E17	 	1.49064E-17	 	13253.342	28.7822	 
360.0	1.0	0.0	7.76696	7.08933	-9.93407	19.08426	17.99051	1.14678	0.87201	168.55947	149.87737	64.21027	0.31256	 	3.09002E17	 	1.00007E-17	 	13109.678	28.7328	 
355.0	1.0	0.0	7.76924	7.08725	-9.96054	19.07088	17.92439	1.14192	0.87572	168.91219	150.02201	64.35499	0.31235	 	4.59821E17	 	6.66747E-18	 	12966.26	28.6836	 
350.0	1.0	0.0	7.77152	7.08517	-9.98697	19.05752	17.85827	1.13703	0.87949	169.26453	150.16597	64.49961	0.31214	 	6.88633E17	 	4.41663E-18	 	12823.09	28.634	 
345.0	1.0	0.0	7.7738	7.08309	-10.01337	19.04418	17.79215	1.1321	0.88332	169.61648	150.30926	64.64412	0.31193	 	1.03806E18	 	2.90641E-18	 	12680.165	28.585	 
340.0	1.0	0.0	7.77608	7.08102	-10.03972	19.03086	17.72603	1.12713	0.88721	169.96803	150.45189	64.78853	0.31171	 	1.57532E18	 	1.8997E-18	 	12537.488	28.5354	 
335.0	1.0	0.0	7.77835	7.07895	-10.06604	19.01757	17.65991	1.12212	0.89117	170.3192	150.59386	64.93284	0.3115	 	2.40707E18	 	1.23313E-18	 	12395.057	28.4862	 
330.0	1.0	0.0	7.78063	7.07688	-10.09232	19.00429	17.59379	1.11708	0.89519	170.66998	150.73516	65.07705	0.31129	 	3.70394E18	 	7.94781E-19	 	12252.873	28.4368	 
325.0	1.0	0.0	7.7829	7.07481	-10.11857	18.99104	17.52767	1.112	0.89928	171.02036	150.8758	65.22116	0.31108	 	5.74075E18	 	5.08544E-19	 	12110.936	28.3874	 
320.0	1.0	0.0	7.78517	7.07275	-10.14478	18.97781	17.46155	1.10688	0.90344	171.37036	151.01578	65.36516	0.31087	 	8.96358E18	 	3.22976E-19	 	11969.246	28.338	 
315.0	1.0	0.0	7.78744	7.07069	-10.17095	18.9646	17.39543	1.10172	0.90767	171.71997	151.15511	65.50906	0.31066	 	1.41021E19	 	2.03559E-19	 	11827.804	28.2884	 
310.0	1.0	0.0	7.7897	7.06863	-10.19709	18.95142	17.3293	1.09652	0.91198	172.06918	151.29378	65.65286	0.31045	 	2.23595E19	 	1.27293E-19	 	11686.609	28.239	 
305.0	1.0	0.0	7.79197	7.06658	-10.22318	18.93825	17.26318	1.09128	0.91635	172.418	151.43181	65.79655	0.31024	 	3.57358E19	 	7.89631E-20	 	11545.661	28.1896	 
300.0	1.0	0.0	7.79423	7.06453	-10.24925	18.92511	17.19705	1.08601	0.92081	172.76644	151.56918	65.94015	0.31002	 	5.75833E19	 	4.85801E-20	 	11404.962	28.1398	 
295.0	1.0	0.0	7.79649	7.06248	-10.27527	18.91199	17.13093	1.08069	0.92534	173.11447	151.7059	66.08363	0.30981	 	9.35701E19	 	2.96355E-20	 	11264.512	28.09	 
290.0	1.0	0.0	7.79875	7.06043	-10.30126	18.89889	17.0648	1.07533	0.92995	173.46212	151.84198	66.22702	0.3096	 	1.53363E20	 	1.79221E-20	 	11124.31	28.0404	 
285.0	1.0	0.0	7.80101	7.05839	-10.32721	18.88581	16.99867	1.06993	0.93464	173.80938	151.97741	66.3703	0.30939	 	2.5360099999999997E20	 	1.0742E-20	 	10984.358	27.9904	 
280.0	1.0	0.0	7.80326	7.05635	-10.35313	18.87276	16.93254	1.06448	0.93942	174.15624	152.1122	66.51348	0.30918	 	4.2318399999999993E20	 	6.3797E-21	 	10844.656	27.9404	 
275.0	1.0	0.0	7.80552	7.05431	-10.37901	18.85972	16.86641	1.059	0.94429	174.50271	152.24635	66.65655	0.30897	 	7.127939999999999E20	 	3.75337E-21	 	10705.205	27.8902	 
270.0	1.0	0.0	7.80777	7.05228	-10.40486	18.84671	16.80028	1.05347	0.94925	174.84879	152.37986	66.79952	0.30876	 	1.2121800000000001E21	 	2.18695E-21	 	10566.004	27.8402	 
265.0	1.0	0.0	7.81002	7.05025	-10.43067	18.83372	16.73415	1.04789	0.9543	175.19447	152.51273	66.94239	0.30855	 	2.08189E21	 	1.26163E-21	 	10427.056	27.7896	 
260.0	1.0	0.0	7.81226	7.04822	-10.45644	18.82075	16.66802	1.04228	0.95944	175.53976	152.64497	67.08515	0.30834	 	3.6120400000000003E21	 	7.20416E-22	 	10288.36	27.7392	 
255.0	1.0	0.0	7.81451	7.04619	-10.48218	18.8078	16.60189	1.03661	0.96468	175.88466	152.77658	67.22781	0.30812	 	6.332560000000001E21	 	4.07066E-22	 	10149.917	27.6886	 
250.0	1.0	0.0	7.81676	7.04417	-10.50788	18.79488	16.53576	1.03091	0.97002	176.22916	152.90755	67.37036	0.30791	 	1.12219E22	 	2.27534E-22	 	10011.728	27.6378	 
245.0	1.0	0.0	7.819	7.04215	-10.53355	18.78197	16.46962	1.02516	0.97546	176.57327	153.0379	67.51281	0.3077	 	2.01071E22	 	1.25775E-22	 	9873.794	27.5868	 
240.0	1.0	0.0	7.82124	7.04013	-10.55918	18.76909	16.40349	1.01936	0.98101	176.91699	153.16762	67.65515	0.30749	 	3.6438999999999996E22	 	6.87328E-23	 	9736.117	27.5354	 
235.0	1.0	0.0	7.82348	7.03812	-10.58477	18.75623	16.33735	1.01351	0.98667	177.26032	153.29672	67.79739	0.30728	 	6.68139E22	 	3.71203E-23	 	9598.696	27.4842	 
230.0	1.0	0.0	7.82571	7.0361	-10.61033	18.74339	16.27122	1.00762	0.99244	177.60325	153.42519	67.93953	0.30707	 	1.23994E23	 	1.98054E-23	 	9461.534	27.4324	 
225.0	1.0	0.0	7.82795	7.0341	-10.63586	18.73058	16.20508	1.00167	0.99833	177.94578	153.55304	68.08156	0.30686	 	2.3298299999999997E23	 	1.04357E-23	 	9324.631	27.3806	 
220.0	1.0	0.0	7.83018	7.03209	-10.66135	18.71778	16.13894	0.99568	1.00433	178.28793	153.68028	68.22349	0.30665	 	4.4340699999999995E23	 	5.42829E-24	 	9187.989	27.3284	 
215.0	1.0	0.0	7.83241	7.03009	-10.6868	18.70501	16.0728	0.98964	1.01046	178.62968	153.8069	68.36531	0.30644	 	8.550799999999999E23	 	2.78634E-24	 	9051.608	27.2762	 
210.0	1.0	0.0	7.83464	7.02808	-10.71222	18.69226	16.00666	0.98356	1.01672	178.97103	153.9329	68.50702	0.30622	 	1.67153E24	 	1.41077E-24	 	8915.491	27.2234	 
205.0	1.0	0.0	7.83687	7.02609	-10.73761	18.67953	15.94052	0.97742	1.02311	179.31199	154.05829	68.64863	0.30601	 	3.31366E24	 	7.04275E-25	 	8779.639	27.1704	 
200.0	1.0	0.0	7.8391	7.02409	-10.76296	18.66682	15.87438	0.97122	1.02963	179.65256	154.18308	68.79014	0.3058	 	6.66477E24	 	3.46498E-25	 	8644.053	27.1172	 
195.0	1.0	0.0	7.84132	7.0221	-10.78827	18.65413	15.80824	0.96498	1.03629	179.99274	154.30725	68.93154	0.30559	 	1.3606400000000001E25	 	1.6793E-25	 	8508.736	27.0634	 
190.0	1.0	0.0	7.84355	7.02011	-10.81356	18.64147	15.7421	0.95869	1.04309	180.33252	154.43082	69.07284	0.30538	 	2.8209500000000003E25	 	8.01333E-26	 	8373.688	27.0096	 
185.0	1.0	0.0	7.84577	7.01812	-10.8388	18.62883	15.67595	0.95234	1.05005	180.67191	154.55378	69.21403	0.30517	 	5.94235E25	 	3.76302E-26	 	8238.913	26.955	 
180.0	1.0	0.0	7.84799	7.01614	-10.86402	18.61621	15.60981	0.94594	1.05715	181.01091	154.67614	69.35512	0.30496	 	1.2725100000000002E26	 	1.73807E-26	 	8104.411	26.9004	 
175.0	1.0	0.0	7.8502	7.01415	-10.88919	18.60361	15.54366	0.93948	1.06442	181.34952	154.79791	69.4961	0.30475	 	2.7716800000000003E26	 	7.89162E-27	 	7970.185	26.8452	 
170.0	1.0	0.0	7.85242	7.01218	-10.91434	18.59103	15.47752	0.93297	1.07185	181.68773	154.91908	69.63698	0.30453	 	6.144060000000001E26	 	3.52032E-27	 	7836.238	26.7894	 
165.0	1.0	0.0	7.85463	7.0102	-10.93945	18.57847	15.41137	0.9264	1.07945	182.02556	155.03965	69.77776	0.30432	 	1.38694E27	 	1.54189E-27	 	7702.571	26.7334	 
160.0	1.0	0.0	7.85685	7.00823	-10.96452	18.56594	15.34522	0.91978	1.08722	182.36299	155.15963	69.91843	0.30411	 	3.19024E27	 	6.62677E-28	 	7569.188	26.6766	 
155.0	1.0	0.0	7.85906	7.00625	-10.98956	18.55343	15.27907	0.9131	1.09517	182.70003	155.27902	70.05899	0.3039	 	7.482349999999999E27	 	2.79283E-28	 	7436.09	26.6196	 
150.0	1.0	0.0	7.86126	7.00429	-11.01457	18.54094	15.21292	0.90636	1.10332	183.03668	155.39782	70.19945	0.30369	 	1.79061E28	 	1.1534E-28	 	7303.282	26.5616	 
145.0	1.0	0.0	7.86347	7.00232	-11.03955	18.52847	15.14677	0.89956	1.11166	183.37295	155.51603	70.33981	0.30348	 	4.37551E28	 	4.66434E-29	 	7170.765	26.5034	 
140.0	1.0	0.0	7.86568	7.00036	-11.06449	18.51602	15.08061	0.8927	1.12019	183.70882	155.63367	70.48007	0.30327	 	1.0925700000000001E29	 	1.84564E-29	 	7038.543	26.4444	 
135.0	1.0	0.0	7.86788	6.9984	-11.08939	18.5036	15.01446	0.88578	1.12894	184.04431	155.75072	70.62022	0.30306	 	2.7900000000000003E29	 	7.14007E-30	 	6906.619	26.3848	 
130.0	1.0	0.0	7.87008	6.99644	-11.11426	18.49119	14.94831	0.8788	1.13791	184.37941	155.8672	70.76027	0.30285	 	7.292210000000001E29	 	2.69832E-30	 	6774.997	26.3244	 
125.0	1.0	0.0	7.87228	6.99448	-11.1391	18.47881	14.88215	0.87176	1.1471	184.71412	155.9831	70.90021	0.30263	 	1.95252E30	 	9.95266E-31	 	6643.681	26.2632	 
120.0	1.0	0.0	7.87448	6.99253	-11.16391	18.46645	14.81599	0.86466	1.15652	185.04845	156.09842	71.04005	0.30242	 	5.36055E30	 	3.57961E-31	 	6512.675	26.2012	 
115.0	1.0	0.0	7.87668	6.99058	-11.18868	18.45411	14.74983	0.85749	1.16619	185.38239	156.21318	71.17979	0.30221	 	1.51051E31	 	1.25419E-31	 	6381.982	26.1386	 
110.0	1.0	0.0	7.87887	6.98863	-11.21342	18.4418	14.68368	0.85026	1.17611	185.71595	156.32737	71.31943	0.302	 	4.37303E31	 	4.27635E-32	 	6251.608	26.0748	 
105.0	1.0	0.0	7.88106	6.98669	-11.23813	18.4295	14.61752	0.84296	1.18629	186.04913	156.44099	71.45897	0.30179	 	1.30211E32	 	1.41743E-32	 	6121.556	26.0104	 
100.0	1.0	0.0	7.88326	6.98475	-11.2628	18.41723	14.55135	0.8356	1.19675	186.38192	156.55406	71.59841	0.30158	 	3.99221E32	 	4.56202E-33	 	5991.833	25.9446	 
95.0	1.0	0.0	7.88545	6.98281	-11.28744	18.40498	14.48519	0.82817	1.20748	186.71434	156.66656	71.73774	0.30137	 	1.26181E33	 	1.42402E-33	 	5862.443	25.878	 
90.0	1.0	0.0	7.88763	6.98087	-11.31205	18.39275	14.41903	0.82067	1.21852	187.04638	156.77851	71.87698	0.30116	 	4.1166E33	 	4.3056E-34	 	5733.393	25.81	 
85.0	1.0	0.0	7.88982	6.97894	-11.33663	18.38054	14.35286	0.8131	1.22986	187.37805	156.88991	72.01611	0.30095	 	1.3881E34	 	1.2593E-34	 	5604.687	25.7412	 
80.0	1.0	0.0	7.892	6.977	-11.36117	18.36836	14.2867	0.80546	1.24152	187.70934	157.00076	72.15515	0.30073	 	4.84453E34	 	3.5579E-35	 	5476.332	25.671	 
75.0	1.0	0.0	7.89419	6.97508	-11.38568	18.35619	14.22053	0.79775	1.25352	188.04025	157.11106	72.29409	0.30052	 	1.75257E35	 	9.69569E-36	 	5348.336	25.5992	 
70.0	1.0	0.0	7.89637	6.97315	-11.41016	18.34405	14.15436	0.78997	1.26587	188.3708	157.22082	72.43293	0.30031	 	6.582189999999999E35	 	2.54449E-36	 	5220.705	25.5262	 
65.0	1.0	0.0	7.89855	6.97122	-11.4346	18.33193	14.08819	0.78212	1.27858	188.70098	157.33004	72.57168	0.3001	 	2.5707599999999998E36	 	6.41999E-37	 	5093.447	25.4516	 
60.0	1.0	0.0	7.90073	6.9693	-11.45901	18.31983	14.02202	0.77419	1.29167	189.03079	157.43873	72.71033	0.29989	 	1.0459599999999999E37	 	1.55458E-37	 	4966.57	25.3754	 
55.0	1.0	0.0	7.9029	6.96738	-11.48339	18.30775	13.95585	0.76619	1.30517	189.36024	157.54689	72.84888	0.29968	 	4.44158E37	 	3.60597E-38	 	4840.083	25.2974	 
50.0	1.0	0.0	7.90508	6.96547	-11.50774	18.2957	13.88968	0.75811	1.31908	189.68933	157.65452	72.98735	0.29947	 	1.9723999999999997E38	 	7.99641E-39	 	4713.995	25.2176	 
45.0	1.0	0.0	7.90725	6.96355	-11.53206	18.28366	13.8235	0.74995	1.33342	190.01807	157.76162	73.12571	0.29926	 	9.1792E38	 	1.69166E-39	 	4588.316	25.1358	 
40.0	1.0	0.0	7.90942	6.96164	-11.55634	18.27165	13.75733	0.74171	1.34823	190.34645	157.86821	73.26399	0.29904	 	4.4868300000000004E39	 	3.40643E-40	 	4463.055	25.0522	 
35.0	1.0	0.0	7.91159	6.95973	-11.58059	18.25966	13.69115	0.7334	1.36352	190.67448	157.97428	73.40218	0.29883	 	2.30908E40	 	6.51344E-41	 	4338.226	24.9658	 
30.0	1.0	0.0	7.91376	6.95783	-11.60481	18.24769	13.62497	0.725	1.37931	191.00216	158.07985	73.54028	0.29862	 	1.2543200000000001E41	 	1.17961E-41	 	4213.838	24.8776	 
25.0	1.0	0.0	7.91592	6.95592	-11.629	 	13.55879	0.71653	1.39562	191.3295	158.18491	73.6783	0.29841	 	7.211510000000001E41	 	2.01788E-42	 	4089.906	 	 
