T (C)	Fraction solid (wt)-TOTAL	Fraction liquid (wt)-LIQUID	Density (g/(cm)^3)-TOTAL	Molar volume (cm^3)-TOTAL	Volume change (%)-  	Average expansion coeff. (10e-6 1/K)-  	Thermal conductivity (W/(m*K))-TOTAL	Electrical resistivity (10e-6 Ohm*m)-TOTAL	Electrical conductivity (10e6 1/(Ohm*m))-TOTAL	Young's modulus (GPa)-TOTAL	Bulk modulus (GPa)-TOTAL	Shear modulus(GPa)-TOTAL	Poisson's ratio-TOTAL	Liquid viscosity (mPa s)-  	Total viscosity (mPa s)-  	Liquid diffusivity (10e-9 (m^2)/s)-  	Total diffusivity (10e-9 (m^2)/s)-  	Surface Tension (mN/m)-  	Enthalpy (J/mole)-TOTAL	Specific heat (J/(mole K))-TOTAL	Latent heat (J/mole)-TOTAL
1500.0	0.0	1.0	6.88457	7.93949	0.0	25.27171	31.83364	1.815	0.55096	0.0	101.76711	0.0	0.49966	6.79062	6.79062	1.27445	1.27445	1744.00052	65702.909	 	0.0
1495.0	0.0	1.0	6.88838	7.93509	-0.055339	25.21815	31.75526	1.81435	0.55116	0.0	101.9506	0.0	0.49966	6.84856	6.84856	1.26011	1.26011	1745.9576	65480.24	44.5338	0.0
1490.0	0.0	1.0	6.89219	7.93071	-0.11052	25.16462	31.67688	1.8137	0.55136	0.0	102.13408	0.0	0.49966	6.90732	6.90732	1.24585	1.24585	1747.91901	65258.173	44.4134	0.0
1485.72	0.0	1.0	6.89544	7.92697	-0.15761	25.11883	31.60984	1.81313	0.55153	0.0	102.29102	0.0	0.49966	6.95824	6.95824	1.23373	1.23373	1749.60003	65068.707	44.3028	0.0030
1485.0	0.03982	0.96018	6.90296	7.91837	-0.26595	24.85627	31.66835	1.80904	0.55278	9.61367E-5	100.22028	3.21775E-5	0.49385	6.96158	7.34326	1.23264	1.16857	1748.7895	64610.107	633.96	426.592
1480.0	0.26435	0.73565	6.94607	7.86924	-0.88481	23.36536	31.99366	1.78555	0.56005	0.19366	88.56071	0.066287	0.46078	6.98617	28.36929	1.2248	0.30162	1743.94653	61988.463	524.329	2827.362
1475.0	0.41476	0.58524	6.97614	7.83537	-1.31134	22.35574	32.20062	1.76902	0.56529	1.2058	80.82125	0.41918	0.4383	7.01165	132.19319	1.21687	0.0645441	1740.09815	60169.213	363.85	4426.325
1470.0	0.52128	0.47872	6.99839	7.81053	-1.6242	21.63068	32.33594	1.75658	0.56929	3.07617	75.43415	1.08149	0.42219	7.03779	333.62363	1.20889	0.0255014	1737.00932	58826.1	268.623	5549.738
1465.0	0.59992	0.40008	7.01561	7.79146	-1.86451	21.08731	32.42434	1.74676	0.57249	5.50096	71.55358	1.95047	0.41016	7.0647	612.16054	1.20083	0.0138583	1734.51221	57785.029	208.214	6371.688
1460.0	0.6599	0.3401	7.02947	7.77622	-2.05638	20.66526	32.48061	1.73872	0.57514	8.19318	68.68876	2.92427	0.4009	7.09196	944.47721	1.19277	0.00895636	1732.48419	56945.747	167.856	6992.424
1455.0	0.70687	0.29313	7.04094	7.76367	-2.21448	20.32778	32.51379	1.73194	0.57739	10.9563	66.53771	3.93103	0.39357	7.11977	1312.86989	1.18468	0.00642461	1730.83345	56246.939	139.762	7473.26
1450.0	0.74445	0.25555	7.05068	7.75309	-2.34772	20.05256	32.53017	1.72605	0.57936	13.67526	64.90443	4.92752	0.38764	7.14807	1705.99194	1.17658	0.00492984	1729.48956	55649.256	119.537	7853.541
1445.0	0.77503	0.22497	7.05915	7.7439	-2.46346	19.82111	32.53362	1.72086	0.5811	16.28826	63.6563	5.88975	0.38276	7.17645	2116.91529	1.16853	0.00396136	1728.4001	55126.429	104.565	8159.526
1440.0	0.80032	0.19968	7.06661	7.73588	-2.56446	19.62661	32.52741	1.71618	0.58269	18.76391	62.70455	6.80499	0.37869	7.20549	2541.64676	1.16043	0.00328978	1727.52	54660.348	93.2162	8409.326
1435.0	0.82149	0.17851	7.07331	7.72867	-2.65527	19.45752	32.51338	1.71191	0.58414	21.09444	61.98177	7.66942	0.37523	7.23451	2978.505	1.1524	0.00279907	1726.81808	54238.121	84.4454	8615.826
1431.26	0.83538	0.16462	7.07803	7.72365	-2.71854	19.34252	32.49939	1.7089	0.58517	22.76616	61.55211	8.29102	0.37294	7.25638	3316.02025	1.14641	0.00250867	1726.38908	53943.981	 	8749.006
1430.0	0.84189	0.15811	7.08049	7.72104	-2.75145	19.27307	32.49887	1.70766	0.5856	23.5771	61.31414	8.59298	0.37188	7.26602	3470.90412	1.14405	0.00239495	1726.26515	53820.96	83.4322	8817.812
1425.0	0.86442	0.13558	7.08928	7.71171	-2.86897	19.0308	32.48999	1.70312	0.58716	26.59054	60.55354	9.71743	0.36819	7.30415	4085.41345	1.13473	0.00202874	1725.91469	53371.988	89.7944	9052.158
1420.0	0.88226	0.11774	7.09674	7.70383	-2.96813	18.83556	32.4717	1.69906	0.58856	29.25014	60.04867	10.71269	0.36521	7.34206	4688.88701	1.12555	0.00176243	1725.72994	52976.805	79.0366	9233.258
1415.0	0.89669	0.10331	7.10321	7.69702	-3.05392	18.67457	32.4465	1.69536	0.58985	31.61595	59.73085	11.6	0.36276	7.38025	5286.97216	1.11642	0.00155844	1725.68065	52620.428	71.2754	9376.09
1410.0	0.90855	0.0914533	7.10897	7.69101	-3.12971	18.53921	32.41609	1.69192	0.59104	33.7367	59.55472	12.39685	0.3607	7.41863	5884.59145	1.10735	0.00139603	1725.74343	52292.883	65.509	9490.628
1405.0	0.91845	0.0815479	7.11416	7.68559	-3.1979	18.42323	32.38165	1.68869	0.59218	35.65381	59.48807	13.11823	0.35894	7.45717	6486.48006	1.09836	0.00126272	1725.90047	51987.289	61.1188	9583.744
1400.0	0.92682	0.0731781	7.11893	7.68063	-3.2604	18.32177	32.34397	1.68562	0.59325	37.40108	59.50758	13.77651	0.35742	7.49568	7096.89352	1.08946	0.00115068	1726.13822	51698.754	57.707	9660.328
1395.0	0.93397	0.0660297	7.12335	7.67603	-3.31827	18.23211	32.30373	1.68267	0.59429	39.00592	59.59657	14.38172	0.35609	7.53426	7719.81915	1.08064	0.00105467	1726.44428	51423.711	55.0086	9723.943
1390.0	0.94013	0.0598701	7.12749	7.67175	-3.37223	18.15238	32.26143	1.67983	0.5953	40.49012	59.74252	14.94188	0.35492	7.57347	8358.82936	1.07182	9.71119E-4	1726.80757	51159.499	52.8424	9777.247
1385.0	0.94548	0.0545182	7.1314	7.6677	-3.42324	18.08011	32.21739	1.67707	0.59628	41.8721	59.93548	15.46383	0.35387	7.6126	9017.2528	1.06311	8.97504E-4	1727.22208	50904.11	51.0778	9822.243
1380.0	0.95017	0.0498347	7.13512	7.66385	-3.47169	18.0143	32.17193	1.67438	0.59724	43.16725	60.16794	15.95325	0.35293	7.65198	9698.55127	1.05445	8.3194E-4	1727.67993	50655.985	49.625	9860.489
1378.22	0.95174	0.0482566	7.13644	7.6625	-3.48875	17.99128	32.1556	1.67342	0.59758	43.62016	60.25674	16.12448	0.35261	7.66606	9949.68201	1.05138	8.10068E-4	1727.85041	50568.909	 	9872.928
1375.0	0.95834	0.0416645	7.13975	7.65898	-3.53308	17.91249	32.13177	1.6714	0.5983	45.22518	60.27246	16.73296	0.35138	7.73003	10624.12567	1.04064	7.57164E-4	1727.68867	50353.725	60.452	9953.377
1370.0	0.96607	0.0339282	7.14427	7.65418	-3.5935	17.81258	32.09056	1.66847	0.59935	47.28485	60.41145	17.51434	0.34989	7.82929	11618.70514	1.02433	6.9025E-4	1727.61589	50052.828	60.1794	10045.408
1365.0	0.97176	0.0282435	7.14828	7.64993	-3.64706	17.73094	32.04582	1.66571	0.60034	48.97474	60.64534	18.15574	0.34874	7.92836	12578.72444	1.00846	6.35629E-4	1727.69188	49779.196	54.7264	10110.677
1360.0	0.97611	0.0238883	7.15196	7.64603	-3.69617	17.66099	31.99876	1.66307	0.6013	50.41899	60.94194	18.70404	0.34781	8.02746	13531.21334	0.99297	5.89082E-4	1727.88285	49523.23	51.1932	10158.777
1355.0	0.97956	0.0204437	7.15541	7.64237	-3.74222	17.59906	31.95011	1.6605	0.60223	51.69171	61.28267	19.18726	0.34703	8.12645	14493.41851	0.97787	5.4829E-4	1728.16457	49279.381	48.7698	10195.256
1350.0	0.98235	0.0176496	7.1587	7.6389	-3.78601	17.54299	31.90032	1.65799	0.60314	52.84135	61.65583	19.62375	0.34636	8.22616	15478.24406	0.96305	5.11828E-4	1728.51789	49044.22	47.0322	10223.538
1345.0	0.98466	0.0153367	7.16187	7.63555	-3.82813	17.49119	31.84966	1.65551	0.60404	53.89913	62.05387	20.02534	0.34577	8.32636	16494.91597	0.94853	4.78801E-4	1728.93045	48815.518	45.7404	10245.85
1340.0	0.98661	0.0133891	7.16494	7.63231	-3.86897	17.44261	31.79835	1.65306	0.60494	54.88757	62.47154	20.40059	0.34524	8.4272	17551.621	0.93428	4.48584E-4	1729.39151	48591.763	44.751	10263.7
1335.0	0.98827	0.0117262	7.16794	7.62915	-3.90877	17.39659	31.74653	1.65062	0.60583	55.82233	62.90516	20.75545	0.34476	8.5291	18655.07901	0.92026	4.20742E-4	1729.89247	48371.896	43.9734	10278.145
1330.0	0.98971	0.0102891	7.17088	7.62606	-3.94773	17.35259	31.69429	1.6482	0.60672	56.7147	63.3521	21.09419	0.34432	8.63184	19811.58732	0.90648	3.9495E-4	1730.42697	48155.149	43.3494	10289.948
1325.0	0.99097	0.00903428	7.17377	7.62302	-3.98602	17.31017	31.64173	1.64579	0.60761	57.57353	63.81031	21.4202	0.34391	8.73586	21026.89333	0.89289	3.70962E-4	1730.98942	47940.956	42.8386	10299.673
1320.0	0.99207	0.00792971	7.17663	7.62002	-4.02377	17.26898	31.58889	1.64339	0.6085	58.40561	64.27821	21.73606	0.34352	8.84082	22307.13023	0.87953	3.48578E-4	1731.57655	47728.887	42.4138	10307.746
1315.0	0.99305	0.00694948	7.17944	7.61707	-4.06099	17.22898	31.53581	1.64099	0.60939	59.21569	64.75469	22.04355	0.34315	8.94724	23658.31176	0.86634	3.27638E-4	1732.1829	47518.613	42.0548	10314.495
1310.0	0.99393	0.00607394	7.18224	7.61414	-4.09781	17.18983	31.48255	1.63859	0.61028	60.00788	65.23877	22.34427	0.3428	9.05482	25085.82826	0.85335	3.08021E-4	1732.80643	47309.874	41.7478	10320.174
1305.0	0.99471	0.00528546	7.185	7.61125	-4.13425	17.15145	31.42913	1.63619	0.61118	60.78549	65.72964	22.63947	0.34247	9.16431	26596.49255	0.8405	2.89608E-4	1733.44343	47102.464	41.482	10324.987
1300.0	0.99543	0.0045737	7.18774	7.60838	-4.17037	17.11373	31.37556	1.63379	0.61207	61.55099	66.22671	22.93008	0.34215	9.27506	28196.71759	0.82783	2.72307E-4	1734.09308	46896.219	41.249	10329.096
1295.0	0.99607	0.00392726	7.19046	7.60554	-4.2062	17.07654	31.32187	1.63139	0.61297	62.30669	66.72942	23.21699	0.34183	9.38715	29893.50358	0.81534	2.56034E-4	1734.75281	46691.002	41.0434	10332.634
1290.0	0.99666	0.00333681	7.19317	7.60271	-4.24176	17.03986	31.26808	1.62899	0.61388	63.05415	67.23733	23.5008	0.34153	9.50137	31694.22411	0.80297	2.40717E-4	1735.42021	46486.703	40.8598	10335.708
1285.0	0.9972	0.00279717	7.19586	7.59991	-4.2771	17.00354	31.2142	1.62658	0.61479	63.79483	67.75008	23.78206	0.34124	9.61704	33605.68141	0.79078	2.26299E-4	1736.09431	46283.229	40.6948	10338.409
1280.0	0.9977	0.00230005	7.19853	7.59712	-4.31219	16.96764	31.16023	1.62417	0.6157	64.53	68.26733	24.06126	0.34095	9.73461	35637.60394	0.77872	2.12712E-4	1736.77346	46080.503	40.5452	10340.811
1275.0	0.99816	0.00184235	7.20119	7.59435	-4.3471	16.93203	31.10619	1.62175	0.61662	65.26064	68.78879	24.33877	0.34067	9.85414	37797.96834	0.7668	1.99909E-4	1737.45657	45878.459	40.4088	10342.977
1270.0	0.99858	0.00141784	7.20384	7.59159	-4.38182	16.89666	31.05209	1.61933	0.61754	65.98756	69.31422	24.6149	0.3404	9.97526	40095.87172	0.75504	1.87843E-4	1738.14293	45677.041	40.2836	10344.961
1265.0	0.99897	0.00102549	7.20648	7.58885	-4.41636	16.86158	30.99792	1.6169	0.61847	66.71162	69.84339	24.88998	0.34013	10.0989	42542.85367	0.74338	1.76465E-4	1738.83009	45476.2	40.1682	10346.807
1260.0	0.99934	6.59071E-4	7.20911	7.58612	-4.45073	16.82668	30.94371	1.61447	0.6194	67.43339	70.37608	25.16424	0.33987	10.2242	45148.83172	0.73188	1.65739E-4	1739.51944	45275.895	40.061	10348.554
1255.0	0.99968	3.18486E-4	7.21172	7.58341	-4.48495	16.792	30.88946	1.61203	0.62034	68.1535	70.91211	25.4379	0.33961	10.35174	47926.33755	0.72051	1.55625E-4	1740.20775	45076.09	39.961	10350.237
1250.0	1.0	0.0	7.21433	7.5807	-4.51903	16.75744	30.83516	1.60959	0.62128	68.87228	71.45133	25.7111	0.33935	 	50886.73943	 	1.46091E-4	 	44876.752	39.8676	10351.885
1245.0	1.0	0.0	7.21652	7.5784	-4.54794	16.73828	30.779	1.60723	0.62219	69.48826	72.0035	25.94481	0.33916	 	53944.53884	 	1.37358E-4	 	44716.968	31.9568	 
1240.0	1.0	0.0	7.2187	7.57611	-4.5768	16.71913	30.72284	1.60486	0.62311	70.10744	72.55765	26.17978	0.33896	 	57208.14019	 	1.29095E-4	 	44521.637	39.0662	 
1235.0	1.0	0.0	7.22088	7.57383	-4.60561	16.69997	30.66668	1.60249	0.62403	70.72978	73.11373	26.416	0.33877	 	60692.82097	 	1.21281E-4	 	44326.48	39.0314	 
1230.0	1.0	0.0	7.22306	7.57154	-4.63437	16.68082	30.61052	1.60011	0.62496	71.35522	73.67168	26.65345	0.33857	 	64415.09566	 	1.13894E-4	 	44131.51	38.994	 
1225.0	1.0	0.0	7.22523	7.56926	-4.66307	16.66167	30.55436	1.59772	0.62589	71.98371	74.23144	26.89211	0.33838	 	68392.82404	 	1.06913E-4	 	43936.724	38.9572	 
1220.0	1.0	0.0	7.2274	7.56699	-4.69173	16.64252	30.49821	1.59532	0.62683	72.61523	74.79297	27.13196	0.33819	 	72645.32971	 	1.00319E-4	 	43742.12	38.9208	 
1215.0	1.0	0.0	7.22957	7.56472	-4.72033	16.62337	30.44205	1.59291	0.62778	73.24971	75.35621	27.37299	0.33799	 	77193.52978	 	9.4092E-5	 	43547.695	38.885	 
1210.0	1.0	0.0	7.23174	7.56245	-4.74888	16.60422	30.38589	1.59049	0.62874	73.88711	75.9211	27.61519	0.3378	 	82060.07694	 	8.82145E-5	 	43353.448	38.8494	 
1205.0	1.0	0.0	7.23391	7.56019	-4.77738	16.58507	30.32973	1.58806	0.6297	74.52739	76.4876	27.85853	0.3376	 	87269.5151	 	8.2669E-5	 	43159.374	38.8148	 
1200.0	1.0	0.0	7.23607	7.55793	-4.80582	16.56592	30.27358	1.58563	0.63067	75.1705	77.05564	28.103	0.33741	 	92848.45003	 	7.74389E-5	 	42965.473	38.7802	 
1195.0	1.0	0.0	7.23823	7.55568	-4.83422	16.54677	30.21742	1.58318	0.63164	75.81639	77.62519	28.34858	0.33722	 	98825.73652	 	7.25082E-5	 	42771.74	38.7466	 
1190.0	1.0	0.0	7.24038	7.55343	-4.86256	16.52762	30.16127	1.58073	0.63262	76.46503	78.19618	28.59525	0.33702	 	105232.6838	 	6.78617E-5	 	42578.173	38.7134	 
1185.0	1.0	0.0	7.24254	7.55118	-4.89085	16.50848	30.10511	1.57826	0.63361	77.11635	78.76857	28.84301	0.33683	 	112103.2811	 	6.34849E-5	 	42384.77	38.6806	 
1180.0	1.0	0.0	7.24469	7.54894	-4.91909	16.48933	30.04896	1.57579	0.6346	77.77033	79.3423	29.09182	0.33664	 	119474.4453	 	5.93639E-5	 	42191.527	38.6486	 
1175.0	1.0	0.0	7.24684	7.5467	-4.94728	16.47019	29.99281	1.57331	0.6356	78.4269	79.91732	29.34169	0.33644	 	127386.2935	 	5.54853E-5	 	41998.442	38.617	 
1170.0	1.0	0.0	7.24898	7.54447	-4.97541	16.45104	29.93666	1.57082	0.63661	79.08604	80.49358	29.59258	0.33625	 	135882.4423	 	5.18364E-5	 	41805.51	38.5864	 
1165.0	1.0	0.0	7.25112	7.54224	-5.0035	16.4319	29.88051	1.56832	0.63763	79.74768	81.07103	29.84448	0.33605	 	145010.3379	 	4.84052E-5	 	41612.73	38.556	 
1160.0	1.0	0.0	7.25326	7.54001	-5.03153	16.41276	29.82436	1.56581	0.63865	80.41179	81.64962	30.09738	0.33586	 	154821.6182	 	4.51801E-5	 	41420.098	38.5264	 
1155.0	1.0	0.0	7.2554	7.53779	-5.05951	16.39361	29.76821	1.56329	0.63968	81.07831	82.2293	30.35126	0.33567	 	165372.5137	 	4.215E-5	 	41227.611	38.4974	 
1150.0	1.0	0.0	7.25754	7.53557	-5.08743	16.37447	29.71207	1.56076	0.64071	81.74721	82.81001	30.6061	0.33547	 	176724.2872	 	3.93044E-5	 	41035.265	38.4692	 
1145.0	1.0	0.0	7.25967	7.53336	-5.11531	16.35533	29.65593	1.55822	0.64176	82.41844	83.39172	30.86189	0.33528	 	188943.7206	 	3.66333E-5	 	40843.057	38.4416	 
1140.0	1.0	0.0	7.2618	7.53115	-5.14313	16.33619	29.59979	1.55567	0.64281	83.09195	83.97436	31.11861	0.33508	 	202103.6509	 	3.41272E-5	 	40650.983	38.4148	 
1135.0	1.0	0.0	7.26393	7.52894	-5.17091	16.31705	29.54365	1.55311	0.64387	83.7677	84.5579	31.37623	0.33489	 	216283.563	 	3.17769E-5	 	40459.041	38.3884	 
1130.0	1.0	0.0	7.26605	7.52674	-5.19863	16.29792	29.48752	1.55054	0.64494	84.44563	85.14227	31.63476	0.3347	 	231570.2434	 	2.95739E-5	 	40267.225	38.3632	 
1125.0	1.0	0.0	7.26817	7.52455	-5.22629	16.27878	29.43139	1.54796	0.64601	85.12572	85.72744	31.89416	0.3345	 	248058.5043	 	2.75097E-5	 	40075.533	38.3384	 
1120.0	1.0	0.0	7.27029	7.52235	-5.25391	16.25964	29.37527	1.54537	0.64709	85.8079	86.31335	32.15443	0.33431	 	265851.9839	 	2.55767E-5	 	39883.96	38.3146	 
1115.0	1.0	0.0	7.2724	7.52017	-5.28148	16.2405	29.31915	1.54278	0.64818	86.49213	86.89995	32.41554	0.33412	 	285064.0318	 	2.37673E-5	 	39692.503	38.2914	 
1110.0	1.0	0.0	7.27452	7.51798	-5.30899	16.22137	29.26304	1.54017	0.64928	87.17838	87.4872	32.67747	0.33392	 	305818.6905	 	2.20746E-5	 	39501.157	38.2692	 
1105.0	1.0	0.0	7.27663	7.5158	-5.33645	16.20223	29.20693	1.53755	0.65039	87.86659	88.07505	32.94022	0.33373	 	328251.7827	 	2.04916E-5	 	39309.919	38.2476	 
1100.0	1.0	0.0	7.27874	7.51363	-5.36386	16.1831	29.15083	1.53492	0.6515	88.55671	88.66345	33.20377	0.33353	 	352512.1169	 	1.90121E-5	 	39118.783	38.2272	 
1095.0	1.0	0.0	7.28084	7.51145	-5.39121	16.16397	29.09474	1.53228	0.65262	89.24871	89.25235	33.4681	0.33334	 	378762.8254	 	1.763E-5	 	38927.747	38.2072	 
1090.0	1.0	0.0	7.28294	7.50929	-5.41852	16.14483	29.03866	1.52962	0.65376	89.94254	89.84171	33.73318	0.33315	 	407182.8502	 	1.63396E-5	 	38736.804	38.1886	 
1085.0	1.0	0.0	7.28504	7.50712	-5.44577	16.1257	28.98259	1.52696	0.6549	90.63814	90.43148	33.99901	0.33295	 	437968.5932	 	1.51353E-5	 	38545.95	38.1708	 
1080.0	1.0	0.0	7.28714	7.50496	-5.47298	16.10657	28.92653	1.52429	0.65604	91.33548	91.02161	34.26558	0.33276	 	471335.7517	 	1.40121E-5	 	38355.181	38.1538	 
1075.0	1.0	0.0	7.28923	7.50281	-5.50012	16.08744	28.87048	1.5216	0.6572	92.03451	91.61205	34.53285	0.33256	 	507521.3599	 	1.29649E-5	 	38164.492	38.1378	 
1070.0	1.0	0.0	7.29132	7.50065	-5.52722	16.06831	28.81445	1.51891	0.65837	92.73519	92.20277	34.80082	0.33237	 	546786.0621	 	1.19893E-5	 	37973.878	38.1228	 
1065.0	1.0	0.0	7.29341	7.49851	-5.55427	16.04918	28.75843	1.5162	0.65954	93.43746	92.79371	35.06946	0.33218	 	589416.6447	 	1.10807E-5	 	37783.333	38.109	 
1060.0	1.0	0.0	7.2955	7.49636	-5.58126	16.03006	28.70243	1.51348	0.66073	94.14129	93.38483	35.33877	0.33198	 	635728.8594	 	1.02351E-5	 	37592.852	38.0962	 
1055.0	1.0	0.0	7.29758	7.49423	-5.60821	16.01093	28.64645	1.51076	0.66192	94.84663	93.97608	35.60872	0.33179	 	686070.5717	 	9.44855E-6	 	37402.43	38.0844	 
1050.0	1.0	0.0	7.29966	7.49209	-5.6351	15.9918	28.59049	1.50801	0.66312	95.55343	94.56742	35.8793	0.3316	 	740825.277	 	8.71726E-6	 	37212.061	38.0738	 
1045.0	1.0	0.0	7.30173	7.48996	-5.66194	15.97268	28.53455	1.50526	0.66434	96.26165	95.1588	36.15049	0.3314	 	800416.0277	 	8.03777E-6	 	37021.74	38.0642	 
1040.0	1.0	0.0	7.30381	7.48783	-5.68872	15.95355	28.47864	1.50249	0.66556	96.97124	95.75018	36.42228	0.33121	 	865309.8232	 	7.40678E-6	 	36831.459	38.0562	 
1035.0	1.0	0.0	7.30588	7.48571	-5.71546	15.93443	28.42276	1.49972	0.66679	97.68216	96.34151	36.69464	0.33101	 	936022.5221	 	6.82116E-6	 	36641.214	38.049	 
1030.0	1.0	0.0	7.30795	7.48359	-5.74214	15.9153	28.3669	1.49693	0.66804	98.39436	96.93274	36.96756	0.33082	 	1013124.34	 	6.27796E-6	 	36450.997	38.0434	 
1025.0	1.0	0.0	7.31001	7.48148	-5.76877	15.89618	28.31108	1.49412	0.66929	99.1078	97.52385	37.24103	0.33063	 	1097246.013	 	5.77441E-6	 	36260.803	38.0388	 
1020.0	1.0	0.0	7.31207	7.47937	-5.79535	15.87706	28.2553	1.49131	0.67055	99.82243	98.11477	37.51503	0.33043	 	1189085.699	 	5.3079E-6	 	36070.624	38.0358	 
1015.0	1.0	0.0	7.31413	7.47726	-5.82188	15.85793	28.19955	1.48848	0.67183	100.53821	98.70547	37.78954	0.33024	 	1289416.736	 	4.87596E-6	 	35880.454	38.034	 
1010.0	1.0	0.0	7.31619	7.47516	-5.84836	15.83881	28.14385	1.48563	0.67311	101.25508	99.29589	38.06454	0.33004	 	1399096.339	 	4.47627E-6	 	35690.285	38.0338	 
1005.0	1.0	0.0	7.31825	7.47306	-5.87478	15.81969	28.0882	1.48278	0.67441	101.97302	99.88601	38.34001	0.32985	 	1519075.379	 	4.10666E-6	 	35500.109	38.0352	 
1000.0	1.0	0.0	7.3203	7.47097	-5.90116	15.80057	28.0326	1.47991	0.67572	102.69196	100.47578	38.61595	0.32966	 	1650409.389	 	3.76508E-6	 	35309.921	38.0376	 
995.0	1.0	0.0	7.32234	7.46888	-5.92748	15.78146	27.97705	1.47702	0.67704	103.41187	101.06515	38.89233	0.32946	 	1794270.934	 	3.4496E-6	 	35119.71	38.0422	 
990.0	1.0	0.0	7.32439	7.46679	-5.95375	15.76234	27.92156	1.47412	0.67837	104.1327	101.65408	39.16914	0.32927	 	1951963.56	 	3.15842E-6	 	34929.47	38.048	 
985.0	1.0	0.0	7.32643	7.46471	-5.97996	15.74322	27.86613	1.47121	0.67971	104.8544	102.24252	39.44636	0.32908	 	2124937.514	 	2.88983E-6	 	34739.191	38.0558	 
980.0	1.0	0.0	7.32847	7.46263	-6.00613	15.7241	27.81078	1.46828	0.68107	105.57694	102.83044	39.72398	0.32888	 	2314807.471	 	2.64226E-6	 	34548.865	38.0652	 
975.0	1.0	0.0	7.33051	7.46056	-6.03224	15.70499	27.75549	1.46533	0.68244	106.30026	103.4178	40.00196	0.32869	 	2523372.57	 	2.41419E-6	 	34358.483	38.0764	 
970.0	1.0	0.0	7.33254	7.45849	-6.0583	15.68587	27.70029	1.46237	0.68382	107.02432	104.00455	40.28031	0.32849	 	2752639.031	 	2.20425E-6	 	34168.036	38.0894	 
965.0	1.0	0.0	7.33457	7.45642	-6.08431	15.66676	27.64517	1.45939	0.68522	107.74908	104.59065	40.559	0.3283	 	3004845.759	 	2.01112E-6	 	33977.514	38.1044	 
960.0	1.0	0.0	7.3366	7.45436	-6.11027	15.64764	27.59014	1.4564	0.68663	108.47448	105.17605	40.83802	0.32811	 	3282493.314	 	1.83358E-6	 	33786.906	38.1216	 
955.0	1.0	0.0	7.33863	7.45231	-6.13618	15.62853	27.53521	1.45339	0.68805	109.20049	105.76073	41.11735	0.32791	 	3588376.734	 	1.67048E-6	 	33596.202	38.1408	 
950.0	1.0	0.0	7.34065	7.45025	-6.16204	15.60942	27.48039	1.45036	0.68949	109.92707	106.34463	41.39697	0.32772	 	3925622.76	 	1.52075E-6	 	33405.392	38.162	 
945.0	1.0	0.0	7.34267	7.44821	-6.18784	15.59031	27.42567	1.44731	0.69094	110.65415	106.92771	41.67686	0.32752	 	4297732.075	 	1.3834E-6	 	33214.464	38.1856	 
940.0	1.0	0.0	7.34468	7.44616	-6.21359	15.5712	27.37107	1.44424	0.6924	111.38171	107.50994	41.95702	0.32733	 	4708627.298	 	1.2575E-6	 	33023.407	38.2114	 
935.0	1.0	0.0	7.3467	7.44412	-6.23929	15.55209	27.31659	1.44116	0.69389	112.10969	108.09128	42.23741	0.32714	 	5162707.538	 	1.14217E-6	 	32832.207	38.24	 
930.0	1.0	0.0	7.34871	7.44208	-6.26494	15.53298	27.26225	1.43806	0.69538	112.83806	108.67168	42.51804	0.32694	 	5664910.488	 	1.03661E-6	 	32640.854	38.2706	 
925.0	1.0	0.0	7.35071	7.44005	-6.29053	15.51387	27.20805	1.43493	0.6969	113.56676	109.2511	42.79887	0.32675	 	6220783.139	 	9.40054E-7	 	32449.332	38.3044	 
920.0	1.0	0.0	7.35272	7.43802	-6.31608	15.49476	27.15399	1.43179	0.69843	114.29575	109.82951	43.07989	0.32656	 	6836562.419	 	8.51812E-7	 	32257.63	38.3404	 
915.0	1.0	0.0	7.35472	7.436	-6.34157	15.47566	27.10009	1.42863	0.69997	115.02499	110.40687	43.36109	0.32636	 	7519267.2	 	7.71227E-7	 	32065.731	38.3798	 
910.0	1.0	0.0	7.35672	7.43398	-6.36701	15.45655	27.04635	1.42544	0.70154	115.75443	110.98313	43.64244	0.32617	 	8276803.403	 	6.97692E-7	 	31873.622	38.4218	 
905.0	1.0	0.0	7.35871	7.43196	-6.3924	15.43744	26.99278	1.42223	0.70312	116.48403	111.55826	43.92394	0.32597	 	9118084.166	 	6.30643E-7	 	31681.287	38.467	 
900.0	1.0	0.0	7.36071	7.42995	-6.41774	15.41834	26.9394	1.419	0.70472	117.21374	112.13221	44.20556	0.32578	 	1.005316738E7	 	5.69557E-7	 	31488.709	38.5156	 
895.0	1.0	0.0	7.36269	7.42794	-6.44303	15.39923	26.8862	1.41575	0.70634	117.94351	112.70496	44.48729	0.32559	 	1.109341325E7	 	5.13949E-7	 	31295.871	38.5676	 
890.0	1.0	0.0	7.36468	7.42594	-6.46826	15.38013	26.8332	1.41248	0.70798	118.67331	113.27645	44.76911	0.32539	 	1.225166494E7	 	4.63369E-7	 	31102.756	38.623	 
885.0	1.0	0.0	7.36666	7.42394	-6.49344	15.36103	26.7804	1.40918	0.70963	119.40309	113.84666	45.05101	0.3252	 	1.354245605E7	 	4.17402E-7	 	30909.345	38.6822	 
880.0	1.0	0.0	7.36864	7.42195	-6.51857	15.34193	26.72782	1.40585	0.71131	120.1328	114.41554	45.33296	0.32501	 	1.498224884E7	 	3.7566E-7	 	30715.618	38.7454	 
875.0	1.0	0.0	7.37062	7.41996	-6.54365	15.32282	26.67546	1.4025	0.71301	120.86241	114.98306	45.61495	0.32481	 	1.658970845E7	 	3.3779E-7	 	30521.554	38.8128	 
870.0	1.0	0.0	7.3726	7.41797	-6.56868	15.30372	26.62334	1.39913	0.71473	121.59185	115.54917	45.89697	0.32462	 	1.838601848E7	 	3.03461E-7	 	30327.132	38.8844	 
865.0	1.0	0.0	7.37457	7.41599	-6.59366	15.28462	26.57145	1.39573	0.71647	122.3211	116.11385	46.17899	0.32442	 	2.039524491E7	 	2.72369E-7	 	30132.329	38.9606	 
860.0	1.0	0.0	7.37654	7.41401	-6.61858	15.26553	26.51981	1.39231	0.71823	123.0501	116.67705	46.46101	0.32423	 	2.264475594E7	 	2.44234E-7	 	29937.121	39.0416	 
855.0	1.0	0.0	7.3785	7.41203	-6.64345	15.24643	26.46842	1.38885	0.72002	123.77882	117.23874	46.743	0.32404	 	2.5165707E7	 	2.18799E-7	 	29741.483	39.1276	 
850.0	1.0	0.0	7.38046	7.41006	-6.66827	15.22733	26.4173	1.38537	0.72183	124.5072	117.79887	47.02494	0.32384	 	2.799360167E7	 	1.95824E-7	 	29545.388	39.219	 
845.0	1.0	0.0	7.38242	7.40809	-6.69304	15.20823	26.36645	1.38187	0.72366	125.23521	118.35742	47.30683	0.32365	 	3.116894105E7	 	1.75091E-7	 	29348.807	39.3162	 
840.0	1.0	0.0	7.38438	7.40613	-6.71776	15.18914	26.31588	1.37833	0.72552	125.96279	118.91434	47.58864	0.32345	 	3.473797649E7	 	1.564E-7	 	29151.711	39.4192	 
835.0	1.0	0.0	7.38633	7.40417	-6.74243	15.17004	26.26559	1.37477	0.7274	126.68991	119.4696	47.87036	0.32326	 	3.875358289E7	 	1.39564E-7	 	28954.068	39.5286	 
830.0	1.0	0.0	7.38828	7.40222	-6.76704	15.15095	26.21559	1.37117	0.7293	127.41652	120.02317	48.15196	0.32307	 	4.327627343E7	 	1.24415E-7	 	28755.844	39.6448	 
825.0	1.0	0.0	7.39023	7.40027	-6.7916	15.13185	26.16589	1.36755	0.73123	128.14258	120.575	48.43344	0.32287	 	4.837537958E7	 	1.10796E-7	 	28557.004	39.768	 
820.0	1.0	0.0	7.39217	7.39832	-6.81611	15.11276	26.11648	1.3639	0.73319	128.86803	121.12507	48.71478	0.32268	 	5.413042532E7	 	9.85655E-8	 	28357.51	39.8988	 
815.0	1.0	0.0	7.39411	7.39638	-6.84057	15.09367	26.06739	1.36022	0.73518	129.59285	121.67333	48.99595	0.32249	 	6.063272927E7	 	8.75928E-8	 	28157.32	40.038	 
810.0	1.0	0.0	7.39605	7.39444	-6.86498	15.07457	26.0186	1.35651	0.73719	130.31698	122.21975	49.27695	0.32229	 	6.798727472E7	 	7.77585E-8	 	27956.391	40.1858	 
805.0	1.0	0.0	7.39799	7.39251	-6.88933	15.05548	25.97013	1.35277	0.73923	131.04038	122.7643	49.55775	0.3221	 	7.631489536E7	 	6.89535E-8	 	27754.678	40.3426	 
800.0	1.0	0.0	7.39992	7.39058	-6.91364	15.03639	25.92197	1.34899	0.74129	131.763	123.30694	49.83835	0.3219	 	8.575483277E7	 	6.10785E-8	 	27552.131	40.5094	 
795.0	1.0	0.0	7.40185	7.38866	-6.93789	15.0173	25.87413	1.34519	0.74339	132.48481	123.84763	50.11872	0.32171	 	9.646773316E7	 	5.40427E-8	 	27348.697	40.6868	 
790.0	1.0	0.0	7.40377	7.38673	-6.96209	14.99821	25.82661	1.34136	0.74551	133.20575	124.38634	50.39884	0.32152	 	1.086391628E8	 	4.77634E-8	 	27144.318	40.8758	 
785.0	1.0	0.0	7.40569	7.38482	-6.98624	14.97913	25.7794	1.33749	0.74767	133.92579	124.92304	50.6787	0.32132	 	1.22483738E8	 	4.21653E-8	 	26938.934	41.0768	 
780.0	1.0	0.0	7.40761	7.3829	-7.01034	14.96004	25.73251	1.3336	0.74985	134.64488	125.4577	50.95829	0.32113	 	1.382499821E8	 	3.71802E-8	 	26732.477	41.2914	 
775.0	1.0	0.0	7.40953	7.38099	-7.03438	14.94095	25.68593	1.32968	0.75206	135.36298	125.99027	51.23758	0.32093	 	1.562260474E8	 	3.27459E-8	 	26524.878	41.5198	 
770.0	1.0	0.0	7.41144	7.37909	-7.05838	14.92187	25.63967	1.32572	0.75431	136.08004	126.52072	51.51656	0.32074	 	1.767464623E8	 	2.8806E-8	 	26316.059	41.7638	 
765.0	1.0	0.0	7.41335	7.37719	-7.08232	14.90278	25.5937	1.32174	0.75658	136.79602	127.04903	51.79521	0.32055	 	2.002001007E8	 	2.53094E-8	 	26105.936	42.0246	 
760.0	1.0	0.0	7.41526	7.37529	-7.10621	14.8837	25.54804	1.31772	0.75889	137.51087	127.57515	52.07352	0.32035	 	2.270396067E8	 	2.221E-8	 	25894.418	42.3036	 
755.0	1.0	0.0	7.41716	7.3734	-7.13005	14.86461	25.50267	1.31368	0.76122	138.22456	128.09906	52.35147	0.32016	 	2.577925569E8	 	1.94658E-8	 	25681.408	42.602	 
750.0	1.0	0.0	7.41906	7.37151	-7.15384	14.84553	25.45758	1.3096	0.76359	138.93704	128.62071	52.62904	0.31997	 	2.930746987E8	 	1.70391E-8	 	25466.798	42.922	 
745.0	1.0	0.0	7.42096	7.36963	-7.17757	14.82645	25.41277	1.3055	0.76599	139.64826	129.14009	52.90622	0.31977	 	3.336056745E8	 	1.48958E-8	 	25250.47	43.2656	 
740.0	1.0	0.0	7.42285	7.36775	-7.20126	14.80737	25.36823	1.30137	0.76842	140.35819	129.65715	53.18299	0.31958	 	3.802277246E8	 	1.30052E-8	 	25032.297	43.6346	 
735.0	1.0	0.0	7.42474	7.36587	-7.22489	14.78828	25.32394	1.29721	0.77088	141.06677	130.17186	53.45933	0.31938	 	4.339279683E8	 	1.13395E-8	 	24812.139	44.0316	 
730.0	1.0	0.0	7.42663	7.364	-7.24847	14.7692	25.27989	1.29303	0.77338	141.77397	130.6842	53.73523	0.31919	 	4.958649852E8	 	9.87391E-9	 	24589.842	44.4594	 
725.0	1.0	0.0	7.42852	7.36213	-7.272	14.75013	25.23606	1.28882	0.7759	142.47974	131.19412	54.01067	0.319	 	5.674005777E8	 	8.58604E-9	 	24365.236	44.9212	 
720.0	1.0	0.0	7.4304	7.36026	-7.29548	14.73105	25.19245	1.28458	0.77846	143.18404	131.7016	54.28563	0.3188	 	6.501377816E8	 	7.45583E-9	 	24138.136	45.42	 
715.0	1.0	0.0	7.43228	7.3584	-7.3189	14.71197	25.14903	1.28032	0.78105	143.88683	132.2066	54.5601	0.31861	 	7.459664268E8	 	6.46532E-9	 	23908.336	45.96	 
710.0	1.0	0.0	7.43415	7.35655	-7.34228	14.69289	25.10578	1.27604	0.78368	144.58806	132.7091	54.83405	0.31841	 	8.571178345E8	 	5.59843E-9	 	23675.608	46.5456	 
705.0	1.0	0.0	7.43602	7.3547	-7.3656	14.67381	25.0627	1.27173	0.78633	145.28769	133.20906	55.10749	0.31822	 	9.862305897E8	 	4.84076E-9	 	23439.702	47.1812	 
700.0	1.0	0.0	7.43789	7.35285	-7.38887	14.65474	25.01974	1.2674	0.78902	145.98568	133.70645	55.38038	0.31803	 	1.136429761E9	 	4.1795E-9	 	23200.337	47.873	 
695.0	1.0	0.0	7.43976	7.35101	-7.41209	14.63566	24.97691	1.26305	0.79173	146.68198	134.20124	55.65271	0.31783	 	1.311422476E9	 	3.60319E-9	 	22940.21	52.0254	 
690.0	1.0	0.0	7.44162	7.34917	-7.43526	14.61659	24.93417	1.25868	0.79448	147.37656	134.69339	55.92446	0.31764	 	1.515613429E9	 	3.10165E-9	 	22665.08	55.026	 
685.0	1.0	0.0	7.44348	7.34733	-7.45838	14.59752	24.89149	1.2543	0.79726	148.06936	135.18289	56.19562	0.31745	 	1.754244707E9	 	2.66582E-9	 	22393.588	54.2984	 
680.0	1.0	0.0	7.44533	7.3455	-7.48144	14.57844	24.84886	1.24989	0.80007	148.76035	135.6697	56.46618	0.31725	 	2.033565358E9	 	2.28765E-9	 	22125.602	53.5972	 
675.0	1.0	0.0	7.44718	7.34367	-7.50445	14.55937	24.80625	1.24547	0.80291	149.44949	136.15378	56.73611	0.31706	 	2.361037393E9	 	1.96002E-9	 	21860.992	52.922	 
670.0	1.0	0.0	7.44903	7.34185	-7.52741	14.5403	24.76364	1.24104	0.80578	150.13673	136.63511	57.0054	0.31686	 	2.745586491E9	 	1.67661E-9	 	21599.638	52.2708	 
665.0	1.0	0.0	7.45088	7.34003	-7.55032	14.52123	24.72099	1.23659	0.80868	150.82203	137.11366	57.27403	0.31667	 	3.197907663E9	 	1.43184E-9	 	21341.426	51.6424	 
660.0	1.0	0.0	7.45272	7.33822	-7.57318	14.50216	24.67828	1.23212	0.81161	151.50534	137.5894	57.54199	0.31648	 	3.730838633E9	 	1.22076E-9	 	21086.246	51.036	 
655.0	1.0	0.0	7.45456	7.33641	-7.59599	14.48309	24.63548	1.22765	0.81456	152.18663	138.06229	57.80925	0.31628	 	4.359816757E9	 	1.03905E-9	 	20833.994	50.4504	 
650.0	1.0	0.0	7.4564	7.3346	-7.61875	14.46402	24.59256	1.22317	0.81755	152.86586	138.53232	58.07581	0.31609	 	5.103439277E9	 	8.82869E-10	 	20584.571	49.8846	 
645.0	1.0	0.0	7.45823	7.3328	-7.64145	14.44495	24.54949	1.21868	0.82056	153.54297	138.99945	58.34165	0.31589	 	5.984151582E9	 	7.48855E-10	 	20337.883	49.3376	 
640.0	1.0	0.0	7.46006	7.331	-7.6641	14.42589	24.50625	1.21418	0.8236	154.21794	139.46366	58.60675	0.3157	 	7.029094393E9	 	6.34059E-10	 	20093.841	48.8084	 
635.0	1.0	0.0	7.46189	7.3292	-7.6867	14.40682	24.46281	1.20968	0.82667	154.89071	139.9249	58.87109	0.31551	 	8.271148654E9	 	5.35893E-10	 	19852.359	48.2964	 
630.0	1.0	0.0	7.46371	7.32741	-7.70925	14.38775	24.41912	1.20517	0.82976	155.56125	140.38316	59.13467	0.31531	 	9.750226876E9	 	4.52097E-10	 	19613.357	47.8004	 
625.0	1.0	0.0	7.46553	7.32563	-7.73175	14.36869	24.37518	1.20066	0.83288	156.22952	140.83842	59.39745	0.31512	 	1.15149E10	 	3.80694E-10	 	19376.758	47.3198	 
620.0	1.0	0.0	7.46735	7.32384	-7.75419	14.34962	24.33094	1.19614	0.83602	156.89546	141.29063	59.65943	0.31493	 	1.3624199999999998E10	 	3.19962E-10	 	19142.486	46.8544	 
615.0	1.0	0.0	7.46916	7.32207	-7.77659	14.33056	24.28638	1.19163	0.83919	157.55905	141.73977	59.9206	0.31473	 	1.6150599999999998E10	 	2.68401E-10	 	18910.474	46.4024	 
610.0	1.0	0.0	7.47097	7.32029	-7.79893	14.3115	24.24146	1.18712	0.84238	158.22024	142.18582	60.18092	0.31454	 	1.91823E10	 	2.24709E-10	 	18680.653	45.9642	 
605.0	1.0	0.0	7.47278	7.31852	-7.82122	14.29244	24.19617	1.18261	0.84559	158.87899	142.62874	60.4404	0.31434	 	2.28278E10	 	1.87755E-10	 	18452.96	45.5386	 
600.0	1.0	0.0	7.47458	7.31676	-7.84346	14.27338	24.15047	1.1781	0.84883	159.53526	143.06852	60.699	0.31415	 	2.7220299999999996E10	 	1.56561E-10	 	18227.334	45.1252	 
595.0	1.0	0.0	7.47638	7.315	-7.86565	14.25431	24.10434	1.17359	0.85208	160.189	143.50512	60.95673	0.31396	 	3.2523799999999996E10	 	1.30281E-10	 	18003.718	44.7232	 
590.0	1.0	0.0	7.47818	7.31324	-7.88779	14.23525	24.05775	1.16909	0.85536	160.84018	143.93852	61.21355	0.31376	 	3.89409E10	 	1.08185E-10	 	17782.056	44.3324	 
585.0	1.0	0.0	7.47997	7.31148	-7.90987	14.2162	24.01068	1.1646	0.85866	161.48876	144.36869	61.46946	0.31357	 	4.672199999999999E10	 	8.96455E-11	 	17562.295	43.9522	 
580.0	1.0	0.0	7.48176	7.30974	-7.93191	14.19714	23.9631	1.16011	0.86199	162.13469	144.7956	61.72444	0.31338	 	5.617779999999999E10	 	7.41221E-11	 	17344.385	43.582	 
575.0	1.0	0.0	7.48355	7.30799	-7.95389	14.17808	23.91499	1.15563	0.86533	162.77794	145.21923	61.97847	0.31318	 	6.769419999999999E10	 	6.11516E-11	 	17128.277	43.2216	 
570.0	1.0	0.0	7.48533	7.30625	-7.97582	14.15902	23.86634	1.15116	0.86869	163.41847	145.63956	62.23154	0.31299	 	8.17521E10	 	5.03376E-11	 	16913.926	42.8702	 
565.0	1.0	0.0	7.48711	7.30451	-7.9977	14.13997	23.81711	1.1467	0.87207	164.05622	146.05655	62.48363	0.31279	 	9.895189999999998E10	 	4.13413E-11	 	16701.287	42.5278	 
560.0	1.0	0.0	7.48889	7.30278	-8.01953	14.12091	23.76729	1.14225	0.87546	164.69118	146.47019	62.73472	0.3126	 	1.20045E11	 	3.38739E-11	 	16490.319	42.1936	 
555.0	1.0	0.0	7.49066	7.30105	-8.0413	14.10186	23.71687	1.13781	0.87888	165.32329	146.88045	62.98481	0.31241	 	1.45975E11	 	2.76896E-11	 	16280.98	41.8678	 
550.0	1.0	0.0	7.49243	7.29933	-8.06303	14.0828	23.66583	1.13338	0.88232	165.95251	147.2873	63.23387	0.31221	 	1.77928E11	 	2.25799E-11	 	16073.233	41.5494	 
545.0	1.0	0.0	7.4942	7.2976	-8.0847	14.06375	23.61415	1.12896	0.88577	166.57881	147.69071	63.48189	0.31202	 	2.17401E11	 	1.83679E-11	 	15867.04	41.2386	 
540.0	1.0	0.0	7.49596	7.29589	-8.10632	14.0447	23.56183	1.12455	0.88924	167.20215	148.09067	63.72885	0.31182	 	2.66285E11	 	1.49043E-11	 	15662.365	40.935	 
535.0	1.0	0.0	7.49772	7.29418	-8.12789	14.02564	23.50886	1.12016	0.89273	167.82248	148.48716	63.97474	0.31163	 	3.26982E11	 	1.2063E-11	 	15459.175	40.638	 
530.0	1.0	0.0	7.49948	7.29247	-8.14941	14.00659	23.45522	1.11577	0.89624	168.43978	148.88014	64.21955	0.31144	 	4.02541E11	 	9.73807E-12	 	15257.437	40.3476	 
525.0	1.0	0.0	7.50123	7.29076	-8.17087	13.98754	23.40091	1.1114	0.89977	169.05399	149.26959	64.46325	0.31124	 	4.96854E11	 	7.84048E-12	 	15057.119	40.0636	 
520.0	1.0	0.0	7.50298	7.28906	-8.19229	13.96849	23.34593	1.10704	0.90331	169.66509	149.65549	64.70584	0.31105	 	6.14892E11	 	6.29569E-12	 	14858.192	39.7854	 
515.0	1.0	0.0	7.50473	7.28737	-8.21365	13.94944	23.29028	1.10269	0.90688	170.27303	150.03782	64.94729	0.31086	 	7.63034E11	 	5.0414E-12	 	14660.626	39.5132	 
510.0	1.0	0.0	7.50647	7.28567	-8.23497	13.9304	23.23395	1.09835	0.91046	170.87777	150.41656	65.1876	0.31066	 	9.49481E11	 	4.02574E-12	 	14464.394	39.2464	 
505.0	1.0	0.0	7.50821	7.28399	-8.25623	13.91135	23.17694	1.09402	0.91406	171.47928	150.79168	65.42674	0.31047	 	1.18481E12	 	3.20554E-12	 	14269.469	38.985	 
500.0	1.0	0.0	7.50995	7.2823	-8.27744	13.8923	23.11926	1.0897	0.91768	172.07752	151.16315	65.66471	0.31027	 	1.4827E12	 	2.54505E-12	 	14075.824	38.729	 
495.0	1.0	0.0	7.51168	7.28062	-8.29859	13.87326	23.06092	1.08539	0.92133	172.67245	151.53097	65.90149	0.31008	 	1.86092E12	 	2.01467E-12	 	13883.436	38.4776	 
490.0	1.0	0.0	7.51341	7.27895	-8.3197	13.85421	23.00192	1.08109	0.92499	173.26404	151.8951	66.13705	0.30989	 	2.34259E12	 	1.59001E-12	 	13692.28	38.2312	 
485.0	1.0	0.0	7.51513	7.27727	-8.34076	13.83517	22.94227	1.0768	0.92867	173.85224	152.25553	66.3714	0.30969	 	2.95789E12	 	1.25101E-12	 	13502.333	37.9894	 
480.0	1.0	0.0	7.51686	7.27561	-8.36176	13.81612	22.88199	1.07252	0.93238	174.43703	152.61224	66.60451	0.3095	 	3.74638E12	 	9.81197E-13	 	13313.574	37.7518	 
475.0	1.0	0.0	7.51857	7.27394	-8.38271	13.79708	22.82107	1.06824	0.93612	175.01835	152.9652	66.83637	0.3093	 	4.76008E12	 	7.67116E-13	 	13125.979	37.519	 
470.0	1.0	0.0	7.52029	7.27228	-8.40361	13.77804	22.75955	1.06397	0.93987	175.59619	153.31439	67.06696	0.30911	 	6.06759E12	 	5.97788E-13	 	12939.53	37.2898	 
465.0	1.0	0.0	7.522	7.27063	-8.42446	13.759	22.69743	1.05971	0.94366	176.17049	153.6598	67.29627	0.30892	 	7.75971E12	 	4.64286E-13	 	12754.206	37.0648	 
460.0	1.0	0.0	7.52371	7.26898	-8.44526	13.73995	22.63474	1.05544	0.94747	176.74124	154.0014	67.52429	0.30872	 	9.95709E12	 	3.59374E-13	 	12569.986	36.844	 
455.0	1.0	0.0	7.52542	7.26733	-8.466	13.72091	22.57148	1.05118	0.95131	177.30838	154.33917	67.751	0.30853	 	1.28205E13	 	2.77205E-13	 	12386.854	36.6264	 
450.0	1.0	0.0	7.52712	7.26569	-8.4867	13.70187	22.50769	1.04692	0.95518	177.87189	154.67311	67.97639	0.30834	 	1.65653E13	 	2.13067E-13	 	12204.79	36.4128	 
445.0	1.0	0.0	7.52882	7.26405	-8.50734	13.68284	22.44337	1.04266	0.95908	178.43172	155.00318	68.20045	0.30814	 	2.14803E13	 	1.63178E-13	 	12023.777	36.2026	 
440.0	1.0	0.0	7.53051	7.26241	-8.52793	13.6638	22.37857	1.0384	0.96302	178.98786	155.32936	68.42315	0.30795	 	2.79553E13	 	1.2451E-13	 	11843.799	35.9956	 
435.0	1.0	0.0	7.5322	7.26078	-8.54847	13.64476	22.31329	1.03414	0.96699	179.54025	155.65165	68.64449	0.30775	 	3.65177E13	 	9.46473E-14	 	11664.838	35.7922	 
430.0	1.0	0.0	7.53389	7.25916	-8.56896	13.62572	22.24757	1.02987	0.97099	180.08887	155.97003	68.86446	0.30756	 	4.78844E13	 	7.16706E-14	 	11486.879	35.5918	 
425.0	1.0	0.0	7.53558	7.25753	-8.5894	13.60669	22.18142	1.0256	0.97504	180.63369	156.28447	69.08303	0.30737	 	6.30332E13	 	5.40587E-14	 	11309.905	35.3948	 
420.0	1.0	0.0	7.53726	7.25591	-8.60979	13.58765	22.11488	1.02132	0.97913	181.17467	156.59496	69.3002	0.30717	 	8.33043E13	 	4.06112E-14	 	11133.904	35.2002	 
415.0	1.0	0.0	7.53893	7.2543	-8.63012	13.56862	22.04798	1.01703	0.98326	181.71177	156.90148	69.51595	0.30698	 	1.10542E14	 	3.0384E-14	 	10958.858	35.0092	 
410.0	1.0	0.0	7.54061	7.25269	-8.6504	13.54959	21.98073	1.01273	0.98743	182.24497	157.20402	69.73028	0.30679	 	1.47293E14	 	2.26371E-14	 	10784.756	34.8204	 
405.0	1.0	0.0	7.54228	7.25108	-8.67064	13.53055	21.91317	1.00841	0.99166	182.77424	157.50256	69.94316	0.30659	 	1.97095E14	 	1.67933E-14	 	10611.582	34.6348	 
400.0	1.0	0.0	7.54394	7.24948	-8.69082	13.51152	21.84533	1.00409	0.99593	183.29953	157.79709	70.15458	0.3064	 	2.6487999999999997E14	 	1.24036E-14	 	10439.323	34.4518	 
395.0	1.0	0.0	7.54561	7.24788	-8.71095	13.49249	21.77723	0.99974	1.00026	183.82083	158.08759	70.36454	0.3062	 	3.57556E14	 	9.12045E-15	 	10267.967	34.2712	 
390.0	1.0	0.0	7.54727	7.24629	-8.73102	13.47346	21.7089	0.99539	1.00464	184.3381	158.37405	70.57302	0.30601	 	4.84846E14	 	6.67567E-15	 	10097.5	34.0934	 
385.0	1.0	0.0	7.54892	7.2447	-8.75105	13.45443	21.64037	0.99101	1.00907	184.85131	158.65645	70.78	0.30582	 	6.605E14	 	4.86338E-15	 	9927.911	33.9178	 
380.0	1.0	0.0	7.55058	7.24311	-8.77102	13.4354	21.57168	0.98661	1.01357	185.36042	158.93478	70.98548	0.30562	 	9.04061E14	 	3.52616E-15	 	9759.187	33.7448	 
375.0	1.0	0.0	7.55223	7.24153	-8.79095	13.41637	21.50284	0.98219	1.01813	185.86542	159.20903	71.18944	0.30543	 	1.24344E15	 	2.54411E-15	 	9591.317	33.574	 
370.0	1.0	0.0	7.55387	7.23995	-8.81082	13.39734	21.43388	0.97775	1.02275	186.36627	159.47918	71.39188	0.30523	 	1.71873E15	 	1.82639E-15	 	9424.289	33.4056	 
365.0	1.0	0.0	7.55551	7.23838	-8.83064	13.37831	21.36483	0.97329	1.02745	186.86295	159.74523	71.59277	0.30504	 	2.38776E15	 	1.30443E-15	 	9258.092	33.2394	 
360.0	1.0	0.0	7.55715	7.23681	-8.85041	13.35929	21.29573	0.96879	1.03221	187.35542	160.00715	71.79211	0.30485	 	3.33448E15	 	9.26754E-16	 	9092.716	33.0752	 
355.0	1.0	0.0	7.55879	7.23525	-8.87012	13.34026	21.22659	0.96428	1.03705	187.84367	160.26495	71.9899	0.30465	 	4.68141E15	 	6.54898E-16	 	8928.149	32.9134	 
350.0	1.0	0.0	7.56042	7.23368	-8.88979	13.32124	21.15743	0.95973	1.04196	188.32765	160.51862	72.1861	0.30446	 	6.60828E15	 	4.60247E-16	 	8764.382	32.7534	 
345.0	1.0	0.0	7.56205	7.23213	-8.90941	13.30221	21.0883	0.95515	1.04696	188.80736	160.76813	72.38073	0.30427	 	9.38043E15	 	3.21631E-16	 	8601.405	32.5954	 
340.0	1.0	0.0	7.56367	7.23057	-8.92897	13.28319	21.0192	0.95054	1.05204	189.28275	161.01348	72.57376	0.30407	 	1.33918E16	 	2.23468E-16	 	8439.208	32.4394	 
335.0	1.0	0.0	7.56529	7.22902	-8.94848	13.26417	20.95016	0.94589	1.0572	189.75382	161.25467	72.76519	0.30388	 	1.92307E16	 	1.54348E-16	 	8277.78	32.2856	 
330.0	1.0	0.0	7.56691	7.22748	-8.96794	13.24515	20.8812	0.94121	1.06246	190.22053	161.49169	72.95501	0.30368	 	2.77817E16	 	1.05963E-16	 	8117.114	32.1332	 
325.0	1.0	0.0	7.56852	7.22594	-8.98735	13.22612	20.81235	0.9365	1.06781	190.68286	161.72452	73.1432	0.30349	 	4.03825E16	 	7.22943E-17	 	7957.199	31.983	 
320.0	1.0	0.0	7.57013	7.2244	-9.00671	13.2071	20.74363	0.93175	1.07325	191.1408	161.95317	73.32976	0.3033	 	5.90698E16	 	4.90101E-17	 	7798.028	31.8342	 
315.0	1.0	0.0	7.57174	7.22287	-9.02601	13.18808	20.67505	0.92696	1.0788	191.59431	162.17763	73.51468	0.3031	 	8.69655E16	 	3.30087E-17	 	7639.59	31.6876	 
310.0	1.0	0.0	7.57334	7.22134	-9.04527	13.16906	20.60662	0.92213	1.08445	192.04338	162.39789	73.69795	0.30291	 	1.28887E17	 	2.2083E-17	 	7481.879	31.5422	 
305.0	1.0	0.0	7.57494	7.21982	-9.06447	13.15005	20.53838	0.91726	1.0902	192.48799	162.61394	73.87956	0.30271	 	1.9232E17	 	1.46724E-17	 	7324.885	31.3988	 
300.0	1.0	0.0	7.57654	7.21829	-9.08363	13.13103	20.47033	0.91235	1.09607	192.92812	162.8258	74.05951	0.30252	 	2.88985E17	 	9.6801E-18	 	7168.6	31.257	 
295.0	1.0	0.0	7.57813	7.21678	-9.10273	13.11201	20.40249	0.9074	1.10205	193.36375	163.03344	74.23778	0.30233	 	4.37358E17	 	6.34034E-18	 	7013.017	31.1166	 
290.0	1.0	0.0	7.57972	7.21527	-9.12178	13.093	20.33487	0.9024	1.10815	193.79487	163.23688	74.41437	0.30213	 	6.668E17	 	4.12207E-18	 	6858.129	30.9776	 
285.0	1.0	0.0	7.5813	7.21376	-9.14077	13.07398	20.26749	0.89736	1.11437	194.22146	163.43611	74.58928	0.30194	 	1.02432E18	 	2.65952E-18	 	6703.927	30.8404	 
280.0	1.0	0.0	7.58289	7.21225	-9.15972	13.05497	20.20035	0.89228	1.12072	194.64351	163.63113	74.7625	0.30175	 	1.58579E18	 	1.70249E-18	 	6550.404	30.7046	 
275.0	1.0	0.0	7.58446	7.21075	-9.17862	13.03595	20.13346	0.88715	1.1272	195.06099	163.82194	74.93401	0.30155	 	2.47467E18	 	1.08111E-18	 	6397.553	30.5702	 
270.0	1.0	0.0	7.58604	7.20926	-9.19746	13.01694	20.06684	0.88198	1.13381	195.47392	164.00854	75.10382	0.30136	 	3.89358E18	 	6.8086E-19	 	6245.367	30.4372	 
265.0	1.0	0.0	7.58761	7.20776	-9.21625	12.99793	20.00049	0.87676	1.14056	195.88226	164.19095	75.27192	0.30116	 	6.17785E18	 	4.2516E-19	 	6093.84	30.3054	 
260.0	1.0	0.0	7.58917	7.20628	-9.235	12.97891	19.93442	0.87149	1.14746	196.28601	164.36915	75.43831	0.30097	 	9.8875E18	 	2.63178E-19	 	5942.965	30.175	 
255.0	1.0	0.0	7.59074	7.20479	-9.25369	12.9599	19.86863	0.86618	1.1545	196.68517	164.54316	75.60298	0.30078	 	1.59663E19	 	1.61451E-19	 	5792.735	30.046	 
250.0	1.0	0.0	7.5923	7.20331	-9.27232	12.94089	19.80312	0.86082	1.16169	197.07972	164.71299	75.76593	0.30058	 	2.60194E19	 	9.81331E-20	 	5643.145	29.918	 
245.0	1.0	0.0	7.59385	7.20184	-9.29091	12.92188	19.73791	0.85541	1.16904	197.46966	164.87864	75.92716	0.30039	 	4.28041E19	 	5.90822E-20	 	5494.187	29.7916	 
240.0	1.0	0.0	7.5954	7.20037	-9.30945	12.90287	19.673	0.84995	1.17654	197.855	165.04012	76.08666	0.3002	 	7.11027E19	 	3.52245E-20	 	5345.858	29.6658	 
235.0	1.0	0.0	7.59695	7.1989	-9.32793	12.88386	19.60838	0.84444	1.18422	198.23572	165.19745	76.24443	0.3	 	1.1929599999999998E20	 	2.079E-20	 	5198.15	29.5416	 
230.0	1.0	0.0	7.5985	7.19743	-9.34637	12.86486	19.54405	0.83888	1.19206	198.61182	165.35063	76.40048	0.29981	 	2.02222E20	 	1.21438E-20	 	5051.058	29.4184	 
225.0	1.0	0.0	7.60004	7.19597	-9.36475	12.84585	19.48002	0.83328	1.20008	198.98332	165.49968	76.5548	0.29961	 	3.4644499999999997E20	 	7.01798E-21	 	4904.577	29.2962	 
220.0	1.0	0.0	7.60158	7.19452	-9.38308	12.82684	19.41629	0.82762	1.20829	199.35021	165.64461	76.70739	0.29942	 	6.000419999999999E20	 	4.01129E-21	 	4758.702	29.175	 
215.0	1.0	0.0	7.60311	7.19307	-9.40136	12.80784	19.35285	0.82191	1.21667	199.71249	165.78544	76.85826	0.29923	 	1.0510300000000001E21	 	2.26686E-21	 	4613.427	29.055	 
210.0	1.0	0.0	7.60464	7.19162	-9.41959	12.78883	19.2897	0.81616	1.22525	200.07019	165.92219	77.00741	0.29903	 	1.8624600000000001E21	 	1.26614E-21	 	4468.749	28.9356	 
205.0	1.0	0.0	7.60617	7.19018	-9.43776	12.76983	19.22685	0.81035	1.23403	200.4233	166.05488	77.15483	0.29884	 	3.34008E21	 	6.98706E-22	 	4324.662	28.8174	 
200.0	1.0	0.0	7.60769	7.18874	-9.45589	12.75083	19.16427	0.8045	1.24301	200.77184	166.18353	77.30054	0.29864	 	6.06438E21	 	3.80802E-22	 	4181.163	28.6998	 
195.0	1.0	0.0	7.60921	7.1873	-9.47396	12.73183	19.10198	0.79859	1.25221	201.11582	166.30817	77.44454	0.29845	 	1.1151899999999999E22	 	2.04891E-22	 	4038.246	28.5834	 
190.0	1.0	0.0	7.61072	7.18587	-9.49199	12.71282	19.03996	0.79264	1.26161	201.45527	166.42882	77.58683	0.29826	 	2.0779E22	 	1.08789E-22	 	3895.908	28.4676	 
185.0	1.0	0.0	7.61223	7.18445	-9.50996	12.69382	18.97821	0.78663	1.27125	201.7902	166.54551	77.72743	0.29806	 	3.92463E22	 	5.69764E-23	 	3754.145	28.3526	 
180.0	1.0	0.0	7.61374	7.18302	-9.52788	12.67482	18.91673	0.78057	1.28111	202.12064	166.65828	77.86634	0.29787	 	7.517409999999999E22	 	2.94212E-23	 	3612.953	28.2384	 
175.0	1.0	0.0	7.61525	7.1816	-9.54575	12.65582	18.85551	0.77447	1.29121	202.44661	166.76714	78.00357	0.29768	 	1.46095E23	 	1.49718E-23	 	3472.33	28.1246	 
170.0	1.0	0.0	7.61675	7.18019	-9.56356	12.63682	18.79455	0.76831	1.30156	202.76815	166.87215	78.13913	0.29748	 	2.8821399999999997E23	 	7.50451E-24	 	3332.271	28.0118	 
165.0	1.0	0.0	7.61824	7.17878	-9.58133	12.61783	18.73382	0.7621	1.31216	203.08528	166.97334	78.27303	0.29729	 	5.774699999999999E23	 	3.70323E-24	 	3192.775	27.8992	 
160.0	1.0	0.0	7.61974	7.17737	-9.59905	12.59883	18.67334	0.75585	1.32302	203.39805	167.07075	78.40529	0.29709	 	1.17574E24	 	1.7981E-24	 	3053.838	27.7874	 
155.0	1.0	0.0	7.62123	7.17597	-9.61671	12.57983	18.6131	0.74954	1.33415	203.7065	167.16443	78.53593	0.2969	 	2.43391E24	 	8.58574E-25	 	2915.457	27.6762	 
150.0	1.0	0.0	7.62271	7.17457	-9.63432	12.56084	18.55307	0.74318	1.34556	204.01067	167.25442	78.66495	0.29671	 	5.12586E24	 	4.02916E-25	 	2777.631	27.5652	 
145.0	1.0	0.0	7.62419	7.17318	-9.65188	12.54184	18.49327	0.73678	1.35726	204.31061	167.34078	78.79238	0.29651	 	1.0989100000000001E25	 	1.85718E-25	 	2640.358	27.4546	 
140.0	1.0	0.0	7.62567	7.17179	-9.66939	12.52285	18.43368	0.73032	1.36926	204.60638	167.42356	78.91824	0.29632	 	2.39981E25	 	8.40267E-26	 	2503.636	27.3444	 
135.0	1.0	0.0	7.62714	7.1704	-9.68685	12.50385	18.37429	0.72381	1.38157	204.89803	167.50281	79.04255	0.29612	 	5.34197E25	 	3.72911E-26	 	2367.463	27.2346	 
130.0	1.0	0.0	7.62861	7.16902	-9.70426	12.48486	18.3151	0.71726	1.3942	205.18563	167.57861	79.16534	0.29593	 	1.21296E26	 	1.62221E-26	 	2231.839	27.1248	 
125.0	1.0	0.0	7.63008	7.16764	-9.72162	12.46587	18.2561	0.71065	1.40716	205.46925	167.65102	79.28662	0.29574	 	2.8114900000000003E26	 	6.9119E-27	 	2096.762	27.0154	 
120.0	1.0	0.0	7.63154	7.16627	-9.73892	12.44688	18.19728	0.70399	1.42046	205.74897	167.7201	79.40644	0.29554	 	6.65751E26	 	2.88226E-27	 	1962.233	26.9058	 
115.0	1.0	0.0	7.633	7.1649	-9.75617	12.42789	18.13863	0.69729	1.43413	206.02486	167.78595	79.52482	0.29535	 	1.61188E27	 	1.17531E-27	 	1828.25	26.7966	 
110.0	1.0	0.0	7.63446	7.16353	-9.77338	12.4089	18.08015	0.69053	1.44816	206.29702	167.84863	79.64179	0.29516	 	3.99372E27	 	4.68251E-28	 	1694.815	26.687	 
105.0	1.0	0.0	7.63591	7.16217	-9.79053	12.38991	18.02183	0.68373	1.46257	206.56555	167.90824	79.75739	0.29496	 	1.0135400000000001E28	 	1.821E-28	 	1561.927	26.5776	 
100.0	1.0	0.0	7.63736	7.16081	-9.80763	12.37092	17.96366	0.67687	1.47739	206.83054	167.96486	79.87166	0.29477	 	2.63721E28	 	6.90598E-29	 	1429.587	26.468	 
95.0	1.0	0.0	7.6388	7.15946	-9.82468	12.35193	17.90564	0.66997	1.49261	207.09211	168.0186	79.98464	0.29457	 	7.0425300000000005E28	 	2.55142E-29	 	1297.798	26.3578	 
90.0	1.0	0.0	7.64024	7.15811	-9.84167	12.33294	17.84776	0.66301	1.50827	207.35038	168.06957	80.09638	0.29438	 	1.93223E29	 	9.17303E-30	 	1166.56	26.2476	 
85.0	1.0	0.0	7.64168	7.15676	-9.85862	12.31396	17.79001	0.656	1.52438	207.60548	168.11787	80.20694	0.29419	 	5.452920000000001E29	 	3.20569E-30	 	1035.876	26.1368	 
80.0	1.0	0.0	7.64311	7.15542	-9.87551	12.29497	17.73238	0.64895	1.54096	207.85755	168.16363	80.31635	0.29399	 	1.58474E30	 	1.08765E-30	 	905.748	26.0256	 
75.0	1.0	0.0	7.64454	7.15409	-9.89236	12.27599	17.67487	0.64184	1.55802	208.10674	168.20698	80.42468	0.2938	 	4.74891E30	 	3.57815E-31	 	776.18	25.9136	 
70.0	1.0	0.0	7.64596	7.15275	-9.90915	12.257	17.61748	0.63468	1.57559	208.35322	168.24805	80.532	0.29361	 	1.46934E31	 	1.13986E-31	 	647.175	25.801	 
65.0	1.0	0.0	7.64739	7.15142	-9.92589	12.23802	17.56019	0.62748	1.59368	208.59715	168.287	80.63837	0.29341	 	4.70061E31	 	3.51109E-32	 	518.739	25.6872	 
60.0	1.0	0.0	7.6488	7.1501	-9.94258	12.21903	17.50301	0.62022	1.61233	208.83872	168.32397	80.74385	0.29322	 	1.55721E32	 	1.04419E-32	 	390.874	25.573	 
55.0	1.0	0.0	7.65022	7.14878	-9.95922	12.20005	17.44592	0.61291	1.63156	209.07815	168.35914	80.84854	0.29302	 	5.35045E32	 	2.99343E-33	 	263.589	25.457	 
50.0	1.0	0.0	7.65163	7.14746	-9.97581	12.18107	17.38891	0.60555	1.65139	209.31563	168.39268	80.95251	0.29283	 	1.9099500000000002E33	 	8.25787E-34	 	136.887	25.3404	 
45.0	1.0	0.0	7.65303	7.14615	-9.99234	12.16209	17.332	0.59814	1.67186	209.55142	168.4248	81.05585	0.29264	 	7.096190000000001E33	 	2.18823E-34	 	10.777	25.222	 
40.0	1.0	0.0	7.65443	7.14484	-10.00883	12.14311	17.27516	0.59067	1.69298	209.78575	168.45569	81.15866	0.29244	 	2.7493500000000004E34	 	5.55915E-35	 	-114.734	25.1022	 
35.0	1.0	0.0	7.65583	7.14353	-10.02526	12.12413	17.2184	0.58316	1.7148	210.01891	168.48558	81.26104	0.29225	 	1.11307E35	 	1.35122E-35	 	-239.637	24.9806	 
30.0	1.0	0.0	7.65723	7.14223	-10.04165	12.10515	17.16172	0.57559	1.73734	210.25117	168.5147	81.36312	0.29205	 	4.719E35	 	3.13541E-36	 	-363.922	24.857	 
25.0	1.0	0.0	7.65862	7.14094	-10.05798	 	17.10509	0.56797	1.76065	210.48287	168.54331	81.465	0.29186	 	2.0999799999999999E36	 	6.92956E-37	 	-487.579	 	 
