T (C)	Fraction solid (wt)-TOTAL	Fraction liquid (wt)-LIQUID	Density (g/(cm)^3)-TOTAL	Molar volume (cm^3)-TOTAL	Volume change (%)-  	Average expansion coeff. (10e-6 1/K)-  	Thermal conductivity (W/(m*K))-TOTAL	Electrical resistivity (10e-6 Ohm*m)-TOTAL	Electrical conductivity (10e6 1/(Ohm*m))-TOTAL	Young's modulus (GPa)-TOTAL	Bulk modulus (GPa)-TOTAL	Shear modulus(GPa)-TOTAL	Poisson's ratio-TOTAL	Liquid viscosity (mPa s)-  	Total viscosity (mPa s)-  	Liquid diffusivity (10e-9 (m^2)/s)-  	Total diffusivity (10e-9 (m^2)/s)-  	Surface Tension (mN/m)-  	Enthalpy (J/mole)-TOTAL	Specific heat (J/(mole K))-TOTAL	Latent heat (J/mole)-TOTAL
1500.0	0.0	1.0	6.95617	7.88573	0.0	30.40304	35.73216	1.61698	0.61844	0.0	102.96606	0.0	0.49974	6.41961	6.41961	1.3481	1.3481	1520.56163	65867.061	 	0.0
1495.0	0.0	1.0	6.96007	7.88132	-0.055953	30.36251	35.65673	1.61583	0.61888	0.0	103.16192	0.0	0.49974	6.47485	6.47485	1.33283	1.33283	1520.73126	65647.659	43.8804	0.0
1490.0	0.0	1.0	6.96395	7.87692	-0.11175	30.3221	35.58126	1.61468	0.61932	0.0	103.35778	0.0	0.49974	6.53089	6.53089	1.31766	1.31766	1520.88763	65428.754	43.781	0.0
1485.0	0.0	1.0	6.96783	7.87253	-0.16739	30.28181	35.50577	1.61352	0.61976	0.0	103.55364	0.0	0.49974	6.58773	6.58773	1.30259	1.30259	1521.03072	65210.342	43.6824	0.0
1480.0	0.0	1.0	6.97171	7.86815	-0.22288	30.24166	35.43024	1.61236	0.62021	0.0	103.74951	0.0	0.49974	6.64539	6.64539	1.28761	1.28761	1521.16049	64992.421	43.5842	0.0
1475.0	0.0	1.0	6.97558	7.86379	-0.27821	30.20163	35.35468	1.6112	0.62066	0.0	103.94537	0.0	0.49974	6.70389	6.70389	1.27274	1.27274	1521.27691	64774.986	43.487	0.0
1470.0	0.0	1.0	6.97944	7.85944	-0.33339	30.16173	35.27909	1.61003	0.6211	0.0	104.14123	0.0	0.49974	6.76325	6.76325	1.25796	1.25796	1521.37996	64558.035	43.3902	0.0
1465.0	0.0	1.0	6.98329	7.8551	-0.38841	30.12196	35.20347	1.60886	0.62156	0.0	104.3371	0.0	0.49974	6.82348	6.82348	1.24328	1.24328	1521.4696	64341.564	43.2942	0.0
1460.0	0.0	1.0	6.98714	7.85077	-0.44327	30.08232	35.12782	1.60769	0.62201	0.0	104.53296	0.0	0.49974	6.8846	6.8846	1.2287	1.2287	1521.5458	64125.571	43.1986	0.0
1455.0	0.0	1.0	6.99098	7.84646	-0.49798	30.04282	35.05213	1.60651	0.62247	0.0	104.72882	0.0	0.49974	6.94662	6.94662	1.21421	1.21421	1521.60854	63910.052	43.1038	0.0
1450.0	0.0	1.0	6.99482	7.84216	-0.55254	30.00345	34.97642	1.60533	0.62292	0.0	104.92468	0.0	0.49974	7.00957	7.00957	1.19983	1.19983	1521.6578	63695.027	43.005	0.0
1445.0	0.0	1.0	6.99865	7.83787	-0.60694	29.96422	34.90067	1.60415	0.62338	0.0	105.12055	0.0	0.49974	7.07346	7.07346	1.18554	1.18554	1521.69355	63480.532	42.899	0.0
1440.0	0.0	1.0	7.00247	7.83359	-0.66118	29.92513	34.82489	1.60296	0.62384	0.0	105.31641	0.0	0.49974	7.13831	7.13831	1.17135	1.17135	1521.71578	63266.557	42.795	0.0
1435.0	0.0	1.0	7.00628	7.82933	-0.71527	29.88618	34.74908	1.60177	0.62431	0.0	105.51227	0.0	0.49974	7.20414	7.20414	1.15726	1.15726	1521.72446	63053.101	42.6912	0.0
1430.0	0.0	1.0	7.01009	7.82507	-0.7692	29.84737	34.67324	1.60058	0.62478	0.0	105.70813	0.0	0.49974	7.27097	7.27097	1.14327	1.14327	1521.71959	62840.159	42.5884	0.0
1425.0	0.0	1.0	7.01389	7.82083	-0.82298	29.8087	34.59737	1.59938	0.62524	0.0	105.904	0.0	0.49974	7.33881	7.33881	1.12937	1.12937	1521.70115	62627.729	42.486	0.0
1420.0	0.0	1.0	7.01769	7.8166	-0.8766	29.77017	34.52146	1.59817	0.62571	0.0	106.09986	0.0	0.49974	7.4077	7.4077	1.11557	1.11557	1521.66912	62415.806	42.3846	0.0
1415.0	0.0	1.0	7.02148	7.81239	-0.93006	29.73179	34.44553	1.59697	0.62619	0.0	106.29572	0.0	0.49974	7.47765	7.47765	1.10188	1.10188	1521.62351	62204.388	42.2836	0.0
1410.0	0.0	1.0	7.02526	7.80818	-0.98338	29.69356	34.36956	1.59576	0.62666	0.0	106.49159	0.0	0.49974	7.54868	7.54868	1.08828	1.08828	1521.5643	61993.471	42.1834	0.0
1405.0	0.0	1.0	7.02903	7.80399	-1.03653	29.65548	34.29356	1.59454	0.62714	0.0	106.68745	0.0	0.49974	7.62081	7.62081	1.07477	1.07477	1521.4915	61783.05	42.0842	0.0
1400.42	0.0	1.0	7.03248	7.80016	-1.08514	29.62069	34.22384	1.59342	0.62758	0.0	106.86705	0.0	0.49974	7.68794	7.68794	1.06248	1.06248	1521.4128	61590.567	41.9827	0.0
1400.0	0.01076	0.98924	7.03446	7.79801	-1.11234	29.5548	34.24269	1.59215	0.62808	9.57237E-7	106.77308	3.19438E-7	0.49831	7.69155	7.80195	1.06171	1.04669	1520.85729	61452.482	332.591	120.639
1395.0	0.13177	0.86823	7.05646	7.77369	-1.42085	28.81107	34.45446	1.57764	0.63386	0.0219152	105.72624	0.0073934	0.48208	7.73694	12.88228	1.05233	0.63202	1514.35607	59892.048	312.087	1471.636
1390.0	0.23204	0.76796	7.07518	7.75308	-1.68217	28.19259	34.62348	1.56523	0.63888	0.21393	104.91444	0.0728403	0.46847	7.78286	48.10257	1.04299	0.16875	1508.19937	58570.959	264.218	2583.775
1385.0	0.31603	0.68397	7.09128	7.7355	-1.90505	27.67648	34.75789	1.55449	0.6433	0.74635	104.28908	0.25613	0.45696	7.82963	148.79331	1.03364	0.054391	1502.35565	57437.158	226.76	3509.11
1380.0	0.38711	0.61289	7.10529	7.72029	-2.09802	27.24004	34.86394	1.54509	0.64721	1.70103	103.81217	0.58773	0.44712	7.87724	339.80622	1.02429	0.0237448	1496.79972	56451.852	197.061	4286.431
1375.0	0.4478	0.5522	7.11767	7.70691	-2.26761	26.86585	34.94636	1.53678	0.65071	3.08059	103.45516	1.07066	0.43864	7.92542	634.46746	1.01499	0.0126787	1491.50925	55585.704	173.23	4945.071
1370.0	0.50005	0.49995	7.1287	7.69504	-2.41818	26.54236	35.00897	1.52938	0.65386	4.84057	103.19518	1.691	0.43127	7.97445	1038.08802	1.00569	0.00772556	1486.46328	54816.214	153.898	5507.528
1365.0	0.54535	0.45465	7.13865	7.68437	-2.55346	26.25961	35.05509	1.52272	0.65672	6.91525	103.01531	2.42671	0.42482	8.02401	1551.28616	0.99643	0.00515405	1481.64378	54125.911	138.061	5991.27
1360.0	0.58491	0.41509	7.14767	7.67474	-2.67561	26.01193	35.08726	1.51668	0.65933	9.23454	102.90224	3.25358	0.41914	8.07446	2172.65944	0.98719	0.00366878	1477.03326	53501.079	124.966	6410.011
1355.0	0.61965	0.38035	7.15595	7.66593	-2.78737	25.79195	35.10746	1.51117	0.66174	11.7331	102.84463	4.14862	0.41409	8.12549	2900.27075	0.97798	0.00273995	1472.61767	52930.831	114.05	6774.634
1350.0	0.65034	0.34966	7.16356	7.65788	-2.88939	25.59808	35.1177	1.50609	0.66397	14.35316	102.8341	5.09121	0.4096	8.17773	3732.56517	0.96875	0.00212245	1468.38115	52406.454	104.875	7093.849
1345.0	0.67758	0.32242	7.17067	7.65036	-2.98471	25.42196	35.11903	1.50139	0.66605	17.04705	102.86285	6.0641	0.40557	8.23022	4668.60384	0.95961	0.00169168	1464.31549	51920.899	97.111	7374.702
1340.0	0.70189	0.29811	7.1773	7.64341	-3.0729	25.26499	35.11299	1.49701	0.668	19.77567	102.92563	7.05296	0.40194	8.28397	5708.89808	0.95044	0.00137914	1460.40559	51468.409	90.498	7622.948
1335.0	0.72365	0.27635	7.18355	7.63684	-3.15617	25.12103	35.10032	1.49291	0.66983	22.5101	103.01673	8.04707	0.39865	8.33829	6855.1579	0.94132	0.00114497	1456.64493	51044.267	84.8284	7843.301
1330.0	0.74324	0.25676	7.18945	7.6307	-3.23412	24.99139	35.08213	1.48904	0.67157	25.22416	103.13327	9.0366	0.39567	8.39359	8109.66514	0.93221	9.64846E-4	1453.02094	50644.572	79.939	8039.659
1325.0	0.76093	0.23907	7.19508	7.62481	-3.3087	24.87055	35.05876	1.48538	0.67323	27.9015	103.27046	10.01535	0.39294	8.44948	9476.34144	0.92315	8.23121E-4	1449.5295	50266.075	75.6994	8215.267
1320.0	0.77695	0.22305	7.20044	7.61925	-3.37931	24.76038	35.03118	1.4819	0.67481	30.52811	103.4266	10.97787	0.39044	8.50637	10960.20581	0.91411	7.09455E-4	1446.15938	49906.056	72.0038	8372.845
1315.0	0.79152	0.20848	7.20558	7.61392	-3.44681	24.65846	34.99975	1.47858	0.67633	33.09663	103.59871	11.92122	0.38814	8.56423	12568.45047	0.90509	6.16732E-4	1442.90468	49562.222	68.7668	8514.682
1310.0	0.80481	0.19519	7.21053	7.60882	-3.51147	24.56412	34.96495	1.47539	0.67779	35.5979	103.78492	12.84177	0.38602	8.62308	14307.15345	0.89608	5.40077E-4	1439.75886	49232.63	65.9184	8642.718
1305.0	0.81696	0.18304	7.21531	7.60388	-3.57412	24.47498	34.92706	1.47233	0.6792	38.03226	103.98301	13.73944	0.38405	8.68265	16186.40012	0.88712	4.75866E-4	1436.718	48915.626	63.4008	8758.605
1300.0	0.82811	0.17189	7.21994	7.59914	-3.63424	24.39262	34.88662	1.46936	0.68057	40.3914	104.19233	14.61093	0.38223	8.74324	18213.92476	0.87818	4.21554E-4	1433.7738	48609.796	61.166	8863.754
1295.0	0.83835	0.16165	7.22443	7.59454	-3.69264	24.31476	34.84378	1.46649	0.6819	42.67952	104.41071	15.45761	0.38053	8.80488	20402.30998	0.86926	3.75141E-4	1430.92331	48313.924	59.1744	8959.379
1292.89	0.84213	0.15787	7.2262	7.59272	-3.7157	24.28636	34.8252	1.46531	0.68245	43.55706	104.50751	15.78271	0.3799	8.83115	21344.59989	0.86551	3.58099E-4	1429.74844	48195.298	 	8993.817
1290.0	0.84726	0.15274	7.22861	7.59022	-3.74745	24.247	34.80003	1.46366	0.68322	44.66687	104.63261	16.1951	0.37902	8.86517	22697.10044	0.8606	3.36138E-4	1428.06283	48033.806	56.0236	9039.68
1288.01	0.85063	0.14937	7.23024	7.58854	-3.76874	24.22154	34.78236	1.46253	0.68375	45.41185	104.72093	16.47212	0.37845	8.88883	23660.50077	0.85721	3.2204E-4	1426.91904	47924.279	 	9069.663
1285.0	0.85624	0.14376	7.23313	7.58555	-3.80663	24.16562	34.75547	1.46084	0.68454	46.59451	104.84638	16.91281	0.37749	8.92863	25247.90626	0.85175	3.01211E-4	1425.19281	47750.644	56.6324	9123.454
1280.0	0.86499	0.13501	7.23779	7.58075	-3.86747	24.07856	34.70916	1.4581	0.68582	48.50572	105.06394	17.62576	0.37599	8.99573	28050.72513	0.84268	2.70244E-4	1422.40723	47468.701	56.3886	9206.436
1275.0	0.87301	0.12699	7.24228	7.57613	-3.92603	23.99769	34.66084	1.45543	0.68708	50.33748	105.2915	18.30996	0.37459	9.06343	31064.50546	0.83369	2.4324E-4	1419.72158	47195.077	54.7248	9281.521
1270.0	0.88039	0.11961	7.24663	7.57167	-3.98261	23.9222	34.61069	1.45283	0.68831	52.09895	105.52754	18.96873	0.37328	9.13212	34310.28775	0.82475	2.19518E-4	1417.13036	46928.854	53.2446	9349.628
1265.0	0.88719	0.11281	7.25085	7.56734	-4.03758	23.85102	34.55892	1.45029	0.68952	53.78813	105.7709	19.60122	0.37206	9.20145	37803.40021	0.81588	1.98589E-4	1414.62994	46669.242	51.9224	9411.541
1260.0	0.89348	0.10652	7.25495	7.56316	-4.09052	23.78546	34.50578	1.44781	0.6907	55.4149	106.02108	20.21099	0.37091	9.27224	41570.73016	0.80702	1.80005E-4	1412.21118	46415.565	50.7354	9467.937
1255.0	0.89931	0.10069	7.25894	7.5591	-4.1421	23.72357	34.45146	1.44536	0.69187	56.978	106.27679	20.79751	0.36983	9.3437	45630.15036	0.79824	1.63456E-4	1409.87366	46167.236	49.6658	9519.398
1250.0	0.90472	0.0952774	7.26286	7.55511	-4.1927	23.6642	34.39589	1.44296	0.69302	58.48709	106.53709	21.36433	0.3688	9.41583	50012.47402	0.78953	1.48645E-4	1407.61482	45923.749	48.6974	9566.43
1245.0	0.90975	0.0902457	7.26667	7.55124	-4.24174	23.60916	34.33945	1.44059	0.69416	59.94073	106.80194	21.91081	0.36783	9.48955	54742.49844	0.78083	1.35356E-4	1405.42632	45684.663	47.8172	9609.469
1240.0	0.91444	0.0855577	7.27042	7.54744	-4.28985	23.55656	34.28208	1.43824	0.69529	61.34479	107.07039	22.43913	0.36692	9.56401	59852.2643	0.7722	1.23392E-4	1403.30857	45449.583	47.016	9648.917
1235.0	0.91882	0.081184	7.2741	7.54371	-4.33717	23.50603	34.22391	1.43593	0.69641	62.70323	107.34188	22.9507	0.36604	9.63924	65375.04453	0.76364	1.12595E-4	1401.25892	45218.183	46.28	9685.102
1230.0	0.9229	0.0770982	7.27772	7.54006	-4.38344	23.45835	34.16507	1.43363	0.69753	64.01734	107.61621	23.44597	0.36521	9.71605	71347.34996	0.75509	1.02828E-4	1399.27199	44990.158	45.605	9718.327
1225.0	0.92672	0.0732789	7.28128	7.53648	-4.42882	23.41306	34.10562	1.43135	0.69864	65.28987	107.8931	23.92591	0.36442	9.79373	77808.35347	0.74661	9.39757E-5	1397.34584	44765.255	44.9806	9748.843
1220.0	0.9303	0.0697037	7.28478	7.53296	-4.47357	23.36941	34.04563	1.42909	0.69975	66.52428	108.17185	24.39181	0.36366	9.8726	84801.57864	0.73817	8.59382E-5	1395.47966	44543.248	44.4014	9776.871
1215.08	0.93436	0.0656412	7.28849	7.52932	-4.51966	23.31952	33.98525	1.42692	0.70081	67.94579	108.44431	24.92826	0.36283	9.95112	92552.00245	0.72994	7.84823E-5	1393.69987	44318.832	 	9810.916
1215.0	0.93454	0.0654554	7.28857	7.52925	-4.52061	23.3181	33.98439	1.42687	0.70083	67.99752	108.44923	24.94788	0.36279	9.95371	92734.55342	0.72971	7.83235E-5	1393.64809	44313.246	46.0004	9813.302
1210.0	0.9446	0.0554048	7.29322	7.52429	-4.58352	23.21572	33.9299	1.42436	0.70207	70.99794	108.74097	26.08624	0.36083	10.08491	103972.6288	0.71779	6.9623E-5	1390.87495	43992.177	64.2138	9941.205
1205.0	0.95253	0.0474671	7.29748	7.51974	-4.64121	23.1292	33.87144	1.42201	0.70323	73.68673	109.03385	27.10583	0.35924	10.20691	115538.152	0.70682	6.24424E-5	1388.5607	43701.065	58.2224	10039.555
1200.0	0.95894	0.0410615	7.30146	7.51547	-4.69529	23.05359	33.8095	1.4198	0.70433	76.23293	109.32793	28.06977	0.35792	10.31874	127592.9857	0.6968	5.63517E-5	1386.6328	43431.591	53.8948	10116.668
1197.88	0.96127	0.038727	7.30308	7.51373	-4.71739	23.02388	33.78236	1.4189	0.70477	77.28667	109.45252	28.46816	0.35742	10.36248	132867.3056	0.69286	5.4037E-5	1385.92093	43322.835	 	10144.169
1195.0	0.9669	0.0331027	7.306	7.51076	-4.7551	22.95877	33.72898	1.41836	0.70504	79.66668	109.59666	29.36687	0.3564	10.48181	141705.9475	0.68363	5.05672E-5	1386.16296	43133.475	59.6232	10222.821
1190.0	0.97412	0.0258771	7.31062	7.50607	-4.81456	22.86429	33.64809	1.41692	0.70575	83.46285	109.8642	30.79727	0.35504	10.69263	156923.5246	0.66787	4.5508E-5	1386.59418	42842.588	58.1774	10322.142
1185.0	0.97923	0.0207677	7.31486	7.50178	-4.86892	22.78563	33.57257	1.41526	0.70659	86.62337	110.14545	31.98791	0.354	10.90837	172420.1333	0.65242	4.12763E-5	1387.04355	42583.14	51.8896	10390.419
1180.0	0.98302	0.0169823	7.31885	7.49775	-4.91998	22.71707	33.49918	1.41349	0.70747	89.1628	110.43474	32.94575	0.35318	11.12873	188565.3706	0.63731	3.76128E-5	1387.5117	42343.488	47.9304	10439.293
1175.0	0.98592	0.0140763	7.32268	7.49391	-4.96877	22.65539	33.42752	1.41165	0.70839	91.20734	110.7288	33.71835	0.35249	11.35353	205626.1742	0.62254	3.43733E-5	1387.99901	42117.076	45.2824	10475.318
1170.0	0.98822	0.0117808	7.32639	7.49019	-5.01588	22.59871	33.35715	1.40974	0.70935	92.88707	111.02572	34.35437	0.3519	11.58303	223818.6737	0.6081	3.14704E-5	1388.50435	41899.951	43.425	10502.443
1165.0	0.99008	0.00992481	7.33	7.48658	-5.06172	22.54579	33.28767	1.40779	0.71033	94.30653	111.32436	34.89285	0.35137	11.81742	243337.013	0.59398	2.88458E-5	1389.02678	41689.601	42.07	10523.181
1160.0	0.9916	0.00839555	7.33354	7.48304	-5.10653	22.49579	33.21895	1.4058	0.71134	95.54092	111.6239	35.36191	0.3509	12.05597	264366.2563	0.5802	2.64589E-5	1389.56603	41484.355	41.0492	10539.195
1155.0	0.99288	0.00711525	7.33701	7.47957	-5.15054	22.44804	33.15077	1.40378	0.71236	96.64541	111.92381	35.78217	0.35047	12.29846	287094.504	0.56677	2.42793E-5	1390.12221	41283.067	40.2576	10551.638
1150.0	0.99397	0.00602691	7.34044	7.47616	-5.19384	22.40226	33.08304	1.40173	0.71341	97.65835	112.22374	36.16797	0.35007	12.54652	311716.3101	0.55362	2.22832E-5	1390.69192	41084.92	39.6294	10561.321
1145.0	0.99491	0.00509215	7.34382	7.47279	-5.23655	22.35806	33.01607	1.39963	0.71447	98.60783	112.52342	36.52985	0.34969	12.79887	338438.2888	0.5408	2.04517E-5	1391.27617	40889.321	39.1198	10568.834
1140.0	0.99572	0.00428092	7.34716	7.46946	-5.27874	22.31523	32.94904	1.39754	0.71554	99.51365	112.82264	36.87521	0.34933	13.05552	367482.7014	0.5283	1.87689E-5	1391.87384	40695.829	38.6984	10574.617
1135.0	0.99643	0.00356934	7.35047	7.46617	-5.32045	22.27362	32.88233	1.39542	0.71663	100.51885	113.13682	37.25716	0.34899	13.31782	399092.0047	0.51606	1.72212E-5	1392.48244	40504.108	38.3442	10579.004
1130.0	0.99706	0.00294082	7.35375	7.46292	-5.36177	22.233	32.80107	1.39391	0.71741	101.33325	113.43508	37.56819	0.34866	13.58469	433530.1337	0.50413	1.57969E-5	1393.10364	40313.9	38.0416	10582.251
1125.0	0.99762	0.00238187	7.357	7.45969	-5.40272	22.19326	32.73565	1.39172	0.71854	102.13683	113.73251	37.87507	0.34834	13.85682	471088.3076	0.49247	1.44857E-5	1393.73558	40125.003	37.7794	10584.559
1120.0	0.99812	0.00188106	7.36023	7.45649	-5.4433	22.15445	32.67077	1.38949	0.71969	102.92063	114.02904	38.17448	0.34803	14.13443	512081.2455	0.48107	1.32784E-5	1394.37676	39937.255	37.5496	10586.087
1115.0	0.99857	0.00143011	7.36343	7.45331	-5.48359	22.11631	32.60632	1.38724	0.72085	103.67718	114.32465	38.46369	0.34773	14.41771	556865.4237	0.46992	1.21667E-5	1395.02664	39750.528	37.3454	10586.962
1110.0	0.99898	0.00102174	7.36662	7.45016	-5.52358	22.07884	32.54228	1.38497	0.72204	104.39726	114.61927	38.73931	0.34743	14.70596	605828.5987	0.45905	1.11431E-5	1395.68709	39564.715	37.1626	10587.288
1105.0	0.99935	6.50758E-4	7.36978	7.44702	-5.56329	22.04201	32.4785	1.38267	0.72324	105.07561	114.91288	38.99939	0.34714	15.00019	659399.9093	0.44842	1.02008E-5	1396.35464	39379.732	36.9966	10587.149
1100.0	0.99969	3.11252E-4	7.37292	7.44391	-5.60274	22.00575	32.41483	1.38036	0.72445	105.71319	115.20545	39.24428	0.34686	15.30051	718057.148	0.43802	9.33352E-6	1397.02951	39195.505	36.8454	10586.616
1095.0	1.0	0.0	7.37605	7.44082	-5.64195	21.96998	32.35104	1.37804	0.72567	106.31597	115.49697	39.47624	0.34658	 	782331.6953	 	8.53551E-6	 	39011.977	36.7056	10585.745
1090.0	1.0	0.0	7.37868	7.43817	-5.67558	21.95371	32.28378	1.37587	0.72681	106.73656	115.78688	39.63892	0.34636	 	851881.5292	 	7.81E-6	 	38823.55	37.6854	 
1085.0	1.0	0.0	7.3813	7.43552	-5.70916	21.93746	32.21648	1.37369	0.72797	107.15681	116.07558	39.80153	0.34614	 	928197.5568	 	7.14158E-6	 	38645.3	35.65	 
1080.0	1.0	0.0	7.38393	7.43288	-5.74269	21.92123	32.14916	1.37149	0.72913	107.57672	116.36309	39.96407	0.34592	 	1011993.231	 	6.52612E-6	 	38467.326	35.5948	 
1075.0	1.0	0.0	7.38655	7.43024	-5.77618	21.90502	32.08181	1.3693	0.7303	107.99628	116.6494	40.12653	0.3457	 	1104062.937	 	5.95979E-6	 	38289.617	35.5418	 
1070.0	1.0	0.0	7.38918	7.4276	-5.80961	21.88884	32.01443	1.36709	0.73148	108.4155	116.93453	40.28892	0.34548	 	1205291.814	 	5.439E-6	 	38112.165	35.4904	 
1065.0	1.0	0.0	7.3918	7.42497	-5.84299	21.87268	31.94702	1.36487	0.73267	108.83438	117.21847	40.45123	0.34525	 	1316666.836	 	4.96039E-6	 	37934.972	35.4386	 
1060.0	1.0	0.0	7.39441	7.42234	-5.87633	21.85654	31.87957	1.36265	0.73386	109.25292	117.50122	40.61347	0.34503	 	1439289.343	 	4.52082E-6	 	37758.041	35.3862	 
1055.0	1.0	0.0	7.39703	7.41971	-5.90962	21.84042	31.8121	1.36042	0.73507	109.6711	117.78281	40.77564	0.34481	 	1574389.204	 	4.11739E-6	 	37581.371	35.334	 
1050.0	1.0	0.0	7.39964	7.41709	-5.94285	21.82433	31.7446	1.35818	0.73628	110.08895	118.06322	40.93773	0.34459	 	1723340.853	 	3.74735E-6	 	37404.966	35.281	 
1045.0	1.0	0.0	7.40225	7.41448	-5.97604	21.80826	31.67707	1.35593	0.7375	110.50645	118.34246	41.09974	0.34437	 	1887681.448	 	3.40818E-6	 	37228.825	35.2282	 
1040.0	1.0	0.0	7.40486	7.41186	-6.00918	21.79221	31.60951	1.35367	0.73873	110.9236	118.62054	41.26168	0.34415	 	2069131.458	 	3.09751E-6	 	37052.948	35.1754	 
1035.0	1.0	0.0	7.40747	7.40925	-6.04228	21.77618	31.54192	1.35141	0.73997	111.3404	118.89746	41.42354	0.34393	 	2269618.021	 	2.81314E-6	 	36877.335	35.1226	 
1030.0	1.0	0.0	7.41008	7.40665	-6.07532	21.76018	31.4743	1.34914	0.74121	111.75686	119.17323	41.58533	0.34371	 	2491301.463	 	2.55302E-6	 	36701.984	35.0702	 
1025.0	1.0	0.0	7.41268	7.40404	-6.10831	21.7442	31.40665	1.34686	0.74247	112.17297	119.44784	41.74704	0.34348	 	2736605.445	 	2.31526E-6	 	36526.896	35.0176	 
1020.0	1.0	0.0	7.41529	7.40145	-6.14126	21.72824	31.33897	1.34457	0.74373	112.58873	119.72131	41.90868	0.34326	 	3008251.238	 	2.09808E-6	 	36352.07	34.9652	 
1015.0	1.0	0.0	7.41789	7.39885	-6.17416	21.71231	31.27126	1.34227	0.74501	113.00413	119.99364	42.07023	0.34304	 	3309296.757	 	1.89984E-6	 	36177.506	34.9128	 
1010.0	1.0	0.0	7.42048	7.39626	-6.20701	21.69639	31.20352	1.33996	0.74629	113.41919	120.26483	42.23171	0.34282	 	3643181.025	 	1.71903E-6	 	36003.202	34.8608	 
1005.0	1.0	0.0	7.42308	7.39367	-6.23982	21.6805	31.13575	1.33764	0.74758	113.8339	120.53488	42.39311	0.3426	 	4013774.881	 	1.55423E-6	 	35829.159	34.8086	 
1000.0	1.0	0.0	7.42567	7.39109	-6.27257	21.66463	31.06795	1.33532	0.74889	114.24825	120.80381	42.55444	0.34238	 	4425438.867	 	1.40414E-6	 	35655.376	34.7566	 
995.0	1.0	0.0	7.42827	7.38851	-6.30528	21.64879	31.00012	1.33298	0.7502	114.66225	121.07161	42.71568	0.34216	 	4883089.349	 	1.26754E-6	 	35481.852	34.7048	 
990.0	1.0	0.0	7.43086	7.38594	-6.33794	21.63296	30.93226	1.33064	0.75152	115.0759	121.33829	42.87685	0.34194	 	5392274.129	 	1.14332E-6	 	35308.588	34.6528	 
985.0	1.0	0.0	7.43344	7.38337	-6.37055	21.61716	30.86437	1.32829	0.75285	115.4892	121.60385	43.03794	0.34171	 	5959258.985	 	1.03045E-6	 	35135.582	34.6012	 
980.0	1.0	0.0	7.43603	7.3808	-6.40312	21.60139	30.79644	1.32593	0.75419	115.90213	121.86829	43.19895	0.34149	 	6591126.809	 	9.27962E-7	 	34962.834	34.5496	 
975.0	1.0	0.0	7.43862	7.37823	-6.43563	21.58563	30.72849	1.32356	0.75554	116.31472	122.13163	43.35987	0.34127	 	7295891.286	 	8.34978E-7	 	34790.344	34.498	 
970.0	1.0	0.0	7.4412	7.37567	-6.4681	21.5699	30.66051	1.32118	0.7569	116.72694	122.39386	43.52072	0.34105	 	8082627.369	 	7.50685E-7	 	34618.11	34.4468	 
965.0	1.0	0.0	7.44378	7.37312	-6.50053	21.55419	30.59249	1.31879	0.75827	117.13881	122.65498	43.68149	0.34083	 	8961621.174	 	6.74331E-7	 	34446.134	34.3952	 
960.0	1.0	0.0	7.44636	7.37056	-6.5329	21.5385	30.52445	1.31639	0.75965	117.55033	122.91501	43.84218	0.34061	 	9944542.36	 	6.05226E-7	 	34274.413	34.3442	 
955.0	1.0	0.0	7.44893	7.36801	-6.56523	21.52283	30.45638	1.31399	0.76104	117.96148	123.17395	44.00279	0.34039	 	1.104464255E7	 	5.42733E-7	 	34102.948	34.293	 
950.0	1.0	0.0	7.45151	7.36547	-6.59751	21.50719	30.38827	1.31157	0.76245	118.37227	123.43179	44.16332	0.34017	 	1.227698397E7	 	4.86267E-7	 	33931.738	34.242	 
945.0	1.0	0.0	7.45408	7.36293	-6.62975	21.49157	30.32013	1.30914	0.76386	118.78271	123.68854	44.32376	0.33994	 	1.365870315E7	 	4.35289E-7	 	33760.783	34.191	 
940.0	1.0	0.0	7.45665	7.36039	-6.66194	21.47597	30.25197	1.30671	0.76528	119.19278	123.94422	44.48413	0.33972	 	1.520931543E7	 	3.89306E-7	 	33590.081	34.1404	 
935.0	1.0	0.0	7.45922	7.35785	-6.69408	21.4604	30.18377	1.30426	0.76672	119.60249	124.19881	44.64441	0.3395	 	1.69510668E7	 	3.47865E-7	 	33419.634	34.0894	 
930.0	1.0	0.0	7.46179	7.35532	-6.72618	21.44484	30.11554	1.30181	0.76816	120.01184	124.45232	44.80461	0.33928	 	1.890934114E7	 	3.10549E-7	 	33249.439	34.039	 
925.0	1.0	0.0	7.46435	7.35279	-6.75822	21.42931	30.04728	1.29934	0.76962	120.42083	124.70477	44.96473	0.33906	 	2.111313168E7	 	2.76978E-7	 	33079.497	33.9884	 
920.0	1.0	0.0	7.46691	7.35027	-6.79023	21.41381	29.97899	1.29687	0.77109	120.82945	124.95614	45.12476	0.33884	 	2.359558784E7	 	2.46803E-7	 	32909.806	33.9382	 
915.0	1.0	0.0	7.46947	7.34775	-6.82218	21.39832	29.91067	1.29438	0.77257	121.23771	125.20645	45.28471	0.33862	 	2.639464972E7	 	2.19706E-7	 	32740.368	33.8876	 
910.0	1.0	0.0	7.47203	7.34523	-6.85409	21.38286	29.84231	1.29189	0.77406	121.6456	125.4557	45.44458	0.3384	 	2.955378557E7	 	1.95395E-7	 	32571.18	33.8376	 
905.0	1.0	0.0	7.47459	7.34272	-6.88596	21.36742	29.77393	1.28938	0.77556	122.05313	125.70389	45.60437	0.33817	 	3.312284946E7	 	1.73604E-7	 	32402.243	33.7874	 
900.0	1.0	0.0	7.47715	7.34021	-6.91777	21.352	29.70551	1.28687	0.77708	122.46029	125.95102	45.76407	0.33795	 	3.71590802E7	 	1.5409E-7	 	32233.555	33.7376	 
895.0	1.0	0.0	7.4797	7.33771	-6.94955	21.33661	29.63707	1.28434	0.77861	122.86708	126.19711	45.92368	0.33773	 	4.172826584E7	 	1.36633E-7	 	32065.117	33.6876	 
890.0	1.0	0.0	7.48225	7.33521	-6.98127	21.32123	29.56859	1.28181	0.78015	123.27351	126.44215	46.08321	0.33751	 	4.690610298E7	 	1.2103E-7	 	31896.928	33.6378	 
885.0	1.0	0.0	7.4848	7.33271	-7.01295	21.30588	29.50008	1.27926	0.7817	123.67956	126.68614	46.24265	0.33729	 	5.277978506E7	 	1.07099E-7	 	31728.988	33.588	 
880.0	1.0	0.0	7.48735	7.33021	-7.04459	21.29056	29.43154	1.27671	0.78327	124.08525	126.92909	46.40201	0.33707	 	5.944986066E7	 	9.4672E-8	 	31561.295	33.5386	 
875.0	1.0	0.0	7.48989	7.32772	-7.07618	21.27525	29.36296	1.27414	0.78484	124.49056	127.17101	46.56129	0.33685	 	6.70324101E7	 	8.35989E-8	 	31393.849	33.4892	 
870.0	1.0	0.0	7.49243	7.32523	-7.10772	21.25997	29.29436	1.27156	0.78644	124.89551	127.41189	46.72047	0.33662	 	7.566159793E7	 	7.37419E-8	 	31226.65	33.4398	 
865.0	1.0	0.0	7.49498	7.32275	-7.13922	21.24471	29.22572	1.26897	0.78804	125.30008	127.65174	46.87958	0.3364	 	8.549267004E7	 	6.49767E-8	 	31059.698	33.3904	 
860.0	1.0	0.0	7.49752	7.32027	-7.17067	21.22947	29.15706	1.26637	0.78966	125.70428	127.89057	47.03859	0.33618	 	9.670547699E7	 	5.71904E-8	 	30892.991	33.3414	 
855.0	1.0	0.0	7.50005	7.31779	-7.20208	21.21426	29.08836	1.26376	0.79129	126.10811	128.12837	47.19752	0.33596	 	1.095086213E8	 	5.02812E-8	 	30726.529	33.2924	 
850.0	1.0	0.0	7.50259	7.31532	-7.23344	21.19906	29.01962	1.26114	0.79293	126.51156	128.36515	47.35636	0.33574	 	1.241443449E8	 	4.41568E-8	 	30560.311	33.2436	 
845.0	1.0	0.0	7.50512	7.31285	-7.26476	21.18389	28.95086	1.25851	0.79459	126.91463	128.60092	47.51511	0.33552	 	1.408942976E8	 	3.87341E-8	 	30394.338	33.1946	 
840.0	1.0	0.0	7.50765	7.31038	-7.29603	21.16875	28.88206	1.25587	0.79626	127.31733	128.83567	47.67377	0.3353	 	1.600863514E8	 	3.3938E-8	 	30228.608	33.146	 
835.0	1.0	0.0	7.51018	7.30792	-7.32726	21.15362	28.81324	1.25321	0.79795	127.71966	129.06941	47.83234	0.33508	 	1.821026649E8	 	2.97009E-8	 	30063.12	33.0976	 
830.0	1.0	0.0	7.51271	7.30546	-7.35844	21.13852	28.74438	1.25055	0.79965	128.1216	129.30215	47.99083	0.33486	 	2.073892355E8	 	2.59618E-8	 	29897.875	33.049	 
825.0	1.0	0.0	7.51524	7.30301	-7.38958	21.12344	28.67548	1.24787	0.80137	128.52317	129.53388	48.14923	0.33463	 	2.364672326E8	 	2.26661E-8	 	29732.872	33.0006	 
820.0	1.0	0.0	7.51776	7.30056	-7.42067	21.10838	28.60656	1.24518	0.8031	128.92436	129.76462	48.30753	0.33441	 	2.699464601E8	 	1.97646E-8	 	29568.11	32.9524	 
815.0	1.0	0.0	7.52028	7.29811	-7.45172	21.09335	28.5376	1.24248	0.80484	129.32517	129.99435	48.46575	0.33419	 	3.085413713E8	 	1.72132E-8	 	29403.588	32.9044	 
810.0	1.0	0.0	7.5228	7.29566	-7.48272	21.07834	28.46861	1.23977	0.8066	129.7256	130.22309	48.62388	0.33397	 	3.530901465E8	 	1.49723E-8	 	29239.306	32.8564	 
805.0	1.0	0.0	7.52532	7.29322	-7.51368	21.06335	28.39959	1.23704	0.80838	130.12565	130.45085	48.78192	0.33375	 	4.045774512E8	 	1.30066E-8	 	29075.264	32.8084	 
800.0	1.0	0.0	7.52784	7.29078	-7.5446	21.04838	28.33053	1.23431	0.81017	130.52531	130.67761	48.93986	0.33353	 	4.641616248E8	 	1.12844E-8	 	28911.46	32.7608	 
795.0	1.0	0.0	7.53035	7.28835	-7.57547	21.03344	28.26144	1.23156	0.81198	130.9246	130.90339	49.09772	0.33331	 	5.332072076E8	 	9.77739E-9	 	28747.894	32.7132	 
790.0	1.0	0.0	7.53287	7.28592	-7.6063	21.01851	28.19232	1.2288	0.8138	131.3235	131.12819	49.25548	0.33309	 	6.133239147E8	 	8.46041E-9	 	28584.565	32.6658	 
785.0	1.0	0.0	7.53538	7.28349	-7.63708	21.00361	28.12317	1.22603	0.81564	131.72201	131.35201	49.41315	0.33286	 	7.064134015E8	 	7.31097E-9	 	28421.474	32.6182	 
780.0	1.0	0.0	7.53788	7.28107	-7.66782	20.98874	28.05398	1.22325	0.8175	132.12014	131.57486	49.57073	0.33264	 	8.147254655E8	 	6.30907E-9	 	28258.618	32.5712	 
775.0	1.0	0.0	7.54039	7.27865	-7.69852	20.97388	27.98476	1.22045	0.81937	132.51789	131.79674	49.72822	0.33242	 	9.409256912E8	 	5.43694E-9	 	28095.998	32.524	 
770.0	1.0	0.0	7.5429	7.27623	-7.72917	20.95905	27.9155	1.21764	0.82126	132.91525	132.01765	49.88562	0.3322	 	1.088176995E9	 	4.67879E-9	 	27933.613	32.477	 
765.0	1.0	0.0	7.5454	7.27381	-7.75978	20.94424	27.84622	1.21482	0.82317	133.31222	132.23759	50.04292	0.33198	 	1.260238083E9	 	4.02063E-9	 	27771.462	32.4302	 
760.0	1.0	0.0	7.5479	7.2714	-7.79034	20.92946	27.7769	1.21199	0.82509	133.7088	132.45657	50.20012	0.33176	 	1.461582515E9	 	3.45006E-9	 	27609.544	32.3836	 
755.0	1.0	0.0	7.5504	7.269	-7.82086	20.91469	27.70754	1.20914	0.82703	134.105	132.67459	50.35724	0.33154	 	1.69754293E9	 	2.95612E-9	 	27447.859	32.337	 
750.0	1.0	0.0	7.5529	7.26659	-7.85134	20.89995	27.63815	1.20628	0.829	134.5008	132.89165	50.51426	0.33132	 	1.974486022E9	 	2.52913E-9	 	27286.406	32.2906	 
745.0	1.0	0.0	7.55539	7.26419	-7.88177	20.88523	27.56873	1.20341	0.83097	134.89622	133.10777	50.67119	0.33109	 	2.300025202E9	 	2.16056E-9	 	27125.184	32.2444	 
740.0	1.0	0.0	7.55789	7.2618	-7.91217	20.87053	27.49927	1.20052	0.83297	135.29124	133.32293	50.82802	0.33087	 	2.68327947E9	 	1.84287E-9	 	26964.193	32.1982	 
735.0	1.0	0.0	7.56038	7.2594	-7.94251	20.85586	27.42978	1.19762	0.83499	135.68588	133.53714	50.98475	0.33065	 	3.135189097E9	 	1.56945E-9	 	26803.431	32.1524	 
730.0	1.0	0.0	7.56287	7.25701	-7.97282	20.84121	27.36026	1.19471	0.83702	136.08012	133.75041	51.14139	0.33043	 	3.668901255E9	 	1.33449E-9	 	26642.899	32.1064	 
725.0	1.0	0.0	7.56535	7.25463	-8.00308	20.82658	27.2907	1.19179	0.83908	136.47397	133.96274	51.29794	0.33021	 	4.300241911E9	 	1.13289E-9	 	26482.595	32.0608	 
720.0	1.0	0.0	7.56784	7.25225	-8.0333	20.81197	27.22111	1.18885	0.84115	136.86742	134.17413	51.45439	0.32999	 	5.04829433E9	 	9.60189E-10	 	26322.518	32.0154	 
715.0	1.0	0.0	7.57032	7.24987	-8.06348	20.79739	27.15148	1.1859	0.84324	137.26048	134.38459	51.61074	0.32977	 	5.936109546E9	 	8.12471E-10	 	26162.667	31.9702	 
710.0	1.0	0.0	7.57281	7.24749	-8.09361	20.78283	27.08182	1.18293	0.84536	137.65314	134.59411	51.767	0.32955	 	6.991580514E9	 	6.86327E-10	 	26003.043	31.9248	 
705.0	1.0	0.0	7.57529	7.24512	-8.12371	20.76829	27.01212	1.17995	0.84749	138.04541	134.80271	51.92316	0.32932	 	8.248519677E9	 	5.78784E-10	 	25843.643	31.88	 
700.0	1.0	0.0	7.57777	7.24275	-8.15376	20.75377	26.94239	1.17696	0.84965	138.43728	135.01037	52.07922	0.3291	 	9.74798977E9	 	4.8725E-10	 	25684.467	31.8352	 
695.0	1.0	0.0	7.58024	7.24038	-8.18376	20.73928	26.87262	1.17395	0.85182	138.82875	135.21712	52.23518	0.32888	 	1.154E10	 	4.09473E-10	 	25525.513	31.7908	 
690.0	1.0	0.0	7.58272	7.23802	-8.21373	20.72481	26.80282	1.17093	0.85402	139.21983	135.42294	52.39105	0.32866	 	1.3685299999999998E10	 	3.435E-10	 	25366.782	31.7462	 
685.0	1.0	0.0	7.58519	7.23566	-8.24365	20.71036	26.73299	1.16789	0.85624	139.6105	135.62784	52.54682	0.32844	 	1.6258399999999998E10	 	2.87635E-10	 	25208.272	31.702	 
680.0	1.0	0.0	7.58766	7.2333	-8.27353	20.69593	26.66311	1.16484	0.85848	140.00078	135.83183	52.70248	0.32822	 	1.93503E10	 	2.40414E-10	 	25049.981	31.6582	 
675.0	1.0	0.0	7.59013	7.23095	-8.30337	20.68153	26.5932	1.16178	0.86075	140.39065	136.03491	52.85805	0.328	 	2.30725E10	 	2.00571E-10	 	24891.91	31.6142	 
670.0	1.0	0.0	7.5926	7.2286	-8.33316	20.66715	26.52326	1.1587	0.86304	140.78013	136.23708	53.01353	0.32778	 	2.7562099999999996E10	 	1.67015E-10	 	24734.055	31.571	 
665.0	1.0	0.0	7.59506	7.22625	-8.36292	20.65279	26.45328	1.15561	0.86535	141.1692	136.43834	53.1689	0.32755	 	3.2987899999999996E10	 	1.38805E-10	 	24576.418	31.5274	 
660.0	1.0	0.0	7.59753	7.22391	-8.39263	20.63845	26.38326	1.1525	0.86768	141.55787	136.63869	53.32417	0.32733	 	3.95579E10	 	1.15134E-10	 	24418.995	31.4846	 
655.0	1.0	0.0	7.59999	7.22157	-8.4223	20.62414	26.31321	1.14938	0.87004	141.94613	136.83815	53.47934	0.32711	 	4.752939999999999E10	 	9.53109E-11	 	24261.787	31.4416	 
650.0	1.0	0.0	7.60245	7.21923	-8.45193	20.60985	26.24312	1.14624	0.87242	142.33399	137.03671	53.63441	0.32689	 	5.722099999999999E10	 	7.87414E-11	 	24104.79	31.3994	 
645.0	1.0	0.0	7.6049	7.2169	-8.48152	20.59558	26.173	1.14308	0.87483	142.72145	137.23437	53.78938	0.32667	 	6.90283E10	 	6.49192E-11	 	23948.005	31.357	 
640.0	1.0	0.0	7.60736	7.21457	-8.51107	20.58133	26.10284	1.13991	0.87726	143.1085	137.43114	53.94425	0.32645	 	8.34433E10	 	5.34118E-11	 	23791.43	31.315	 
635.0	1.0	0.0	7.60981	7.21224	-8.54057	20.56711	26.03264	1.13673	0.87972	143.49515	137.62702	54.09901	0.32623	 	1.0108E11	 	4.38511E-11	 	23635.062	31.2736	 
630.0	1.0	0.0	7.61227	7.20992	-8.57004	20.55291	25.9624	1.13353	0.8822	143.88138	137.82201	54.25368	0.32601	 	1.22704E11	 	3.59243E-11	 	23478.901	31.2322	 
625.0	1.0	0.0	7.61472	7.2076	-8.59946	20.53873	25.89213	1.13031	0.88471	144.26721	138.01611	54.40824	0.32578	 	1.49276E11	 	2.9366E-11	 	23322.944	31.1914	 
620.0	1.0	0.0	7.61717	7.20528	-8.62884	20.52457	25.82182	1.12708	0.88725	144.65263	138.20934	54.5627	0.32556	 	1.82002E11	 	2.39516E-11	 	23167.189	31.151	 
615.0	1.0	0.0	7.61961	7.20297	-8.65818	20.51044	25.75147	1.12383	0.88981	145.03765	138.40168	54.71706	0.32534	 	2.22399E11	 	1.94913E-11	 	23011.635	31.1108	 
610.0	1.0	0.0	7.62206	7.20066	-8.68748	20.49633	25.68109	1.12057	0.8924	145.42225	138.59315	54.87131	0.32512	 	2.72379E11	 	1.58251E-11	 	22856.278	31.0714	 
605.0	1.0	0.0	7.6245	7.19835	-8.71674	20.48224	25.61067	1.11729	0.89502	145.80644	138.78374	55.02546	0.3249	 	3.34364E11	 	1.28185E-11	 	22701.118	31.032	 
600.0	1.0	0.0	7.62694	7.19605	-8.74596	20.46818	25.5402	1.11399	0.89767	146.19022	138.97346	55.17951	0.32468	 	4.1142E11	 	1.03584E-11	 	22546.151	30.9934	 
595.0	1.0	0.0	7.62938	7.19375	-8.77514	20.45413	25.4697	1.11068	0.90035	146.57359	139.16231	55.33345	0.32446	 	5.07444E11	 	8.35013E-12	 	22391.373	30.9556	 
590.0	1.0	0.0	7.63182	7.19145	-8.80428	20.44011	25.39917	1.10735	0.90306	146.95654	139.3503	55.48729	0.32424	 	6.27405E11	 	6.71468E-12	 	22236.784	30.9178	 
585.0	1.0	0.0	7.63426	7.18915	-8.83338	20.42611	25.32859	1.104	0.9058	147.33908	139.53742	55.64102	0.32401	 	7.77646E11	 	5.38602E-12	 	22082.378	30.8812	 
580.0	1.0	0.0	7.63669	7.18686	-8.86243	20.41214	25.25797	1.10064	0.90856	147.72121	139.72369	55.79465	0.32379	 	9.66294E11	 	4.30926E-12	 	21928.152	30.8452	 
575.0	1.0	0.0	7.63912	7.18457	-8.89145	20.39818	25.18732	1.09726	0.91136	148.10292	139.90909	55.94817	0.32357	 	1.20379E12	 	3.43883E-12	 	21774.103	30.8098	 
570.0	1.0	0.0	7.64155	7.18229	-8.92043	20.38425	25.11662	1.09386	0.91419	148.48422	140.09363	56.10159	0.32335	 	1.50356E12	 	2.73697E-12	 	21620.225	30.7756	 
565.0	1.0	0.0	7.64398	7.18001	-8.94936	20.37035	25.04589	1.09044	0.91706	148.8651	140.27733	56.2549	0.32313	 	1.88298E12	 	2.17251E-12	 	21466.514	30.7422	 
560.0	1.0	0.0	7.64641	7.17773	-8.97826	20.35646	24.97512	1.08701	0.91996	149.24556	140.46017	56.40811	0.32291	 	2.36453E12	 	1.71975E-12	 	21312.965	30.7098	 
555.0	1.0	0.0	7.64883	7.17545	-9.00712	20.3426	24.9043	1.08356	0.92289	149.62561	140.64216	56.5612	0.32269	 	2.9774E12	 	1.35756E-12	 	21159.571	30.6788	 
550.0	1.0	0.0	7.65126	7.17318	-9.03593	20.32876	24.83345	1.08009	0.92585	150.00523	140.82331	56.7142	0.32247	 	3.75965E12	 	1.06861E-12	 	21006.327	30.6488	 
545.0	1.0	0.0	7.65368	7.17091	-9.06471	20.31494	24.76255	1.0766	0.92885	150.38444	141.00362	56.86708	0.32225	 	4.76097E12	 	8.38733E-13	 	20853.223	30.6208	 
540.0	1.0	0.0	7.6561	7.16865	-9.09345	20.30114	24.69162	1.0731	0.93188	150.76323	141.18308	57.01985	0.32202	 	6.04652E12	 	6.56374E-13	 	20700.252	30.5942	 
535.0	1.0	0.0	7.65851	7.16638	-9.12215	20.28737	24.62064	1.06957	0.93495	151.1416	141.36171	57.17252	0.3218	 	7.70195E12	 	5.12127E-13	 	20547.405	30.5694	 
530.0	1.0	0.0	7.66093	7.16412	-9.1508	20.27362	24.54962	1.06603	0.93806	151.51954	141.5395	57.32508	0.32158	 	9.84021E12	 	3.98363E-13	 	20394.671	30.5468	 
525.0	1.0	0.0	7.66334	7.16187	-9.17942	20.25989	24.47856	1.06247	0.9412	151.89707	141.71645	57.47753	0.32136	 	1.26108E13	 	3.08908E-13	 	20241.561	30.622	 
520.0	1.0	0.0	7.66576	7.15961	-9.208	20.24619	24.40746	1.05889	0.94439	152.27417	141.89258	57.62987	0.32114	 	1.62121E13	 	2.38783E-13	 	20088.32	30.6482	 
515.0	1.0	0.0	7.66817	7.15736	-9.23654	20.2325	24.33631	1.05529	0.94761	152.65085	142.06787	57.78211	0.32092	 	2.09083E13	 	1.83982E-13	 	19935.418	30.5804	 
510.0	1.0	0.0	7.67058	7.15511	-9.26505	20.21884	24.26512	1.05167	0.95087	153.0271	142.24234	57.93423	0.3207	 	2.70527E13	 	1.41293E-13	 	19782.849	30.5138	 
505.0	1.0	0.0	7.67298	7.15287	-9.29351	20.20521	24.19389	1.04803	0.95417	153.40293	142.41599	58.08624	0.32048	 	3.5119E13	 	1.08145E-13	 	19630.608	30.4482	 
500.0	1.0	0.0	7.67539	7.15063	-9.32193	20.19159	24.12262	1.04438	0.95751	153.77833	142.58882	58.23815	0.32025	 	4.57444E13	 	8.24921E-14	 	19478.691	30.3834	 
495.0	1.0	0.0	7.67779	7.14839	-9.35032	20.178	24.0513	1.0407	0.96089	154.15331	142.76082	58.38994	0.32003	 	5.97902E13	 	6.27051E-14	 	19327.093	30.3196	 
490.0	1.0	0.0	7.68019	7.14615	-9.37866	20.16443	23.97994	1.037	0.96432	154.52786	142.93201	58.54162	0.31981	 	7.84234E13	 	4.74953E-14	 	19175.81	30.2566	 
485.0	1.0	0.0	7.68259	7.14392	-9.40697	20.15088	23.90854	1.03328	0.96779	154.90199	143.10239	58.69319	0.31959	 	1.03232E14	 	3.58448E-14	 	19024.839	30.1942	 
480.0	1.0	0.0	7.68499	7.14169	-9.43524	20.13736	23.83709	1.02955	0.9713	155.27568	143.27195	58.84465	0.31937	 	1.3638599999999998E14	 	2.69524E-14	 	18874.175	30.1328	 
475.0	1.0	0.0	7.68739	7.13947	-9.46347	20.12385	23.76559	1.02579	0.97486	155.64895	143.44071	58.996	0.31915	 	1.80861E14	 	2.01898E-14	 	18723.815	30.072	 
470.0	1.0	0.0	7.68978	7.13724	-9.49167	20.11037	23.69405	1.02201	0.97846	156.02179	143.60866	59.14724	0.31893	 	2.4075E14	 	1.5066E-14	 	18573.757	30.0116	 
465.0	1.0	0.0	7.69217	7.13502	-9.51982	20.09692	23.62247	1.01821	0.98212	156.3942	143.7758	59.29836	0.31871	 	3.21715E14	 	1.11985E-14	 	18423.996	29.9522	 
460.0	1.0	0.0	7.69457	7.13281	-9.54794	20.08348	23.55084	1.01439	0.98582	156.76618	143.94214	59.44937	0.31848	 	4.31614E14	 	8.29057E-15	 	18274.53	29.8932	 
455.0	1.0	0.0	7.69695	7.13059	-9.57601	20.07007	23.47916	1.01055	0.98956	157.13772	144.10768	59.60027	0.31826	 	5.81395E14	 	6.11274E-15	 	18125.357	29.8346	 
450.0	1.0	0.0	7.69934	7.12838	-9.60405	20.05668	23.40743	1.00668	0.99336	157.50884	144.27243	59.75105	0.31804	 	7.86389E14	 	4.48826E-15	 	17976.474	29.7766	 
445.0	1.0	0.0	7.70173	7.12617	-9.63206	20.04331	23.33566	1.0028	0.99721	157.87952	144.43637	59.90173	0.31782	 	1.06814E15	 	3.2815E-15	 	17827.878	29.7192	 
440.0	1.0	0.0	7.70411	7.12397	-9.66002	20.02997	23.26384	0.99889	1.00111	158.24977	144.59953	60.05228	0.3176	 	1.45709E15	 	2.3888E-15	 	17679.567	29.6622	 
435.0	1.0	0.0	7.70649	7.12176	-9.68795	20.01664	23.19197	0.99496	1.00507	158.61959	144.76189	60.20273	0.31738	 	1.99641E15	 	1.73126E-15	 	17531.539	29.6056	 
430.0	1.0	0.0	7.70887	7.11957	-9.71584	20.00334	23.12006	0.99101	1.00907	158.98897	144.92347	60.35306	0.31716	 	2.74763E15	 	1.24904E-15	 	17383.793	29.5492	 
425.0	1.0	0.0	7.71125	7.11737	-9.74369	19.99007	23.04809	0.98703	1.01314	159.35792	145.08426	60.50327	0.31694	 	3.79886E15	 	8.96979E-16	 	17236.326	29.4934	 
420.0	1.0	0.0	7.71363	7.11518	-9.7715	19.97681	22.97608	0.98304	1.01726	159.72643	145.24427	60.65337	0.31672	 	5.27689E15	 	6.41115E-16	 	17089.136	29.438	 
415.0	1.0	0.0	7.71601	7.11299	-9.79928	19.96358	22.90401	0.97901	1.02143	160.0945	145.40349	60.80335	0.31649	 	7.36508E15	 	4.56029E-16	 	16942.223	29.3826	 
410.0	1.0	0.0	7.71838	7.1108	-9.82702	19.95037	22.83189	0.97497	1.02567	160.46214	145.56194	60.95322	0.31627	 	1.03299E16	 	3.22779E-16	 	16795.584	29.3278	 
405.0	1.0	0.0	7.72075	7.10861	-9.85472	19.93718	22.75973	0.9709	1.02997	160.82934	145.71961	61.10298	0.31605	 	1.45607E16	 	2.27316E-16	 	16649.218	29.2732	 
400.0	1.0	0.0	7.72312	7.10643	-9.88238	19.92402	22.68751	0.96681	1.03433	161.1961	145.8765	61.25261	0.31583	 	2.06293E16	 	1.59263E-16	 	16503.124	29.2188	 
395.0	1.0	0.0	7.72549	7.10425	-9.91001	19.91088	22.61524	0.9627	1.03875	161.56242	146.03263	61.40213	0.31561	 	2.93799E16	 	1.10997E-16	 	16357.3	29.1648	 
390.0	1.0	0.0	7.72786	7.10208	-9.9376	19.89776	22.54291	0.95856	1.04323	161.92831	146.18798	61.55154	0.31539	 	4.20661E16	 	7.69425E-17	 	16211.746	29.1108	 
385.0	1.0	0.0	7.73022	7.0999	-9.96516	19.88466	22.47054	0.9544	1.04778	162.29375	146.34256	61.70082	0.31517	 	6.05596E16	 	5.30431E-17	 	16066.459	29.0574	 
380.0	1.0	0.0	7.73259	7.09773	-9.99267	19.87159	22.3981	0.95021	1.0524	162.65876	146.49638	61.84999	0.31495	 	8.76711E16	 	3.63616E-17	 	15921.44	29.0038	 
375.0	1.0	0.0	7.73495	7.09557	-10.02015	19.85853	22.32562	0.946	1.05709	163.02332	146.64944	61.99904	0.31472	 	1.27647E17	 	2.47829E-17	 	15776.688	28.9504	 
370.0	1.0	0.0	7.73731	7.0934	-10.0476	19.8455	22.25308	0.94176	1.06184	163.38744	146.80173	62.14798	0.3145	 	1.86939E17	 	1.67919E-17	 	15632.201	28.8974	 
365.0	1.0	0.0	7.73966	7.09124	-10.07501	19.8325	22.18048	0.9375	1.06667	163.75112	146.95327	62.2968	0.31428	 	2.75414E17	 	1.1309E-17	 	15487.978	28.8446	 
360.0	1.0	0.0	7.74202	7.08908	-10.10238	19.81951	22.10782	0.93321	1.07157	164.11436	147.10405	62.44549	0.31406	 	4.08255E17	 	7.56941E-18	 	15344.02	28.7916	 
355.0	1.0	0.0	7.74438	7.08693	-10.12971	19.80655	22.03511	0.92889	1.07655	164.47716	147.25407	62.59407	0.31384	 	6.08973E17	 	5.03445E-18	 	15200.325	28.739	 
350.0	1.0	0.0	7.74673	7.08478	-10.15701	19.79361	21.96234	0.92455	1.0816	164.83951	147.40334	62.74253	0.31362	 	9.14222E17	 	3.32681E-18	 	15056.893	28.6864	 
345.0	1.0	0.0	7.74908	7.08263	-10.18427	19.78069	21.88951	0.92019	1.08674	165.20142	147.55187	62.89087	0.3134	 	1.38153E18	 	2.18384E-18	 	14913.723	28.634	 
340.0	1.0	0.0	7.75143	7.08048	-10.2115	19.7678	21.81662	0.91579	1.09195	165.56288	147.69964	63.0391	0.31318	 	2.10181E18	 	1.42384E-18	 	14770.816	28.5814	 
335.0	1.0	0.0	7.75378	7.07833	-10.23869	19.75493	21.74367	0.91137	1.09725	165.9239	147.84667	63.1872	0.31295	 	3.21976E18	 	9.2188E-19	 	14628.169	28.5294	 
330.0	1.0	0.0	7.75612	7.07619	-10.26585	19.74208	21.67066	0.90692	1.10263	166.28447	147.99296	63.33518	0.31273	 	4.96734E18	 	5.92636E-19	 	14485.784	28.477	 
325.0	1.0	0.0	7.75847	7.07405	-10.29297	19.72925	21.59759	0.90245	1.1081	166.6446	148.1385	63.48305	0.31251	 	7.71922E18	 	3.78202E-19	 	14343.66	28.4248	 
320.0	1.0	0.0	7.76081	7.07192	-10.32005	19.71645	21.52445	0.89795	1.11365	167.00428	148.28331	63.63079	0.31229	 	1.20851E19	 	2.39553E-19	 	14201.796	28.3728	 
315.0	1.0	0.0	7.76315	7.06979	-10.3471	19.70367	21.45125	0.89341	1.1193	167.36351	148.42738	63.77841	0.31207	 	1.9065E19	 	1.5057E-19	 	14060.193	28.3206	 
310.0	1.0	0.0	7.76549	7.06766	-10.37411	19.69091	21.37799	0.88886	1.12504	167.7223	148.57071	63.92591	0.31185	 	3.03124E19	 	9.38959E-20	 	13918.85	28.2686	 
305.0	1.0	0.0	7.76783	7.06553	-10.40109	19.67817	21.30466	0.88427	1.13088	168.08064	148.71332	64.07329	0.31163	 	4.85832E19	 	5.80819E-20	 	13777.768	28.2164	 
300.0	1.0	0.0	7.77017	7.0634	-10.42803	19.66546	21.23126	0.87965	1.13681	168.43853	148.85519	64.22055	0.31141	 	7.85104E19	 	3.5631E-20	 	13636.946	28.1644	 
295.0	1.0	0.0	7.7725	7.06128	-10.45493	19.65277	21.15779	0.875	1.14285	168.79598	148.99634	64.36769	0.31119	 	1.2794899999999998E20	 	2.16727E-20	 	13496.385	28.1122	 
290.0	1.0	0.0	7.77484	7.05916	-10.48181	19.6401	21.08426	0.87033	1.14899	169.15297	149.13676	64.51471	0.31096	 	2.10336E20	 	1.30677E-20	 	13356.085	28.06	 
285.0	1.0	0.0	7.77717	7.05705	-10.50864	19.62745	21.01065	0.86562	1.15524	169.50952	149.27646	64.6616	0.31074	 	3.48864E20	 	7.80874E-21	 	13216.045	28.008	 
280.0	1.0	0.0	7.7795	7.05493	-10.53544	19.61483	20.93697	0.86089	1.16159	169.86561	149.41543	64.80838	0.31052	 	5.8394699999999997E20	 	4.62334E-21	 	13076.266	27.9558	 
275.0	1.0	0.0	7.78183	7.05282	-10.56221	19.60223	20.86322	0.85612	1.16806	170.22126	149.55369	64.95503	0.3103	 	9.86669E20	 	2.71153E-21	 	12936.749	27.9034	 
270.0	1.0	0.0	7.78415	7.05071	-10.58894	19.58965	20.78939	0.85133	1.17464	170.57646	149.69124	65.10156	0.31008	 	1.68331E21	 	1.57486E-21	 	12797.494	27.851	 
265.0	1.0	0.0	7.78648	7.04861	-10.61564	19.57709	20.71549	0.8465	1.18134	170.93121	149.82807	65.24797	0.30986	 	2.90046E21	 	9.05571E-22	 	12658.502	27.7984	 
260.0	1.0	0.0	7.7888	7.04651	-10.6423	19.56456	20.64152	0.84164	1.18816	171.28551	149.96418	65.39425	0.30964	 	5.04897E21	 	5.15386E-22	 	12519.772	27.746	 
255.0	1.0	0.0	7.79112	7.04441	-10.66893	19.55205	20.56746	0.83675	1.1951	171.63935	150.09959	65.54041	0.30942	 	8.88172E21	 	2.90233E-22	 	12381.305	27.6934	 
250.0	1.0	0.0	7.79344	7.04231	-10.69552	19.53956	20.49333	0.83182	1.20218	171.99275	150.23429	65.68645	0.30919	 	1.5793599999999998E22	 	1.61671E-22	 	12243.103	27.6404	 
245.0	1.0	0.0	7.79576	7.04022	-10.72208	19.52709	20.41911	0.82687	1.20938	172.3457	150.36829	65.83237	0.30897	 	2.8397999999999996E22	 	8.90543E-23	 	12105.165	27.5876	 
240.0	1.0	0.0	7.79808	7.03812	-10.74861	19.51465	20.34481	0.82188	1.21672	172.69819	150.50158	65.97816	0.30875	 	5.1648799999999995E22	 	4.84921E-23	 	11967.494	27.5342	 
235.0	1.0	0.0	7.80039	7.03603	-10.7751	19.50223	20.27043	0.81686	1.2242	173.05024	150.63418	66.12384	0.30853	 	9.50486E22	 	2.60935E-23	 	11830.088	27.4812	 
230.0	1.0	0.0	7.80271	7.03395	-10.80155	19.48983	20.19596	0.8118	1.23183	173.40183	150.76607	66.26938	0.30831	 	1.7705E23	 	1.38704E-23	 	11692.95	27.4276	 
225.0	1.0	0.0	7.80502	7.03186	-10.82797	19.47745	20.1214	0.80671	1.2396	173.75298	150.89728	66.41481	0.30809	 	3.3394E23	 	7.28078E-24	 	11556.081	27.3738	 
220.0	1.0	0.0	7.80733	7.02978	-10.85436	19.4651	20.04675	0.80159	1.24752	174.10367	151.02779	66.56011	0.30787	 	6.38014E23	 	3.77256E-24	 	11419.482	27.3198	 
215.0	1.0	0.0	7.80964	7.02771	-10.88072	19.45277	19.97201	0.79643	1.2556	174.45391	151.1576	66.70529	0.30765	 	1.23524E24	 	1.92881E-24	 	11283.153	27.2658	 
210.0	1.0	0.0	7.81195	7.02563	-10.90704	19.44046	19.89718	0.79124	1.26384	174.8037	151.28674	66.85034	0.30743	 	2.4244400000000003E24	 	9.72653E-25	 	11147.096	27.2114	 
205.0	1.0	0.0	7.81425	7.02356	-10.93333	19.42817	19.82225	0.78601	1.27225	175.15304	151.41518	66.99528	0.3072	 	4.8260900000000003E24	 	4.83566E-25	 	11011.313	27.1566	 
200.0	1.0	0.0	7.81655	7.02149	-10.95958	19.41591	19.74722	0.78075	1.28082	175.50194	151.54295	67.14008	0.30698	 	9.747630000000001E24	 	2.36912E-25	 	10875.806	27.1014	 
195.0	1.0	0.0	7.81886	7.01942	-10.9858	19.40367	19.67209	0.77545	1.28958	175.85038	151.67003	67.28477	0.30676	 	1.99859E25	 	1.14327E-25	 	10740.575	27.0462	 
190.0	1.0	0.0	7.82116	7.01735	-11.01199	19.39145	19.59686	0.77011	1.29852	176.19837	151.79644	67.42933	0.30654	 	4.16181E25	 	5.43158E-26	 	10605.622	26.9906	 
185.0	1.0	0.0	7.82346	7.01529	-11.03814	19.37925	19.52153	0.76474	1.30764	176.54591	151.92217	67.57377	0.30632	 	8.806300000000001E25	 	2.53922E-26	 	10470.95	26.9344	 
180.0	1.0	0.0	7.82576	7.01323	-11.06426	19.36708	19.44608	0.75932	1.31696	176.89301	152.04723	67.71809	0.3061	 	1.89447E26	 	1.16746E-26	 	10336.56	26.878	 
175.0	1.0	0.0	7.82805	7.01117	-11.09035	19.35493	19.37053	0.75388	1.32648	177.23965	152.17162	67.86228	0.30588	 	4.14578E26	 	5.27599E-27	 	10202.454	26.8212	 
170.0	1.0	0.0	7.83035	7.00912	-11.11641	19.3428	19.29486	0.74839	1.33621	177.58585	152.29535	68.00635	0.30566	 	9.234210000000001E26	 	2.34228E-27	 	10068.635	26.7638	 
165.0	1.0	0.0	7.83264	7.00707	-11.14243	19.3307	19.21908	0.74286	1.34615	177.9316	152.41841	68.1503	0.30544	 	2.0947399999999998E27	 	1.02089E-27	 	9935.105	26.706	 
160.0	1.0	0.0	7.83493	7.00502	-11.16842	19.31861	19.14318	0.7373	1.35631	178.27691	152.54081	68.29413	0.30521	 	4.84255E27	 	4.36567E-28	 	9801.866	26.6478	 
155.0	1.0	0.0	7.83722	7.00297	-11.19437	19.30655	19.06715	0.73169	1.3667	178.62177	152.66255	68.43784	0.30499	 	1.14161E28	 	1.83048E-28	 	9668.921	26.589	 
150.0	1.0	0.0	7.83951	7.00093	-11.2203	19.29451	18.991	0.72605	1.37732	178.96618	152.78364	68.58142	0.30477	 	2.74641E28	 	7.51997E-29	 	9536.274	26.5294	 
145.0	1.0	0.0	7.8418	6.99889	-11.24619	19.2825	18.91472	0.72036	1.38819	179.31015	152.90407	68.72488	0.30455	 	6.74727E28	 	3.02476E-29	 	9403.926	26.4696	 
140.0	1.0	0.0	7.84408	6.99685	-11.27205	19.27051	18.8383	0.71463	1.39932	179.65368	153.02386	68.86822	0.30433	 	1.6941E29	 	1.19029E-29	 	9271.881	26.409	 
135.0	1.0	0.0	7.84637	6.99481	-11.29787	19.25853	18.76175	0.70887	1.4107	179.99677	153.143	69.01144	0.30411	 	4.35059E29	 	4.57887E-30	 	9140.143	26.3476	 
130.0	1.0	0.0	7.84865	6.99278	-11.32367	19.24659	18.68505	0.70306	1.42236	180.33942	153.2615	69.15454	0.30389	 	1.14371E30	 	1.72043E-30	 	9008.715	26.2856	 
125.0	1.0	0.0	7.85093	6.99074	-11.34943	19.23466	18.60821	0.6972	1.4343	180.68163	153.37936	69.29752	0.30367	 	3.0805399999999997E30	 	6.30822E-31	 	8877.601	26.2228	 
120.0	1.0	0.0	7.85321	6.98872	-11.37516	19.22276	18.53122	0.69131	1.44653	181.0234	153.49658	69.44038	0.30344	 	8.509079999999999E30	 	2.25508E-31	 	8746.804	26.1594	 
115.0	1.0	0.0	7.85549	6.98669	-11.40086	19.21088	18.45408	0.68537	1.45907	181.36474	153.61318	69.58313	0.30322	 	2.41272E31	 	7.85198E-32	 	8616.33	26.0948	 
110.0	1.0	0.0	7.85776	6.98467	-11.42652	19.19902	18.37677	0.67939	1.47192	181.70564	153.72914	69.72575	0.303	 	7.02983E31	 	2.66018E-32	 	8486.183	26.0294	 
105.0	1.0	0.0	7.86004	6.98264	-11.45216	19.18719	18.2993	0.67336	1.48509	182.04611	153.84448	69.86826	0.30278	 	2.107E32	 	8.75965E-33	 	8356.367	25.9632	 
100.0	1.0	0.0	7.86231	6.98062	-11.47776	19.17537	18.22166	0.66729	1.4986	182.38615	153.9592	70.01065	0.30256	 	6.50368E32	 	2.80034E-33	 	8226.888	25.8958	 
95.0	1.0	0.0	7.86458	6.97861	-11.50333	19.16358	18.14384	0.66117	1.51247	182.72577	154.07331	70.15292	0.30234	 	2.0699E33	 	8.68083E-34	 	8097.751	25.8274	 
90.0	1.0	0.0	7.86685	6.97659	-11.52887	19.15181	18.06584	0.65501	1.5267	183.06496	154.1868	70.29508	0.30212	 	6.80122E33	 	2.60607E-34	 	7968.962	25.7578	 
85.0	1.0	0.0	7.86912	6.97458	-11.55438	19.14007	17.98765	0.6488	1.54132	183.40373	154.29968	70.43713	0.3019	 	2.31019E34	 	7.56665E-35	 	7840.526	25.6872	 
80.0	1.0	0.0	7.87139	6.97257	-11.57985	19.12835	17.90927	0.64254	1.55633	183.74207	154.41196	70.57906	0.30168	 	8.123580000000001E34	 	2.12177E-35	 	7712.452	25.6148	 
75.0	1.0	0.0	7.87365	6.97057	-11.6053	19.11665	17.83068	0.63623	1.57175	184.08001	154.52364	70.72089	0.30145	 	2.96164E35	 	5.73747E-36	 	7584.745	25.5414	 
70.0	1.0	0.0	7.87592	6.96856	-11.63071	19.10497	17.75187	0.62988	1.5876	184.41753	154.63473	70.8626	0.30123	 	1.1212199999999999E36	 	1.49376E-36	 	7457.412	25.4666	 
65.0	1.0	0.0	7.87818	6.96656	-11.65609	19.09331	17.67285	0.62348	1.60391	184.75464	154.74522	71.0042	0.30101	 	4.4151299999999993E36	 	3.73812E-37	 	7330.462	25.39	 
60.0	1.0	0.0	7.88044	6.96456	-11.68144	19.08168	17.5936	0.61703	1.62068	185.09134	154.85514	71.1457	0.30079	 	1.81161E37	 	8.97557E-38	 	7203.904	25.3116	 
55.0	1.0	0.0	7.8827	6.96257	-11.70676	19.07007	17.51411	0.61052	1.63794	185.42765	154.96447	71.28708	0.30057	 	7.76016E37	 	2.0639E-38	 	7077.745	25.2318	 
50.0	1.0	0.0	7.88496	6.96057	-11.73205	19.05848	17.43438	0.60397	1.65571	185.76356	155.07324	71.42837	0.30035	 	3.47718E38	 	4.5359E-39	 	6951.995	25.15	 
45.0	1.0	0.0	7.88722	6.95858	-11.75731	19.04692	17.35438	0.59737	1.67402	186.09907	155.18143	71.56955	0.30013	 	1.63327E39	 	9.50737E-40	 	6826.665	25.066	 
40.0	1.0	0.0	7.88947	6.95659	-11.78254	19.03538	17.27412	0.59071	1.69288	186.4342	155.28907	71.71063	0.29991	 	8.060140000000001E39	 	1.89625E-40	 	6701.765	24.98	 
35.0	1.0	0.0	7.89173	6.9546	-11.80774	19.02385	17.19358	0.584	1.71233	186.76896	155.39615	71.85162	0.29969	 	4.18915E40	 	3.59024E-41	 	6577.307	24.8916	 
30.0	1.0	0.0	7.89398	6.95262	-11.83291	19.01236	17.11275	0.57724	1.73238	187.10333	155.50269	71.9925	0.29946	 	2.2989000000000002E41	 	6.43612E-42	 	6453.302	24.801	 
25.0	1.0	0.0	7.89623	6.95064	-11.85804	 	17.0316	0.57042	1.75309	187.43734	155.60868	72.1333	0.29924	 	1.3357099999999999E42	 	1.08945E-42	 	6329.766	 	 
