T (C)	Fraction solid (wt)-TOTAL	Fraction liquid (wt)-LIQUID	Density (g/(cm)^3)-TOTAL	Molar volume (cm^3)-TOTAL	Volume change (%)-  	Average expansion coeff. (10e-6 1/K)-  	Thermal conductivity (W/(m*K))-TOTAL	Electrical resistivity (10e-6 Ohm*m)-TOTAL	Electrical conductivity (10e6 1/(Ohm*m))-TOTAL	Young's modulus (GPa)-TOTAL	Bulk modulus (GPa)-TOTAL	Shear modulus(GPa)-TOTAL	Poisson's ratio-TOTAL	Liquid viscosity (mPa s)-  	Total viscosity (mPa s)-  	Liquid diffusivity (10e-9 (m^2)/s)-  	Total diffusivity (10e-9 (m^2)/s)-  	Surface Tension (mN/m)-  	Enthalpy (J/mole)-TOTAL	Specific heat (J/(mole K))-TOTAL	Latent heat (J/mole)-TOTAL
1500.0	0.0	1.0	6.97561	7.91395	0.0	27.21361	30.72664	1.88039	0.5318	0.0	106.88119	0.0	0.49974	6.78685	6.78685	1.27516	1.27516	1718.24287	64188.085	 	0.0
1495.0	0.0	1.0	6.97948	7.90957	-0.0553547	27.16554	30.65064	1.87974	0.53199	0.0	107.06575	0.0	0.49974	6.84671	6.84671	1.26044	1.26044	1720.00953	63967.542	44.1086	0.0
1490.0	0.0	1.0	6.98333	7.9052	-0.11056	27.11753	30.57464	1.87908	0.53217	0.0	107.25031	0.0	0.49974	6.90745	6.90745	1.24583	1.24583	1721.7804	63747.484	44.0116	0.0
1485.0	0.0	1.0	6.98718	7.90085	-0.1656	27.06958	30.49863	1.87842	0.53236	0.0	107.43487	0.0	0.49974	6.96907	6.96907	1.23131	1.23131	1723.55544	63527.907	43.9154	0.0
1480.0	0.0	1.0	6.99103	7.8965	-0.2205	27.0217	30.42263	1.87776	0.53255	0.0	107.61944	0.0	0.49974	7.03161	7.03161	1.21689	1.21689	1725.33458	63308.809	43.8196	0.0
1475.0	0.0	1.0	6.99487	7.89217	-0.27524	26.97388	30.34663	1.87709	0.53274	0.0	107.804	0.0	0.49974	7.09506	7.09506	1.20257	1.20257	1727.11778	63090.187	43.7244	0.0
1470.0	0.0	1.0	6.9987	7.88785	-0.32983	26.92612	30.27063	1.87642	0.53293	0.0	107.98856	0.0	0.49974	7.15946	7.15946	1.18834	1.18834	1728.90498	62872.037	43.63	0.0
1465.0	0.0	1.0	7.00252	7.88354	-0.38426	26.87844	30.19462	1.87575	0.53312	0.0	108.17312	0.0	0.49974	7.22481	7.22481	1.17421	1.17421	1730.69612	62654.358	43.5358	0.0
1460.0	0.0	1.0	7.00634	7.87925	-0.43855	26.83082	30.11862	1.87508	0.53331	0.0	108.35769	0.0	0.49974	7.29115	7.29115	1.16018	1.16018	1732.49115	62437.145	43.4426	0.0
1455.0	0.0	1.0	7.01015	7.87496	-0.49267	26.78326	30.04262	1.8744	0.53351	0.0	108.54225	0.0	0.49974	7.35848	7.35848	1.14625	1.14625	1734.29	62220.397	43.3496	0.0
1450.0	0.0	1.0	7.01396	7.87069	-0.54665	26.73578	29.96662	1.87371	0.5337	0.0	108.72681	0.0	0.49974	7.42683	7.42683	1.13242	1.13242	1736.0926	62004.141	43.2512	0.0
1445.0	0.0	1.0	7.01775	7.86643	-0.60047	26.68836	29.89061	1.87303	0.5339	0.0	108.91137	0.0	0.49974	7.49622	7.49622	1.11868	1.11868	1737.89889	61788.43	43.1422	0.0
1440.0	0.0	1.0	7.02154	7.86218	-0.65414	26.64101	29.81461	1.87234	0.53409	0.0	109.09594	0.0	0.49974	7.56667	7.56667	1.10504	1.10504	1739.70879	61573.253	43.0354	0.0
1435.0	0.0	1.0	7.02533	7.85795	-0.70765	26.59374	29.73861	1.87164	0.53429	0.0	109.2805	0.0	0.49974	7.6382	7.6382	1.09149	1.09149	1741.52225	61358.608	42.929	0.0
1430.0	0.0	1.0	7.02911	7.85373	-0.76102	26.54653	29.66261	1.87095	0.53449	0.0	109.46506	0.0	0.49974	7.71083	7.71083	1.07805	1.07805	1743.33917	61144.49	42.8236	0.0
1425.0	0.0	1.0	7.03288	7.84952	-0.81423	26.4994	29.5866	1.87025	0.53469	0.0	109.64962	0.0	0.49974	7.78459	7.78459	1.0647	1.0647	1745.15949	60930.897	42.7186	0.0
1420.0	0.0	1.0	7.03664	7.84532	-0.86728	26.45234	29.5106	1.86954	0.53489	0.0	109.83419	0.0	0.49974	7.85949	7.85949	1.05145	1.05145	1746.98312	60717.825	42.6144	0.0
1415.0	0.0	1.0	7.0404	7.84113	-0.92018	26.40535	29.4346	1.86883	0.53509	0.0	110.01875	0.0	0.49974	7.93556	7.93556	1.03829	1.03829	1748.80998	60505.271	42.5108	0.0
1410.0	0.0	1.0	7.04415	7.83696	-0.97293	26.35843	29.3586	1.86812	0.5353	0.0	110.20331	0.0	0.49974	8.01283	8.01283	1.02523	1.02523	1750.64	60293.231	42.408	0.0
1405.8	0.0	1.0	7.0473	7.83346	-1.01716	26.31904	29.29471	1.86752	0.53547	0.0	110.35844	0.0	0.49974	8.07872	8.07872	1.01433	1.01433	1752.18055	60115.398	42.3147	0.0020
1405.0	0.01794	0.98206	7.0507	7.82962	-1.06556	26.20325	29.37117	1.86178	0.53712	6.41858E-6	109.7948	2.14366E-6	0.49711	8.08599	8.28081	1.01294	0.98911	1752.05219	59926.894	236.407	154.803
1400.0	0.12194	0.87806	7.07071	7.80754	-1.34465	25.54049	29.81938	1.82833	0.54695	0.0139398	106.56981	0.00470377	0.48177	8.13219	11.43132	1.00419	0.71437	1751.3223	58820.292	221.32	1050.382
1395.0	0.20978	0.79022	7.08806	7.78843	-1.58605	24.97563	30.20003	1.79989	0.55559	0.124	103.91062	0.0422135	0.46872	8.17913	28.37183	0.99544	0.28697	1750.72824	57855.643	192.93	1804.51
1394.35	0.21995	0.78005	7.09011	7.78615	-1.61489	24.90878	30.24394	1.79658	0.55661	0.15016	103.60746	0.0511725	0.4672	8.18517	32.35471	0.99432	0.25155	1750.66137	57741.218	 	1891.714
1390.0	0.31353	0.68647	7.10673	7.76796	-1.84471	24.3594	30.48733	1.77758	0.56256	0.40005	102.07529	0.13758	0.45389	8.23186	114.22434	0.9861	0.0710656	1748.72483	56598.365	251.456	2851.766
1385.0	0.40122	0.59878	7.12277	7.75049	-2.06545	23.84276	30.71031	1.75937	0.56839	0.9495	100.7836	0.32938	0.44132	8.28576	316.59262	0.97674	0.0255629	1746.80789	55492.596	221.154	3748.014
1380.0	0.47249	0.52751	7.13629	7.73583	-2.25078	23.41994	30.88543	1.74412	0.57336	1.86305	99.84069	0.65096	0.43101	8.34022	647.47986	0.96743	0.0124616	1745.17903	54558.505	186.818	4473.075
1375.0	0.53129	0.46871	7.1479	7.7233	-2.40907	23.06877	31.02293	1.73114	0.57765	3.18575	99.15424	1.11982	0.42244	8.39492	1104.42778	0.95822	0.0072836	1743.8022	53755.037	160.694	5068.005
1370.0	0.58042	0.41958	7.15805	7.71235	-2.5474	22.77041	31.13009	1.71994	0.58141	4.91814	98.66041	1.73759	0.41521	8.44986	1678.12068	0.94911	0.00477904	1742.64751	53052.75	140.457	5562.243
1365.0	0.62194	0.37806	7.16702	7.70274	-2.66891	22.51672	31.21283	1.71017	0.58474	7.02426	98.31697	2.49254	0.40906	8.5054	2358.21146	0.94004	0.00339045	1741.68658	52430.089	124.532	5977.339
1360.0	0.65738	0.34262	7.17504	7.6942	-2.77679	22.29926	31.27404	1.70161	0.58768	9.4457	98.09201	3.36443	0.40376	8.5616	3135.52464	0.93102	0.00254216	1740.896	51870.984	111.821	6329.36
1355.0	0.6879	0.3121	7.18233	7.68643	-2.87501	22.10726	31.31892	1.69397	0.59033	12.1131	97.9605	4.32872	0.39915	8.61801	4002.87243	0.92209	0.00198522	1740.25809	51363.262	101.544	6630.479
1350.0	0.71441	0.28559	7.189	7.67936	-2.96424	21.93918	31.35034	1.68707	0.59274	14.95491	97.90544	5.35972	0.39512	8.67518	4955.812	0.9132	0.00159857	1739.75343	50897.564	93.1396	6890.049
1345.0	0.73759	0.26241	7.19516	7.67284	-3.04664	21.78915	31.37027	1.68081	0.59495	17.9031	97.91275	6.43275	0.39156	8.73253	5991.19871	0.90441	0.00131823	1739.36845	50466.599	86.193	7115.359
1340.0	0.75798	0.24202	7.20091	7.66678	-3.12331	21.65424	31.3806	1.67506	0.59699	20.90418	97.97103	7.52821	0.38839	8.79062	7109.2881	0.89566	0.00110748	1739.08976	50064.621	80.3956	7312.154
1337.21	0.76824	0.23176	7.20393	7.66362	-3.16316	21.58686	31.38256	1.67206	0.59806	22.56902	98.02379	8.13716	0.38679	8.82349	7765.32207	0.89078	0.00101216	1738.97189	49852.025	 	7410.463
1335.0	0.77753	0.22247	7.207	7.66036	-3.20439	21.50574	31.39007	1.66937	0.59903	24.18243	98.04688	8.72799	0.38534	8.85169	8377.14165	0.88672	9.36952E-4	1738.93172	49668.299	79.2644	7503.76
1330.0	0.79664	0.20336	7.21351	7.65357	-3.29021	21.34253	31.40284	1.6635	0.60114	27.79477	98.13731	10.05354	0.38234	8.9162	9830.18395	0.87757	7.95975E-4	1738.91143	49273.385	78.9828	7694.423
1325.0	0.8133	0.1867	7.21945	7.64737	-3.36853	21.19963	31.40411	1.65825	0.60305	31.28048	98.27172	11.33604	0.37969	8.98156	11368.57511	0.86847	6.86117E-4	1738.97545	48905.386	73.5998	7858.634
1320.0	0.82791	0.17209	7.22497	7.64162	-3.44123	21.0718	31.39745	1.65341	0.60481	34.61818	98.44149	12.56708	0.37734	9.047	12996.95308	0.85949	5.98276E-4	1739.11609	48559.615	69.1542	8001.076
1315.0	0.84083	0.15917	7.23013	7.63626	-3.5089	20.95758	31.38409	1.64892	0.60646	37.79344	98.64129	13.7408	0.37523	9.11294	14720.83713	0.85059	5.26557E-4	1739.32397	48232.396	65.4438	8125.423
1314.14	0.84296	0.15704	7.23101	7.63535	-3.52034	20.93847	31.38131	1.64817	0.60673	38.33738	98.67839	13.94211	0.37488	9.12445	15032.47822	0.84905	5.15361E-4	1739.36447	48177.06	 	8145.768
1310.0	0.87511	0.12489	7.23929	7.62662	-3.63075	20.68497	31.4694	1.63927	0.61003	46.92358	98.6576	17.12972	0.36965	9.24129	18545.71339	0.83613	4.16644E-4	1738.90381	47644.84	117.511	8510.562
1305.0	0.90303	0.096965	7.24721	7.61828	-3.73608	20.45845	31.53	1.63096	0.61314	55.24477	98.76667	20.23544	0.36505	9.38627	22532.56382	0.82062	3.41841E-4	1738.46691	47129.719	103.024	8823.716
1300.0	0.92275	0.0772451	7.25357	7.61156	-3.82102	20.28986	31.55492	1.6245	0.61557	61.65017	98.97021	22.63673	0.36173	9.53488	26258.1762	0.80527	2.9241E-4	1738.14509	46710.006	83.9426	9041.912
1295.0	0.93714	0.0628636	7.25894	7.6059	-3.89253	20.15945	31.55634	1.61927	0.61756	66.65442	99.23324	24.51887	0.35925	9.68648	29817.94648	0.79015	2.56683E-4	1737.92484	46352.305	71.5402	9198.542
1290.0	0.94792	0.0520814	7.26363	7.60093	-3.95527	20.05391	31.5416	1.61486	0.61925	70.64393	99.53461	26.02309	0.35733	9.84126	33295.23291	0.77524	2.29142E-4	1737.79733	46036.324	63.1962	9313.896
1285.0	0.9562	0.0437973	7.26786	7.59647	-4.0117	19.96623	31.51565	1.61102	0.62073	73.89424	99.862	27.25095	0.35581	9.99924	36760.21506	0.76055	2.0688E-4	1737.74913	45749.302	57.4044	9400.732
1280.0	0.96271	0.0372945	7.27177	7.59234	-4.06384	19.89062	31.48158	1.60759	0.62205	76.59831	100.20715	28.27403	0.35457	10.15972	40269.54219	0.74614	1.88245E-4	1737.77372	45482.957	53.269	9467.33
1275.0	0.96791	0.0320915	7.27544	7.58848	-4.11271	19.82416	31.44157	1.60445	0.62327	78.89348	100.56504	29.14348	0.35354	10.32321	43871.51858	0.73196	1.72233E-4	1737.86056	45231.756	50.2402	9519.22
1270.0	0.97214	0.0278585	7.27894	7.58479	-4.15926	19.76414	31.39712	1.60153	0.6244	80.87656	100.93193	29.89551	0.35265	10.489	47606.18103	0.71806	1.58209E-4	1738.00512	44991.909	47.9694	9560.19
1265.0	0.97564	0.0243644	7.2823	7.58126	-4.20391	19.70934	31.34928	1.59878	0.62548	82.61868	101.30569	30.55675	0.35189	10.65775	51510.25084	0.7044	1.45744E-4	1738.19808	44760.752	46.2314	9592.901
1260.0	0.97856	0.0214399	7.28555	7.57783	-4.24716	19.65835	31.29879	1.59615	0.62651	84.17144	101.68452	31.14659	0.35121	10.82886	55616.41342	0.69102	1.34545E-4	1738.43559	44536.376	44.8752	9619.261
1255.0	0.98103	0.0189651	7.28873	7.5745	-4.28925	19.61045	31.24623	1.59362	0.6275	85.57365	102.06726	31.67961	0.35061	11.0028	59956.55689	0.67787	1.24399E-4	1738.71236	44317.385	43.7982	9640.662
1250.0	0.98315	0.0168468	7.29183	7.57125	-4.33035	19.5652	31.19205	1.59117	0.62847	86.85458	102.45301	32.16682	0.35006	11.17968	64561.69021	0.66497	1.15147E-4	1739.02146	44102.739	42.9292	9658.141
1245.0	0.98498	0.0150178	7.29488	7.56806	-4.37067	19.52194	31.1365	1.58878	0.62942	88.03699	102.84114	32.61683	0.34956	11.35952	69463.13626	0.65229	1.06671E-4	1739.36085	43891.654	42.217	9672.482
1240.0	0.98658	0.0134243	7.29789	7.56492	-4.41039	19.48019	31.07987	1.58643	0.63035	89.13866	103.23105	33.03633	0.3491	11.54181	74693.09872	0.63987	9.88754E-5	1739.729	43683.522	41.6264	9684.297
1235.0	0.98798	0.0120248	7.30086	7.56182	-4.44951	19.43993	31.02233	1.58412	0.63127	90.17279	103.62252	33.43031	0.34867	11.72726	80285.07041	0.62767	9.16846E-5	1740.12	43477.872	41.13	9694.059
1230.0	0.98921	0.0107882	7.3038	7.55876	-4.48818	19.40075	30.96404	1.58184	0.63218	91.15109	104.01509	33.8032	0.34826	11.91586	86274.33454	0.61569	8.50369E-5	1740.53148	43274.335	40.7074	9702.136
1225.0	0.99031	0.00968765	7.30671	7.55573	-4.52642	19.36259	30.90509	1.57958	0.63308	92.08173	104.40863	34.15808	0.34788	12.10716	92698.56282	0.60395	7.88804E-5	1740.96166	43072.614	40.3442	9708.82
1220.0	0.9913	0.00870231	7.30959	7.55274	-4.5643	19.32521	30.84562	1.57735	0.63398	92.97213	104.80285	34.49777	0.34751	12.30175	99598.02571	0.59241	7.31711E-5	1741.40921	42872.474	40.028	9714.345
1215.0	0.99218	0.00781562	7.31245	7.54977	-4.60184	19.2886	30.78572	1.57513	0.63487	93.82828	105.19765	34.82452	0.34716	12.49984	107016.5783	0.58107	6.78707E-5	1741.86955	42673.722	39.7504	9718.903
1210.0	0.99299	0.00701305	7.3153	7.54682	-4.63907	19.25265	30.72539	1.57292	0.63576	94.65448	105.59294	35.13997	0.34682	12.70139	115000.9653	0.56993	6.29463E-5	1742.34263	42476.199	39.5046	9722.648
1205.0	0.99372	0.00628422	7.31812	7.54389	-4.67605	19.21719	30.66472	1.57071	0.63665	95.45537	105.9885	35.44587	0.3465	12.90667	123602.1348	0.55897	5.83686E-5	1742.82579	42279.775	39.2848	9725.71
1200.0	0.99438	0.00561981	7.32094	7.54099	-4.71277	19.18223	30.60376	1.56852	0.63754	96.23342	106.38429	35.74316	0.34618	13.1151	132874.8036	0.54823	5.41117E-5	1743.31939	42084.341	39.0868	9728.195
1195.0	0.99499	0.00501046	7.32373	7.5381	-4.74927	19.14771	30.54252	1.56633	0.63844	96.99234	106.78026	36.03325	0.34587	13.32807	142880.7481	0.53764	5.01514E-5	1743.81752	41889.805	38.9072	9730.193
1190.0	0.99555	0.00445098	7.32652	7.53523	-4.78555	19.11356	30.48107	1.56414	0.63933	97.734	107.17629	36.31684	0.34557	13.54433	153685.1839	0.52725	4.64669E-5	1744.32475	41696.09	38.743	9731.778
1185.0	0.99606	0.00393515	7.32929	7.53237	-4.82166	19.07971	30.41939	1.56196	0.64022	98.46045	107.57232	36.59472	0.34528	13.76477	165359.4661	0.51704	4.30388E-5	1744.83666	41503.131	38.5918	9733.015
1180.0	0.99654	0.00345673	7.33206	7.52953	-4.85758	19.04614	30.35752	1.55977	0.64112	99.17369	107.96833	36.86764	0.345	13.98872	177983.5082	0.50701	3.9849E-5	1745.35379	41310.87	38.4522	9733.957
1175.0	0.99699	0.00301365	7.33481	7.5267	-4.89332	19.01289	30.29552	1.55759	0.64202	99.87452	108.36422	37.13591	0.34472	14.21779	191641.6172	0.49713	3.68817E-5	1745.87199	41119.259	38.3222	9734.651
1170.0	0.9974	0.00260071	7.33755	7.52388	-4.9289	18.97985	30.23334	1.5554	0.64292	100.56513	108.76	37.40035	0.34444	14.45132	206430.9541	0.48741	3.41211E-5	1746.39332	40928.257	38.2004	9735.137
1165.0	0.99778	0.00221584	7.34029	7.52108	-4.96436	18.94695	30.17104	1.55322	0.64383	101.24655	109.15558	37.66137	0.34417	14.68884	222454.1259	0.47786	3.15537E-5	1746.91638	40737.827	38.086	9735.45
1160.0	0.99814	0.00185592	7.34301	7.51828	-4.99964	18.91433	30.10864	1.55102	0.64474	101.91897	109.55098	37.91902	0.3439	14.93121	239823.8971	0.46847	2.91666E-5	1747.43902	40547.936	37.9782	9735.618
1155.0	0.99848	0.00151887	7.34573	7.5155	-5.03478	18.88186	30.04613	1.54883	0.64565	102.58349	109.94608	38.17373	0.34364	15.17917	258664.6993	0.45921	2.69478E-5	1747.95992	40358.557	37.8758	9735.669
1150.0	0.9988	0.00120157	7.34844	7.51273	-5.06978	18.84958	29.98352	1.54663	0.64657	103.24154	110.34098	38.42604	0.34338	15.43155	279118.4317	0.45012	2.48856E-5	1748.48103	40169.664	37.7786	9735.626
1145.0	0.9991	9.02988E-4	7.35114	7.50997	-5.10466	18.81743	29.92081	1.54442	0.64749	103.89267	110.73552	38.67578	0.34312	15.68916	301330.505	0.44117	2.29703E-5	1749.00002	39981.236	37.6856	9735.508
1140.0	0.99938	6.22082E-4	7.35384	7.50722	-5.13945	18.78529	29.858	1.54222	0.64842	104.53875	111.12969	38.92367	0.34287	15.95218	325471.5992	0.43237	2.11915E-5	1749.51597	39793.253	37.5966	9735.333
1137.11	0.99953	4.6602E-4	7.35539	7.50563	-5.15947	18.76687	29.82168	1.54094	0.64896	104.90927	111.35743	39.06587	0.34272	16.10625	340377.0387	0.42736	2.02221E-5	1749.81285	39684.776	 	9735.211
1137.11	0.99953	4.6602E-4	7.35539	7.50563	-5.15947	18.76687	29.82168	1.54094	0.64896	104.90927	111.35743	39.06587	0.34272	16.10625	340377.0387	0.42736	2.02221E-5	1749.81285	39684.776	 	9735.211
1135.0	0.99968	3.2244E-4	7.35658	7.50445	-5.17445	18.75214	29.79513	1.54	0.64935	105.195	111.52427	39.17553	0.34261	16.20716	351765.3343	0.42406	1.95381E-5	1749.85727	39604.9	37.6706	9735.914
1130.0	1.0	0.0	7.35939	7.50165	-5.20979	18.71756	29.73211	1.53779	0.65029	105.86509	111.91941	39.43277	0.34235	 	380432.0301	 	1.80017E-5	 	39415.84	37.812	9737.585
1125.0	1.0	0.0	7.36173	7.49927	-5.23987	18.70049	29.66706	1.53567	0.65118	106.37262	112.31232	39.62776	0.34215	 	411108.6382	 	1.65991E-5	 	39273.182	28.5316	 
1120.0	1.0	0.0	7.36406	7.49689	-5.26991	18.68344	29.60202	1.53354	0.65209	106.88056	112.70467	39.82297	0.34195	 	444521.5047	 	1.52965E-5	 	39089.081	36.8202	 
1115.0	1.0	0.0	7.3664	7.49452	-5.2999	18.66639	29.53697	1.5314	0.653	107.3889	113.09644	40.01839	0.34174	 	480937.2928	 	1.40875E-5	 	38905.245	36.7672	 
1110.0	1.0	0.0	7.36873	7.49215	-5.32984	18.64934	29.47192	1.52925	0.65392	107.89762	113.4876	40.21401	0.34154	 	520650.7979	 	1.29661E-5	 	38721.663	36.7164	 
1105.0	1.0	0.0	7.37105	7.48979	-5.35973	18.63231	29.40687	1.52709	0.65484	108.4067	113.87816	40.40982	0.34134	 	563988.1367	 	1.19265E-5	 	38538.326	36.6674	 
1100.0	1.0	0.0	7.37338	7.48742	-5.38958	18.61528	29.34182	1.52493	0.65577	108.91613	114.26809	40.60582	0.34114	 	611310.3232	 	1.09633E-5	 	38355.228	36.6196	 
1095.0	1.0	0.0	7.3757	7.48507	-5.41938	18.59825	29.27676	1.52275	0.65671	109.42589	114.65737	40.802	0.34094	 	663017.2806	 	1.00715E-5	 	38172.369	36.5718	 
1090.0	1.0	0.0	7.37802	7.48271	-5.44913	18.58124	29.2117	1.52056	0.65765	109.93596	115.046	40.99835	0.34074	 	719552.3458	 	9.2463E-6	 	37989.748	36.5242	 
1085.0	1.0	0.0	7.38034	7.48036	-5.47883	18.56423	29.14664	1.51837	0.6586	110.44632	115.43396	41.19488	0.34053	 	781407.3312	 	8.48315E-6	 	37807.365	36.4766	 
1080.0	1.0	0.0	7.38266	7.47801	-5.50849	18.54723	29.08158	1.51616	0.65956	110.95696	115.82122	41.39157	0.34033	 	849128.2158	 	7.77785E-6	 	37625.219	36.4292	 
1075.0	1.0	0.0	7.38497	7.47567	-5.5381	18.53023	29.01652	1.51395	0.66053	111.46787	116.20779	41.58841	0.34013	 	923321.5509	 	7.12643E-6	 	37443.31	36.3818	 
1070.0	1.0	0.0	7.38728	7.47333	-5.56766	18.51325	28.95145	1.51172	0.6615	111.97902	116.59363	41.78541	0.33993	 	1004661.674	 	6.52516E-6	 	37261.634	36.3352	 
1065.0	1.0	0.0	7.38959	7.47099	-5.59717	18.49626	28.88638	1.50949	0.66248	112.4904	116.97875	41.98255	0.33973	 	1093898.837	 	5.97055E-6	 	37080.192	36.2884	 
1060.0	1.0	0.0	7.3919	7.46866	-5.62664	18.47929	28.82131	1.50724	0.66346	113.00199	117.36312	42.17983	0.33953	 	1191868.384	 	5.45931E-6	 	36898.981	36.2422	 
1055.0	1.0	0.0	7.39421	7.46633	-5.65606	18.46232	28.75623	1.50499	0.66446	113.51378	117.74673	42.37724	0.33932	 	1299501.099	 	4.98835E-6	 	36718.0	36.1962	 
1050.0	1.0	0.0	7.39651	7.46401	-5.68543	18.44536	28.69115	1.50272	0.66546	114.02575	118.12957	42.57478	0.33912	 	1417834.905	 	4.55481E-6	 	36537.247	36.1506	 
1045.0	1.0	0.0	7.39881	7.46169	-5.71476	18.42841	28.62607	1.50045	0.66647	114.53789	118.51161	42.77244	0.33892	 	1548028.098	 	4.15597E-6	 	36356.719	36.1056	 
1040.0	1.0	0.0	7.40111	7.45937	-5.74403	18.41146	28.56099	1.49816	0.66748	115.05017	118.89286	42.97021	0.33872	 	1691374.31	 	3.78932E-6	 	36176.416	36.0606	 
1035.0	1.0	0.0	7.4034	7.45706	-5.77326	18.39452	28.49591	1.49587	0.66851	115.56258	119.2733	43.16809	0.33852	 	1849319.471	 	3.45249E-6	 	35996.335	36.0162	 
1030.0	1.0	0.0	7.4057	7.45475	-5.80245	18.37759	28.43082	1.49356	0.66954	116.07511	119.6529	43.36608	0.33832	 	2023481.026	 	3.14327E-6	 	35816.474	35.9722	 
1025.0	1.0	0.0	7.40799	7.45244	-5.83158	18.36066	28.36573	1.49124	0.67058	116.58774	120.03166	43.56416	0.33812	 	2215669.747	 	2.85961E-6	 	35636.832	35.9284	 
1020.0	1.0	0.0	7.41028	7.45014	-5.86067	18.34374	28.30064	1.48892	0.67163	117.10046	120.40957	43.76234	0.33791	 	2427914.497	 	2.59957E-6	 	35457.407	35.885	 
1015.0	1.0	0.0	7.41256	7.44784	-5.88971	18.32683	28.23554	1.48658	0.67269	117.61324	120.78661	43.9606	0.33771	 	2662490.375	 	2.36138E-6	 	35278.196	35.8422	 
1010.0	1.0	0.0	7.41485	7.44555	-5.91871	18.30992	28.17045	1.48423	0.67375	118.12608	121.16277	44.15894	0.33751	 	2921950.734	 	2.14334E-6	 	35099.197	35.7998	 
1005.0	1.0	0.0	7.41713	7.44326	-5.94766	18.29302	28.10535	1.48187	0.67482	118.63895	121.53804	44.35735	0.33731	 	3209163.642	 	1.94391E-6	 	34920.409	35.7576	 
1000.0	1.0	0.0	7.41941	7.44097	-5.97656	18.27613	28.04025	1.4795	0.6759	119.15184	121.9124	44.55583	0.33711	 	3527353.417	 	1.76164E-6	 	34741.829	35.716	 
995.0	1.0	0.0	7.42169	7.43869	-6.00541	18.25924	27.97514	1.47712	0.67699	119.66474	122.28584	44.75437	0.33691	 	3880148.024	 	1.59518E-6	 	34563.454	35.675	 
990.0	1.0	0.0	7.42396	7.43641	-6.03422	18.24237	27.91003	1.47473	0.67809	120.17763	122.65835	44.95297	0.3367	 	4271633.171	 	1.44327E-6	 	34385.283	35.6342	 
985.0	1.0	0.0	7.42624	7.43413	-6.06297	18.22549	27.84493	1.47233	0.6792	120.6905	123.02992	45.15162	0.3365	 	4706414.137	 	1.30476E-6	 	34207.314	35.5938	 
980.0	1.0	0.0	7.42851	7.43186	-6.09169	18.20863	27.77981	1.46991	0.68031	121.20332	123.40053	45.35031	0.3363	 	5189686.493	 	1.17855E-6	 	34029.543	35.5542	 
975.0	1.0	0.0	7.43077	7.42959	-6.12035	18.19177	27.7147	1.46749	0.68144	121.71609	123.77017	45.54904	0.3361	 	5727317.07	 	1.06366E-6	 	33851.969	35.5148	 
970.0	1.0	0.0	7.43304	7.42733	-6.14897	18.17492	27.64958	1.46505	0.68257	122.22878	124.13883	45.74781	0.3359	 	6325936.755	 	9.59147E-7	 	33674.589	35.476	 
965.0	1.0	0.0	7.4353	7.42506	-6.17754	18.15808	27.58446	1.4626	0.68371	122.74139	124.50651	45.9466	0.3357	 	6993046.941	 	8.64159E-7	 	33497.4	35.4378	 
960.0	1.0	0.0	7.43757	7.42281	-6.20607	18.14124	27.51934	1.46014	0.68486	123.2539	124.87317	46.14541	0.33549	 	7737141.763	 	7.77897E-7	 	33320.4	35.4	 
955.0	1.0	0.0	7.43982	7.42055	-6.23455	18.12441	27.45421	1.45767	0.68602	123.76628	125.23882	46.34424	0.33529	 	8567848.607	 	6.99627E-7	 	33143.586	35.3628	 
950.0	1.0	0.0	7.44208	7.4183	-6.26298	18.10758	27.38908	1.45519	0.6872	124.27854	125.60344	46.54308	0.33509	 	9496089.773	 	6.28668E-7	 	32966.955	35.3262	 
945.0	1.0	0.0	7.44434	7.41606	-6.29136	18.09077	27.32395	1.4527	0.68837	124.79064	125.96703	46.74193	0.33489	 	1.053426868E7	 	5.64395E-7	 	32790.504	35.2902	 
940.0	1.0	0.0	7.44659	7.41381	-6.3197	18.07396	27.25882	1.45019	0.68956	125.30258	126.32956	46.94077	0.33469	 	1.169648456E7	 	5.06228E-7	 	32614.231	35.2546	 
935.0	1.0	0.0	7.44884	7.41158	-6.34799	18.05715	27.19368	1.44767	0.69076	125.81434	126.69102	47.1396	0.33449	 	1.299878025E7	 	4.53633E-7	 	32438.132	35.2198	 
930.0	1.0	0.0	7.45108	7.40934	-6.37624	18.04036	27.12854	1.44514	0.69197	126.3259	127.05141	47.33842	0.33429	 	1.445942848E7	 	4.06121E-7	 	32262.205	35.1854	 
925.0	1.0	0.0	7.45333	7.40711	-6.40444	18.02357	27.0634	1.4426	0.69319	126.83726	127.41072	47.53723	0.33408	 	1.609926304E7	 	3.63239E-7	 	32086.445	35.152	 
920.0	1.0	0.0	7.45557	7.40488	-6.43259	18.00679	26.99826	1.44005	0.69442	127.34839	127.76893	47.73601	0.33388	 	1.79420622E7	 	3.24571E-7	 	31910.851	35.1188	 
915.0	1.0	0.0	7.45781	7.40266	-6.46069	17.99001	26.93311	1.43748	0.69566	127.85928	128.12603	47.93475	0.33368	 	2.001499318E7	 	2.89736E-7	 	31735.418	35.0866	 
910.0	1.0	0.0	7.46005	7.40044	-6.48875	17.97324	26.86796	1.4349	0.69691	128.36991	128.48201	48.13347	0.33348	 	2.234912795E7	 	2.58384E-7	 	31560.143	35.055	 
905.0	1.0	0.0	7.46228	7.39822	-6.51676	17.95648	26.80281	1.43231	0.69817	128.88027	128.83686	48.33214	0.33328	 	2.49800424E7	 	2.30194E-7	 	31385.022	35.0242	 
900.0	1.0	0.0	7.46452	7.39601	-6.54473	17.93972	26.73765	1.42971	0.69944	129.39035	129.19057	48.53076	0.33308	 	2.794851333E7	 	2.04871E-7	 	31210.051	34.9942	 
895.0	1.0	0.0	7.46675	7.3938	-6.57265	17.92298	26.6725	1.42709	0.70072	129.90013	129.54313	48.72933	0.33287	 	3.130132994E7	 	1.82147E-7	 	31035.228	34.9646	 
890.0	1.0	0.0	7.46898	7.39159	-6.60052	17.90623	26.60734	1.42447	0.70202	130.40959	129.89453	48.92785	0.33267	 	3.509223987E7	 	1.61775E-7	 	30860.547	34.9362	 
885.0	1.0	0.0	7.4712	7.38939	-6.62834	17.8895	26.54217	1.42182	0.70332	130.91872	130.24475	49.1263	0.33247	 	3.938305341E7	 	1.4353E-7	 	30686.005	34.9084	 
880.0	1.0	0.0	7.47343	7.38719	-6.65612	17.87277	26.47701	1.41917	0.70464	131.42751	130.59379	49.32468	0.33227	 	4.424493376E7	 	1.27206E-7	 	30511.598	34.8814	 
875.0	1.0	0.0	7.47565	7.385	-6.68386	17.85605	26.41184	1.4165	0.70596	131.93593	130.94163	49.52298	0.33207	 	4.975990656E7	 	1.12617E-7	 	30337.32	34.8556	 
870.0	1.0	0.0	7.47787	7.3828	-6.71154	17.83934	26.34667	1.41382	0.7073	132.44398	131.28828	49.72121	0.33187	 	5.602262819E7	 	9.95925E-8	 	30163.169	34.8302	 
865.0	1.0	0.0	7.48008	7.38062	-6.73919	17.82263	26.28149	1.41113	0.70865	132.95165	131.6337	49.91934	0.33166	 	6.314245961E7	 	8.79761E-8	 	29989.138	34.8062	 
860.0	1.0	0.0	7.4823	7.37843	-6.76678	17.80593	26.21631	1.40842	0.71001	133.45891	131.97791	50.11739	0.33146	 	7.124590171E7	 	7.76273E-8	 	29815.224	34.7828	 
855.0	1.0	0.0	7.48451	7.37625	-6.79433	17.78923	26.15113	1.4057	0.71139	133.96575	132.32087	50.31534	0.33126	 	8.04794587E7	 	6.84177E-8	 	29641.421	34.7606	 
850.0	1.0	0.0	7.48672	7.37408	-6.82183	17.77255	26.08595	1.40297	0.71277	134.47216	132.6626	50.51319	0.33106	 	9.10130093E7	 	6.02311E-8	 	29467.723	34.7396	 
845.0	1.0	0.0	7.48892	7.3719	-6.84929	17.75587	26.02077	1.40022	0.71417	134.97813	133.00307	50.71093	0.33086	 	1.030437806E8	 	5.29621E-8	 	29294.126	34.7194	 
840.0	1.0	0.0	7.49113	7.36973	-6.8767	17.7392	25.95558	1.39746	0.71558	135.48363	133.34228	50.90855	0.33066	 	1.168010389E8	 	4.65151E-8	 	29120.624	34.7004	 
835.0	1.0	0.0	7.49333	7.36757	-6.90406	17.72253	25.89039	1.39469	0.71701	135.98865	133.68021	51.10606	0.33046	 	1.325516338E8	 	4.08038E-8	 	28947.211	34.6826	 
830.0	1.0	0.0	7.49553	7.36541	-6.93138	17.70587	25.8252	1.3919	0.71844	136.49319	134.01686	51.30344	0.33025	 	1.506065605E8	 	3.57501E-8	 	28773.881	34.666	 
825.0	1.0	0.0	7.49773	7.36325	-6.95865	17.68922	25.76	1.3891	0.71989	136.99722	134.35222	51.5007	0.33005	 	1.713287364E8	 	3.12837E-8	 	28600.628	34.6506	 
820.0	1.0	0.0	7.49992	7.36109	-6.98587	17.67257	25.69481	1.38628	0.72135	137.50074	134.68628	51.69781	0.32985	 	1.951422307E8	 	2.73411E-8	 	28427.444	34.6368	 
815.0	1.0	0.0	7.50211	7.35894	-7.01305	17.65593	25.62961	1.38345	0.72283	138.00372	135.01903	51.89479	0.32965	 	2.225432345E8	 	2.3865E-8	 	28254.324	34.624	 
810.0	1.0	0.0	7.5043	7.3568	-7.04019	17.6393	25.5644	1.38061	0.72432	138.50615	135.35046	52.09162	0.32945	 	2.54113115E8	 	2.08041E-8	 	28081.26	34.6128	 
805.0	1.0	0.0	7.50649	7.35465	-7.06727	17.62268	25.4992	1.37775	0.72582	139.00803	135.68055	52.2883	0.32925	 	2.905339769E8	 	1.81121E-8	 	27908.243	34.6034	 
800.0	1.0	0.0	7.50867	7.35251	-7.09431	17.60606	25.43399	1.37488	0.72734	139.50932	136.00932	52.48482	0.32904	 	3.326072344E8	 	1.57476E-8	 	27735.268	34.595	 
795.0	1.0	0.0	7.51086	7.35038	-7.12131	17.58945	25.36878	1.37199	0.72887	140.01003	136.33673	52.68119	0.32884	 	3.812758137E8	 	1.36735E-8	 	27562.324	34.5888	 
790.0	1.0	0.0	7.51304	7.34824	-7.14826	17.57284	25.30357	1.36909	0.73041	140.51014	136.66279	52.87738	0.32864	 	4.376507319E8	 	1.18564E-8	 	27389.405	34.5838	 
785.0	1.0	0.0	7.51521	7.34611	-7.17516	17.55624	25.23836	1.36617	0.73197	141.00963	136.98748	53.0734	0.32844	 	5.030429652E8	 	1.02667E-8	 	27216.499	34.5812	 
780.0	1.0	0.0	7.51739	7.34399	-7.20202	17.53965	25.17314	1.36323	0.73355	141.50849	137.3108	53.26924	0.32824	 	5.790017172E8	 	8.87763E-9	 	27043.599	34.58	 
775.0	1.0	0.0	7.51956	7.34187	-7.22883	17.52307	25.10793	1.36029	0.73514	142.00671	137.63274	53.4649	0.32804	 	6.673604437E8	 	7.66566E-9	 	26870.693	34.5812	 
770.0	1.0	0.0	7.52173	7.33975	-7.2556	17.50649	25.04271	1.35732	0.73674	142.50426	137.95329	53.66037	0.32784	 	7.702922949E8	 	6.60964E-9	 	26697.772	34.5842	 
765.0	1.0	0.0	7.5239	7.33763	-7.28232	17.48992	24.97748	1.35434	0.73836	143.00115	138.27244	53.85565	0.32763	 	8.903770072E8	 	5.69079E-9	 	26524.824	34.5896	 
760.0	1.0	0.0	7.52606	7.33552	-7.309	17.47336	24.91226	1.35135	0.74	143.49734	138.59019	54.05073	0.32743	 	1.030681741E9	 	4.89244E-9	 	26351.837	34.5974	 
755.0	1.0	0.0	7.52823	7.33341	-7.33562	17.4568	24.84703	1.34834	0.74165	143.99284	138.90651	54.2456	0.32723	 	1.194858934E9	 	4.19978E-9	 	26178.799	34.6076	 
750.0	1.0	0.0	7.53039	7.33131	-7.36221	17.44025	24.78181	1.34532	0.74332	144.48763	139.22142	54.44027	0.32703	 	1.387264942E9	 	3.5997E-9	 	26005.697	34.6204	 
745.0	1.0	0.0	7.53255	7.32921	-7.38875	17.42371	24.71658	1.34227	0.745	144.98169	139.53489	54.63472	0.32683	 	1.613104143E9	 	3.08061E-9	 	25832.517	34.636	 
740.0	1.0	0.0	7.5347	7.32711	-7.41524	17.40717	24.65135	1.33922	0.74671	145.475	139.84692	54.82895	0.32663	 	1.878604246E9	 	2.63224E-9	 	25659.243	34.6548	 
735.0	1.0	0.0	7.53685	7.32502	-7.44169	17.39065	24.58611	1.33614	0.74842	145.96757	140.15751	55.02295	0.32642	 	2.191229949E9	 	2.24556E-9	 	25485.86	34.6766	 
730.0	1.0	0.0	7.539	7.32293	-7.46809	17.37412	24.52088	1.33305	0.75016	146.45936	140.46664	55.21672	0.32622	 	2.559943798E9	 	1.91259E-9	 	25312.352	34.7016	 
725.0	1.0	0.0	7.54115	7.32085	-7.49444	17.35761	24.45564	1.32995	0.75191	146.95038	140.77431	55.41026	0.32602	 	2.995525221E9	 	1.62633E-9	 	25138.7	34.7304	 
720.0	1.0	0.0	7.5433	7.31876	-7.52075	17.3411	24.3904	1.32683	0.75368	147.4406	141.0805	55.60356	0.32582	 	3.510961443E9	 	1.38062E-9	 	24964.884	34.7632	 
715.0	1.0	0.0	7.54544	7.31669	-7.54702	17.3246	24.32516	1.32369	0.75547	147.93001	141.38522	55.79661	0.32562	 	4.12192734E9	 	1.17006E-9	 	24790.885	34.7998	 
710.0	1.0	0.0	7.54758	7.31461	-7.57324	17.3081	24.25991	1.32053	0.75727	148.4186	141.68845	55.98941	0.32542	 	4.847375575E9	 	9.89919E-10	 	24616.679	34.8412	 
705.0	1.0	0.0	7.54972	7.31254	-7.59941	17.29161	24.19466	1.31736	0.7591	148.90636	141.99018	56.18195	0.32522	 	5.710263732E9	 	8.36057E-10	 	24442.245	34.8868	 
700.0	1.0	0.0	7.55185	7.31047	-7.62554	17.27513	24.12941	1.31417	0.76094	149.39327	142.29042	56.37424	0.32501	 	6.738451964E9	 	7.04866E-10	 	24267.554	34.9382	 
695.0	1.0	0.0	7.55399	7.30841	-7.65162	17.25866	24.06416	1.31096	0.7628	149.87932	142.58914	56.56625	0.32481	 	7.965813304E9	 	5.93197E-10	 	24092.581	34.9946	 
690.0	1.0	0.0	7.55612	7.30635	-7.67766	17.24219	23.99891	1.30774	0.76468	150.36449	142.88635	56.758	0.32461	 	9.433609734E9	 	4.98314E-10	 	23917.295	35.0572	 
685.0	1.0	0.0	7.55825	7.30429	-7.70365	17.22573	23.93365	1.30449	0.76658	150.84877	143.18204	56.94946	0.32441	 	1.11922E10	 	4.17835E-10	 	23741.663	35.1264	 
680.0	1.0	0.0	7.56037	7.30224	-7.7296	17.20928	23.86839	1.30124	0.7685	151.33216	143.47619	57.14065	0.32421	 	1.3303199999999998E10	 	3.49698E-10	 	23565.651	35.2024	 
675.0	1.0	0.0	7.56249	7.30019	-7.7555	17.19283	23.80312	1.29796	0.77044	151.81463	143.76881	57.33155	0.32401	 	1.5841999999999998E10	 	2.92115E-10	 	23389.219	35.2864	 
670.0	1.0	0.0	7.56461	7.29814	-7.78136	17.17639	23.73786	1.29466	0.7724	152.29618	144.05988	57.52215	0.3238	 	1.89013E10	 	2.43543E-10	 	23212.327	35.3784	 
665.0	1.0	0.0	7.56673	7.2961	-7.80717	17.15996	23.67258	1.29135	0.77438	152.77678	144.3494	57.71246	0.3236	 	2.2595E10	 	2.0265E-10	 	23034.928	35.4798	 
660.0	1.0	0.0	7.56885	7.29406	-7.83294	17.14353	23.60731	1.28802	0.77639	153.25643	144.63736	57.90247	0.3234	 	2.7063799999999996E10	 	1.68286E-10	 	22856.973	35.591	 
655.0	1.0	0.0	7.57096	7.29202	-7.85866	17.12711	23.54203	1.28467	0.77841	153.73512	144.92375	58.09217	0.3232	 	3.2481199999999996E10	 	1.39467E-10	 	22678.406	35.7134	 
650.0	1.0	0.0	7.57307	7.28999	-7.88433	17.1107	23.47675	1.2813	0.78046	154.21283	145.20857	58.28156	0.323	 	3.90622E10	 	1.15346E-10	 	22499.166	35.848	 
645.0	1.0	0.0	7.57518	7.28796	-7.90996	17.09429	23.41146	1.27792	0.78252	154.68954	145.49181	58.47063	0.3228	 	4.707349999999999E10	 	9.51971E-11	 	22319.187	35.9958	 
640.0	1.0	0.0	7.57728	7.28594	-7.93555	17.07789	23.34616	1.27451	0.78461	155.16525	145.77347	58.65938	0.3226	 	5.684689999999999E10	 	7.84011E-11	 	22138.395	36.1584	 
635.0	1.0	0.0	7.57939	7.28392	-7.96109	17.0615	23.28087	1.27109	0.78673	155.63995	146.05353	58.8478	0.32239	 	6.87957E10	 	6.44293E-11	 	21956.707	36.3376	 
630.0	1.0	0.0	7.58149	7.2819	-7.98659	17.04512	23.21556	1.26765	0.78886	156.11361	146.332	59.03589	0.32219	 	8.34364E10	 	5.28313E-11	 	21774.034	36.5346	 
625.0	1.0	0.0	7.58358	7.27988	-8.01204	17.02874	23.15025	1.26419	0.79102	156.58623	146.60885	59.22364	0.32199	 	1.01416E11	 	4.32245E-11	 	21590.273	36.7522	 
620.0	1.0	0.0	7.58568	7.27787	-8.03744	17.01237	23.08494	1.2607	0.79321	157.0578	146.8841	59.41105	0.32179	 	1.23545E11	 	3.52845E-11	 	21405.311	36.9924	 
615.0	1.0	0.0	7.58777	7.27587	-8.0628	16.996	23.01962	1.2572	0.79542	157.5283	147.15773	59.59812	0.32159	 	1.50846E11	 	2.87368E-11	 	21219.021	37.258	 
610.0	1.0	0.0	7.58986	7.27386	-8.08812	16.97964	22.95429	1.25368	0.79765	157.99772	147.42973	59.78483	0.32139	 	1.84607E11	 	2.33493E-11	 	21031.262	37.5518	 
605.0	1.0	0.0	7.59195	7.27186	-8.11339	16.96329	22.88896	1.25015	0.79991	158.46604	147.7001	59.97118	0.32118	 	2.26454E11	 	1.89267E-11	 	20831.813	39.8898	 
600.0	1.0	0.0	7.59403	7.26987	-8.13862	16.94695	22.82362	1.24659	0.80219	158.93326	147.96884	60.15717	0.32098	 	2.78453E11	 	1.53047E-11	 	20630.239	40.3148	 
595.0	1.0	0.0	7.59612	7.26787	-8.1638	16.93061	22.75827	1.24301	0.8045	159.39936	148.23593	60.3428	0.32078	 	3.43224E11	 	1.23453E-11	 	20430.435	39.9608	 
590.0	1.0	0.0	7.5982	7.26588	-8.18894	16.91428	22.69292	1.23941	0.80684	159.86433	148.50137	60.52806	0.32058	 	4.2411E11	 	9.93331E-12	 	20232.335	39.62	 
585.0	1.0	0.0	7.60027	7.2639	-8.21403	16.89796	22.62755	1.23579	0.8092	160.32816	148.76516	60.71293	0.32038	 	5.25378E11	 	7.9722E-12	 	20035.876	39.2918	 
580.0	1.0	0.0	7.60235	7.26192	-8.23908	16.88164	22.56219	1.23215	0.81159	160.79083	149.02728	60.89743	0.32018	 	6.52493E11	 	6.3817E-12	 	19840.998	38.9756	 
575.0	1.0	0.0	7.60442	7.25994	-8.26408	16.86533	22.49681	1.22848	0.81401	161.25233	149.28774	61.08154	0.31998	 	8.12476E11	 	5.09505E-12	 	19647.647	38.6702	 
570.0	1.0	0.0	7.60649	7.25796	-8.28904	16.84903	22.43143	1.2248	0.81646	161.71266	149.54653	61.26526	0.31977	 	1.01437E12	 	4.05691E-12	 	19455.768	38.3758	 
565.0	1.0	0.0	7.60856	7.25599	-8.31395	16.83273	22.36604	1.2211	0.81894	162.17179	149.80364	61.44859	0.31957	 	1.26985E12	 	3.22149E-12	 	19265.313	38.091	 
560.0	1.0	0.0	7.61062	7.25402	-8.33882	16.81644	22.30065	1.21737	0.82144	162.62971	150.05906	61.63151	0.31937	 	1.59404E12	 	2.551E-12	 	19076.233	37.816	 
555.0	1.0	0.0	7.61268	7.25206	-8.36364	16.80016	22.23524	1.21363	0.82398	163.08643	150.3128	61.81403	0.31917	 	2.00659E12	 	2.01436E-12	 	18888.484	37.5498	 
550.0	1.0	0.0	7.61474	7.2501	-8.38842	16.78388	22.16983	1.20986	0.82654	163.54191	150.56484	61.99614	0.31897	 	2.53311E12	 	1.58603E-12	 	18702.023	37.2922	 
545.0	1.0	0.0	7.6168	7.24814	-8.41316	16.76762	22.10441	1.20607	0.82914	163.99615	150.81518	62.17783	0.31877	 	3.20704E12	 	1.24513E-12	 	18516.81	37.0426	 
540.0	1.0	0.0	7.61885	7.24619	-8.43785	16.75135	22.03899	1.20226	0.83177	164.44914	151.06381	62.35911	0.31857	 	4.07227E12	 	9.74588E-13	 	18332.807	36.8006	 
535.0	1.0	0.0	7.6209	7.24423	-8.4625	16.7351	21.97356	1.19842	0.83443	164.90086	151.31073	62.53996	0.31836	 	5.18645E12	 	7.60516E-13	 	18149.977	36.566	 
530.0	1.0	0.0	7.62295	7.24229	-8.4871	16.71885	21.90812	1.19456	0.83713	165.35131	151.55594	62.72038	0.31816	 	6.62571E12	 	5.91631E-13	 	17968.286	36.3382	 
525.0	1.0	0.0	7.625	7.24034	-8.51166	16.70261	21.84267	1.19068	0.83985	165.80047	151.79942	62.90037	0.31796	 	8.49074E12	 	4.58802E-13	 	17787.702	36.1168	 
520.0	1.0	0.0	7.62704	7.2384	-8.53617	16.68638	21.77722	1.18678	0.84262	166.24833	152.04118	63.07992	0.31776	 	1.09153E13	 	3.54655E-13	 	17608.193	35.9018	 
515.0	1.0	0.0	7.62908	7.23647	-8.56064	16.67015	21.71177	1.18285	0.84541	166.69488	152.28121	63.25902	0.31756	 	1.40776E13	 	2.73254E-13	 	17429.731	35.6924	 
510.0	1.0	0.0	7.63112	7.23454	-8.58506	16.65393	21.6463	1.17891	0.84824	167.1401	152.5195	63.43768	0.31736	 	1.82159E13	 	2.09836E-13	 	17252.287	35.4888	 
505.0	1.0	0.0	7.63316	7.23261	-8.60944	16.63771	21.58083	1.17493	0.85111	167.58399	152.75605	63.61589	0.31716	 	2.365E13	 	1.6059E-13	 	17075.834	35.2906	 
500.0	1.0	0.0	7.63519	7.23068	-8.63378	16.62151	21.51536	1.17094	0.85402	168.02653	152.99086	63.79364	0.31695	 	3.08102E13	 	1.22477E-13	 	16900.349	35.097	 
495.0	1.0	0.0	7.63722	7.22876	-8.65807	16.60531	21.44987	1.16691	0.85696	168.46771	153.22391	63.97093	0.31675	 	4.02783E13	 	9.30811E-14	 	16725.806	34.9086	 
490.0	1.0	0.0	7.63925	7.22684	-8.68231	16.58911	21.38439	1.16287	0.85994	168.90753	153.45521	64.14775	0.31655	 	5.28434E13	 	7.04865E-14	 	16552.183	34.7246	 
485.0	1.0	0.0	7.64127	7.22492	-8.70652	16.57293	21.3189	1.1588	0.86296	169.34596	153.68475	64.3241	0.31635	 	6.95797E13	 	5.31813E-14	 	16379.458	34.545	 
480.0	1.0	0.0	7.6433	7.22301	-8.73068	16.55675	21.2534	1.1547	0.86602	169.783	153.91252	64.49998	0.31615	 	9.19556E13	 	3.99751E-14	 	16207.61	34.3696	 
475.0	1.0	0.0	7.64532	7.2211	-8.75479	16.54057	21.1879	1.15058	0.86912	170.21864	154.13852	64.67538	0.31595	 	1.21986E14	 	2.99341E-14	 	16036.619	34.1982	 
470.0	1.0	0.0	7.64733	7.2192	-8.77886	16.52441	21.12239	1.14644	0.87227	170.65286	154.36276	64.85029	0.31574	 	1.62446E14	 	2.23283E-14	 	15866.468	34.0302	 
465.0	1.0	0.0	7.64935	7.2173	-8.80289	16.50825	21.05688	1.14227	0.87545	171.08566	154.58521	65.02472	0.31554	 	2.17174E14	 	1.65891E-14	 	15697.137	33.8662	 
460.0	1.0	0.0	7.65136	7.2154	-8.82687	16.4921	20.99136	1.13807	0.87868	171.51702	154.80589	65.19865	0.31534	 	2.91505E14	 	1.22754E-14	 	15528.61	33.7054	 
455.0	1.0	0.0	7.65337	7.2135	-8.85081	16.47595	20.92584	1.13385	0.88195	171.94693	155.02478	65.37208	0.31514	 	3.92874E14	 	9.04595E-15	 	15360.869	33.5482	 
450.0	1.0	0.0	7.65538	7.21161	-8.8747	16.45981	20.86032	1.1296	0.88527	172.37539	155.24188	65.54502	0.31494	 	5.3170299999999994E14	 	6.63814E-15	 	15193.901	33.3936	 
445.0	1.0	0.0	7.65738	7.20973	-8.89855	16.44368	20.79479	1.12533	0.88863	172.80237	155.45718	65.71745	0.31474	 	7.22653E14	 	4.85034E-15	 	15027.689	33.2424	 
440.0	1.0	0.0	7.65938	7.20784	-8.92236	16.42756	20.72926	1.12102	0.89204	173.22788	155.6707	65.88936	0.31454	 	9.86448E14	 	3.52853E-15	 	14862.219	33.094	 
435.0	1.0	0.0	7.66138	7.20596	-8.94612	16.41144	20.66372	1.11669	0.8955	173.65189	155.88241	66.06077	0.31433	 	1.35251E15	 	2.55547E-15	 	14697.477	32.9484	 
430.0	1.0	0.0	7.66338	7.20408	-8.96984	16.39533	20.59818	1.11234	0.89901	174.07441	156.09231	66.23165	0.31413	 	1.86283E15	 	1.84231E-15	 	14533.451	32.8052	 
425.0	1.0	0.0	7.66537	7.20221	-8.99351	16.37922	20.53264	1.10795	0.90256	174.49541	156.30041	66.40201	0.31393	 	2.57756E15	 	1.32198E-15	 	14370.127	32.6648	 
420.0	1.0	0.0	7.66736	7.20034	-9.01715	16.36312	20.46709	1.10354	0.90617	174.91489	156.5067	66.57185	0.31373	 	3.58339E15	 	9.44104E-16	 	14207.494	32.5266	 
415.0	1.0	0.0	7.66935	7.19847	-9.04073	16.34703	20.40154	1.0991	0.90983	175.33284	156.71117	66.74115	0.31353	 	5.00578E15	 	6.70962E-16	 	14045.54	32.3908	 
410.0	1.0	0.0	7.67134	7.19661	-9.06428	16.33095	20.33599	1.09463	0.91355	175.74924	156.91383	66.90992	0.31333	 	7.02729E15	 	4.74477E-16	 	13884.254	32.2572	 
405.0	1.0	0.0	7.67332	7.19475	-9.08777	16.31487	20.27043	1.09014	0.91732	176.1641	157.11467	67.07815	0.31313	 	9.91492E15	 	3.33828E-16	 	13723.625	32.1258	 
400.0	1.0	0.0	7.6753	7.19289	-9.11123	16.2988	20.20487	1.08561	0.92114	176.57739	157.31368	67.24584	0.31292	 	1.40612E16	 	2.33655E-16	 	13563.643	31.9964	 
395.0	1.0	0.0	7.67728	7.19104	-9.13464	16.28274	20.13931	1.08105	0.92502	176.98911	157.51087	67.41298	0.31272	 	2.00467E16	 	1.62674E-16	 	13404.297	31.8692	 
390.0	1.0	0.0	7.67925	7.18919	-9.15801	16.26668	20.07374	1.07647	0.92896	177.39925	157.70623	67.57956	0.31252	 	2.87339E16	 	1.12643E-16	 	13245.579	31.7436	 
385.0	1.0	0.0	7.68122	7.18735	-9.18134	16.25063	20.00817	1.07185	0.93296	177.8078	157.89976	67.7456	0.31232	 	4.14128E16	 	7.7567E-17	 	13087.48	31.6198	 
380.0	1.0	0.0	7.68319	7.1855	-9.20462	16.23459	19.94259	1.06721	0.93702	178.21475	158.09145	67.91107	0.31212	 	6.00228E16	 	5.31109E-17	 	12929.989	31.4982	 
375.0	1.0	0.0	7.68516	7.18366	-9.22785	16.21856	19.87701	1.06253	0.94115	178.62009	158.28131	68.07598	0.31192	 	8.74976E16	 	3.61548E-17	 	12773.1	31.3778	 
370.0	1.0	0.0	7.68712	7.18183	-9.25105	16.20253	19.81143	1.05783	0.94534	179.02381	158.46933	68.24033	0.31172	 	1.28301E17	 	2.44663E-17	 	12616.803	31.2594	 
365.0	1.0	0.0	7.68909	7.18	-9.2742	16.1865	19.74584	1.05309	0.94959	179.4259	158.65552	68.4041	0.31151	 	1.8927E17	 	1.64561E-17	 	12461.092	31.1422	 
360.0	1.0	0.0	7.69104	7.17817	-9.2973	16.17049	19.68025	1.04832	0.95391	179.82636	158.83986	68.56731	0.31131	 	2.80938E17	 	1.09998E-17	 	12305.957	31.027	 
355.0	1.0	0.0	7.693	7.17634	-9.32037	16.15448	19.61466	1.04352	0.9583	180.22518	159.02236	68.72993	0.31111	 	4.19642E17	 	7.30585E-18	 	12151.392	30.913	 
350.0	1.0	0.0	7.69495	7.17452	-9.34339	16.13848	19.54906	1.03869	0.96275	180.62234	159.20301	68.89198	0.31091	 	6.3089E17	 	4.82087E-18	 	11997.39	30.8004	 
345.0	1.0	0.0	7.69691	7.1727	-9.36636	16.12249	19.48346	1.03382	0.96728	181.01784	159.38182	69.05344	0.31071	 	9.54779E17	 	3.15993E-18	 	11843.944	30.6892	 
340.0	1.0	0.0	7.69885	7.17089	-9.3893	16.1065	19.41785	1.02892	0.97189	181.41167	159.55878	69.21431	0.31051	 	1.45477E18	 	2.05711E-18	 	11691.047	30.5794	 
335.0	1.0	0.0	7.7008	7.16908	-9.41219	16.09052	19.35224	1.02399	0.97657	181.80382	159.73389	69.37459	0.31031	 	2.23205E18	 	1.32982E-18	 	11538.693	30.4708	 
330.0	1.0	0.0	7.70274	7.16727	-9.43503	16.07454	19.28662	1.01903	0.98133	182.19429	159.90715	69.53428	0.3101	 	3.44909E18	 	8.53509E-19	 	11386.876	30.3634	 
325.0	1.0	0.0	7.70468	7.16546	-9.45784	16.05858	19.221	1.01403	0.98616	182.58307	160.07857	69.69337	0.3099	 	5.36873E18	 	5.43783E-19	 	11235.589	30.2574	 
320.0	1.0	0.0	7.70662	7.16366	-9.4806	16.04261	19.15538	1.009	0.99108	182.97015	160.24813	69.85187	0.3097	 	8.41951E18	 	3.43846E-19	 	11084.828	30.1522	 
315.0	1.0	0.0	7.70855	7.16187	-9.50331	16.02666	19.08975	1.00394	0.99608	183.35553	160.41585	70.00976	0.3095	 	1.33055E19	 	2.15746E-19	 	10934.586	30.0484	 
310.0	1.0	0.0	7.71048	7.16007	-9.52598	16.01071	19.02411	0.99883	1.00117	183.73919	160.58171	70.16704	0.3093	 	2.1193E19	 	1.34299E-19	 	10784.857	29.9458	 
305.0	1.0	0.0	7.71241	7.15828	-9.54861	15.99477	18.95847	0.9937	1.00634	184.12113	160.74573	70.32372	0.3091	 	3.40297E19	 	8.29219E-20	 	10635.638	29.8438	 
300.0	1.0	0.0	7.71434	7.15649	-9.5712	15.97884	18.89283	0.98853	1.0116	184.50135	160.90789	70.47979	0.3089	 	5.50957E19	 	5.07735E-20	 	10486.922	29.7432	 
295.0	1.0	0.0	7.71626	7.15471	-9.59374	15.96292	18.82718	0.98332	1.01696	184.87984	161.06821	70.63524	0.30869	 	8.99637E19	 	3.08235E-20	 	10338.705	29.6434	 
290.0	1.0	0.0	7.71818	7.15293	-9.61625	15.947	18.76152	0.97808	1.02241	185.25659	161.22668	70.79008	0.30849	 	1.48185E20	 	1.85484E-20	 	10190.983	29.5444	 
285.0	1.0	0.0	7.7201	7.15115	-9.6387	15.93108	18.69586	0.9728	1.02796	185.6316	161.38331	70.9443	0.30829	 	2.4628099999999997E20	 	1.10613E-20	 	10043.75	29.4466	 
280.0	1.0	0.0	7.72202	7.14938	-9.66112	15.91518	18.6302	0.96748	1.03361	186.00486	161.53809	71.0979	0.30809	 	4.1309699999999997E20	 	6.53548E-21	 	9897.003	29.3494	 
275.0	1.0	0.0	7.72393	7.14761	-9.68349	15.89928	18.56453	0.96213	1.03936	186.37637	161.69103	71.25087	0.30789	 	6.994819999999999E20	 	3.82481E-21	 	9750.736	29.2534	 
270.0	1.0	0.0	7.72584	7.14584	-9.70582	15.88339	18.49885	0.95674	1.04522	186.74613	161.84213	71.40323	0.30769	 	1.19596E21	 	2.21661E-21	 	9604.947	29.1578	 
265.0	1.0	0.0	7.72775	7.14408	-9.7281	15.8675	18.43317	0.95131	1.05118	187.11413	161.99139	71.55495	0.30749	 	2.0653400000000001E21	 	1.27174E-21	 	9459.631	29.0632	 
260.0	1.0	0.0	7.72965	7.14232	-9.75034	15.85162	18.36748	0.94584	1.05726	187.48037	162.13881	71.70605	0.30728	 	3.6034700000000003E21	 	7.2213E-22	 	9314.784	28.9694	 
255.0	1.0	0.0	7.73155	7.14056	-9.77254	15.83575	18.30179	0.94033	1.06345	187.84484	162.28441	71.85653	0.30708	 	6.35377E21	 	4.05707E-22	 	9170.404	28.876	 
250.0	1.0	0.0	7.73345	7.1388	-9.7947	15.81989	18.23609	0.93479	1.06976	188.20755	162.42818	72.00637	0.30688	 	1.1325399999999998E22	 	2.25454E-22	 	9026.485	28.7838	 
245.0	1.0	0.0	7.73535	7.13705	-9.81681	15.80403	18.17039	0.9292	1.0762	188.56849	162.57012	72.15558	0.30668	 	2.0414E22	 	1.23884E-22	 	8883.026	28.6918	 
240.0	1.0	0.0	7.73724	7.13531	-9.83888	15.78818	18.10468	0.92357	1.08275	188.92765	162.71025	72.30416	0.30648	 	3.7221099999999996E22	 	6.72886E-23	 	8740.023	28.6006	 
235.0	1.0	0.0	7.73913	7.13356	-9.86091	15.77234	18.03896	0.91791	1.08944	189.28505	162.84856	72.45211	0.30628	 	6.86735E22	 	3.61151E-23	 	8597.473	28.51	 
230.0	1.0	0.0	7.74102	7.13182	-9.8829	15.7565	17.97324	0.9122	1.09625	189.64067	162.98506	72.59942	0.30608	 	1.2825599999999998E23	 	1.91472E-23	 	8455.372	28.4202	 
225.0	1.0	0.0	7.74291	7.13009	-9.90484	15.74067	17.90751	0.90645	1.10321	189.99452	163.11976	72.74611	0.30587	 	2.4255999999999997E23	 	1.00237E-23	 	8313.72	28.3304	 
220.0	1.0	0.0	7.74479	7.12836	-9.92674	15.72485	17.84178	0.90066	1.1103	190.34661	163.25266	72.89215	0.30567	 	4.6469999999999994E23	 	5.17956E-24	 	8172.512	28.2416	 
215.0	1.0	0.0	7.74667	7.12663	-9.9486	15.70903	17.77604	0.89482	1.11754	190.69692	163.38377	73.03757	0.30547	 	9.02223E23	 	2.64074E-24	 	8031.746	28.1532	 
210.0	1.0	0.0	7.74855	7.1249	-9.97041	15.69322	17.71029	0.88894	1.12493	191.04546	163.5131	73.18236	0.30527	 	1.77591E24	 	1.32784E-24	 	7891.421	28.065	 
205.0	1.0	0.0	7.75042	7.12318	-9.99218	15.67742	17.64454	0.88302	1.13247	191.39224	163.64065	73.32651	0.30507	 	3.5455400000000003E24	 	6.58215E-25	 	7751.534	27.9774	 
200.0	1.0	0.0	7.75229	7.12146	-10.01391	15.66162	17.57878	0.87706	1.14018	191.73727	163.76644	73.47003	0.30487	 	7.18278E24	 	3.21509E-25	 	7612.083	27.8902	 
195.0	1.0	0.0	7.75416	7.11974	-10.0356	15.64583	17.51302	0.87105	1.14804	192.08053	163.89047	73.61293	0.30467	 	1.4772500000000002E25	 	1.54674E-25	 	7473.066	27.8034	 
190.0	1.0	0.0	7.75603	7.11803	-10.05724	15.63005	17.44725	0.86499	1.15608	192.42204	164.01276	73.75519	0.30446	 	3.08588E25	 	7.32537E-26	 	7334.482	27.7168	 
185.0	1.0	0.0	7.75789	7.11632	-10.07884	15.61427	17.38147	0.85889	1.16429	192.76181	164.13331	73.89684	0.30426	 	6.550720000000001E25	 	3.41354E-26	 	7196.33	27.6304	 
180.0	1.0	0.0	7.75975	7.11461	-10.1004	15.59851	17.31568	0.85275	1.17268	193.09985	164.25214	74.03786	0.30406	 	1.4138900000000001E26	 	1.56428E-26	 	7058.607	27.5446	 
175.0	1.0	0.0	7.76161	7.11291	-10.12192	15.58274	17.24989	0.84655	1.18126	193.43615	164.36925	74.17826	0.30386	 	3.10455E26	 	7.0455E-27	 	6921.313	27.4588	 
170.0	1.0	0.0	7.76346	7.11121	-10.14339	15.56699	17.18409	0.84031	1.19003	193.77074	164.48466	74.31804	0.30366	 	6.93892E26	 	3.11706E-27	 	6784.448	27.373	 
165.0	1.0	0.0	7.76532	7.10951	-10.16482	15.55124	17.11829	0.83403	1.199	194.10361	164.59839	74.45721	0.30346	 	1.57964E27	 	1.35379E-27	 	6648.009	27.2878	 
160.0	1.0	0.0	7.76716	7.10782	-10.18621	15.5355	17.05248	0.82769	1.20818	194.43479	164.71045	74.59578	0.30326	 	3.665E27	 	5.76834E-28	 	6511.998	27.2022	 
155.0	1.0	0.0	7.76901	7.10613	-10.20756	15.51977	16.98666	0.82131	1.21757	194.76428	164.82086	74.73374	0.30305	 	8.672179999999999E27	 	2.40965E-28	 	6376.413	27.117	 
150.0	1.0	0.0	7.77085	7.10445	-10.22886	15.50404	16.92083	0.81487	1.22718	195.0921	164.92963	74.8711	0.30285	 	2.09423E28	 	9.86183E-29	 	6241.254	27.0318	 
145.0	1.0	0.0	7.7727	7.10276	-10.25012	15.48832	16.855	0.80839	1.23703	195.41827	165.03678	75.00787	0.30265	 	5.16508E28	 	3.95132E-29	 	6106.522	26.9464	 
140.0	1.0	0.0	7.77453	7.10108	-10.27134	15.4726	16.78916	0.80186	1.24711	195.7428	165.14234	75.14405	0.30245	 	1.3020300000000002E29	 	1.54872E-29	 	5972.216	26.8612	 
135.0	1.0	0.0	7.77637	7.09941	-10.29252	15.4569	16.72331	0.79527	1.25743	196.06572	165.24631	75.27966	0.30225	 	3.3574E29	 	5.9334E-30	 	5838.338	26.7756	 
130.0	1.0	0.0	7.7782	7.09774	-10.31365	15.4412	16.65746	0.78863	1.26801	196.38703	165.34873	75.41469	0.30205	 	8.863190000000001E29	 	2.22005E-30	 	5704.888	26.69	 
125.0	1.0	0.0	7.78003	7.09607	-10.33474	15.4255	16.5916	0.78195	1.27886	196.70677	165.44962	75.54916	0.30185	 	2.39755E30	 	8.10525E-31	 	5571.867	26.6042	 
120.0	1.0	0.0	7.78186	7.0944	-10.3558	15.40982	16.52573	0.7752	1.28998	197.02496	165.549	75.68307	0.30164	 	6.65176E30	 	2.88475E-31	 	5439.276	26.5182	 
115.0	1.0	0.0	7.78368	7.09274	-10.3768	15.39414	16.45985	0.76841	1.30139	197.34163	165.6469	75.81644	0.30144	 	1.89463E31	 	9.99911E-32	 	5307.118	26.4316	 
110.0	1.0	0.0	7.7855	7.09108	-10.39777	15.37847	16.39396	0.76156	1.3131	197.6568	165.74335	75.94928	0.30124	 	5.545979999999999E31	 	3.37192E-32	 	5175.394	26.3448	 
105.0	1.0	0.0	7.78732	7.08942	-10.41869	15.3628	16.32807	0.75465	1.32511	197.9705	165.83838	76.08159	0.30104	 	1.6701899999999998E32	 	1.10506E-32	 	5044.107	26.2574	 
100.0	1.0	0.0	7.78914	7.08777	-10.43958	15.34714	16.26217	0.74769	1.33745	198.28278	165.93202	76.2134	0.30084	 	5.18068E32	 	3.51547E-33	 	4913.258	26.1698	 
95.0	1.0	0.0	7.79095	7.08612	-10.46042	15.33149	16.19626	0.74068	1.35012	198.59366	166.02431	76.34471	0.30064	 	1.65715E33	 	1.0843E-33	 	4782.852	26.0812	 
90.0	1.0	0.0	7.79276	7.08447	-10.48121	15.31584	16.13035	0.7336	1.36314	198.90319	166.11528	76.47554	0.30044	 	5.4732E33	 	3.23841E-34	 	4652.89	25.9924	 
85.0	1.0	0.0	7.79457	7.08283	-10.50197	15.3002	16.06442	0.72647	1.37652	199.2114	166.20498	76.60591	0.30024	 	1.8690000000000002E34	 	9.35282E-35	 	4523.378	25.9024	 
80.0	1.0	0.0	7.79637	7.08119	-10.52268	15.28457	15.99849	0.71928	1.39028	199.51835	166.29344	76.73583	0.30003	 	6.60816E34	 	2.60835E-35	 	4394.319	25.8118	 
75.0	1.0	0.0	7.79817	7.07956	-10.54335	15.26895	15.93255	0.71203	1.40443	199.82408	166.38071	76.86532	0.29983	 	2.4227399999999998E35	 	7.0137E-36	 	4265.718	25.7202	 
70.0	1.0	0.0	7.79997	7.07792	-10.56398	15.25333	15.8666	0.70472	1.419	200.12866	166.46684	76.99441	0.29963	 	9.22517E35	 	1.8155E-36	 	4137.58	25.6276	 
65.0	1.0	0.0	7.80177	7.07629	-10.58457	15.23772	15.80064	0.69735	1.43399	200.43212	166.55188	77.12311	0.29943	 	3.65439E36	 	4.51629E-37	 	4009.91	25.534	 
60.0	1.0	0.0	7.80356	7.07467	-10.60512	15.22212	15.73467	0.68992	1.44944	200.73454	166.63589	77.25145	0.29923	 	1.50869E37	 	1.07777E-37	 	3882.715	25.439	 
55.0	1.0	0.0	7.80535	7.07305	-10.62562	15.20652	15.66869	0.68243	1.46535	201.03599	166.71891	77.37945	0.29903	 	6.50356E37	 	2.46268E-38	 	3756.001	25.3428	 
50.0	1.0	0.0	7.80714	7.07143	-10.64609	15.19093	15.60271	0.67487	1.48176	201.33653	166.80102	77.50714	0.29883	 	2.93318E38	 	5.37715E-39	 	3629.776	25.245	 
45.0	1.0	0.0	7.80892	7.06981	-10.66651	15.17535	15.53671	0.66725	1.49868	201.63624	166.88229	77.63456	0.29862	 	1.38704E39	 	1.11952E-39	 	3504.048	25.1456	 
40.0	1.0	0.0	7.81071	7.0682	-10.68689	15.15977	15.47071	0.65957	1.51614	201.93522	166.96278	77.76173	0.29842	 	6.89264E39	 	2.21745E-40	 	3378.825	25.0446	 
35.0	1.0	0.0	7.81249	7.06659	-10.70722	15.1442	15.4047	0.65182	1.53417	202.23353	167.04257	77.88868	0.29822	 	3.6081E40	 	4.16841E-41	 	3254.118	24.9414	 
30.0	1.0	0.0	7.81426	7.06498	-10.72752	15.12864	15.33867	0.644	1.55279	202.5313	167.12175	78.01546	0.29802	 	1.99474E41	 	7.41752E-42	 	3129.936	24.8364	 
25.0	1.0	0.0	7.81603	7.06338	-10.74777	 	15.27264	0.63612	1.57203	202.82861	167.2004	78.14211	0.29782	 	1.1678899999999999E42	 	1.24601E-42	 	3006.291	 	 
