T (C)	Fraction solid (wt)-TOTAL	Fraction liquid (wt)-LIQUID	Density (g/(cm)^3)-TOTAL	Molar volume (cm^3)-TOTAL	Volume change (%)-  	Average expansion coeff. (10e-6 1/K)-  	Thermal conductivity (W/(m*K))-TOTAL	Electrical resistivity (10e-6 Ohm*m)-TOTAL	Electrical conductivity (10e6 1/(Ohm*m))-TOTAL	Young's modulus (GPa)-TOTAL	Bulk modulus (GPa)-TOTAL	Shear modulus(GPa)-TOTAL	Poisson's ratio-TOTAL	Liquid viscosity (mPa s)-  	Total viscosity (mPa s)-  	Liquid diffusivity (10e-9 (m^2)/s)-  	Total diffusivity (10e-9 (m^2)/s)-  	Surface Tension (mN/m)-  	Enthalpy (J/mole)-TOTAL	Specific heat (J/(mole K))-TOTAL	Latent heat (J/mole)-TOTAL
1500.0	0.0	1.0	6.88095	7.9295	0.0	25.21483	31.89504	1.81151	0.55203	0.0	101.53539	0.0	0.49966	6.72894	6.72894	1.28613	1.28613	1743.57855	65670.221	 	0.0
1495.0	0.0	1.0	6.88477	7.92511	-0.0553945	25.16097	31.81662	1.81085	0.55223	0.0	101.71846	0.0	0.49966	6.78621	6.78621	1.27168	1.27168	1745.54259	65447.778	44.4886	0.0
1490.0	0.0	1.0	6.88857	7.92073	-0.11064	25.10713	31.73819	1.81019	0.55243	0.0	101.90153	0.0	0.49966	6.84431	6.84431	1.25732	1.25732	1747.51097	65225.937	44.3682	0.0
1485.0	0.0	1.0	6.89238	7.91636	-0.16572	25.05331	31.65976	1.80953	0.55263	0.0	102.0846	0.0	0.49966	6.90323	6.90323	1.24305	1.24305	1749.48361	65004.693	44.2488	0.0
1481.51	0.0	1.0	6.89503	7.91332	-0.20412	25.01571	31.60498	1.80907	0.55277	0.0	102.2125	0.0	0.49966	6.94489	6.94489	1.23314	1.23314	1750.86425	64850.47	44.1505	0.0090
1480.0	0.0677402	0.93226	6.90795	7.8986	-0.38968	24.56907	31.70156	1.80201	0.55494	8.13128E-4	98.71021	2.72906E-4	0.48976	6.95014	7.66777	1.23115	1.11593	1749.54809	64061.75	523.413	722.286
1475.0	0.24987	0.75013	6.94337	7.85828	-0.8982	23.35437	31.95417	1.78266	0.56096	0.15531	89.32354	0.0530851	0.46288	6.96821	24.64301	1.22446	0.34624	1745.79753	61905.478	431.254	2658.495
1470.0	0.38055	0.61945	6.96983	7.82853	-1.27341	22.47305	32.12522	1.7681	0.56558	0.85673	82.66209	0.29678	0.44335	6.98642	97.5628	1.21777	0.0872042	1742.76506	60306.071	319.881	4038.422
1465.0	0.47814	0.52186	6.99039	7.8056	-1.56257	21.80705	32.2425	1.75661	0.56928	2.18074	77.77274	0.76324	0.42861	7.00515	241.18891	1.21103	0.0351736	1740.29759	59065.388	248.137	5060.206
1460.0	0.55329	0.44671	7.00696	7.78735	-1.79269	21.28885	32.32288	1.7472	0.57234	3.98448	74.09537	1.40582	0.41714	7.02409	448.56518	1.20429	0.0188581	1738.28178	58067.676	199.542	5839.591
1455.0	0.61262	0.38738	7.02069	7.77235	-1.98185	20.87317	32.37637	1.73929	0.57495	6.0915	71.27826	2.16317	0.408	7.04313	707.1016	1.19757	0.0119285	1736.63284	57241.005	165.334	6448.506
1450.0	0.66044	0.33956	7.03234	7.75969	-2.14154	20.53118	32.40972	1.73247	0.57721	8.3577	69.09103	2.98369	0.40057	7.06219	1005.24821	1.19089	0.00836636	1735.28587	56538.646	140.472	6933.677
1445.0	0.69962	0.30038	7.04242	7.7488	-2.27888	20.24509	32.42777	1.72648	0.57921	10.68062	67.37808	3.82979	0.39441	7.08122	1334.13556	1.18424	0.00628562	1734.18962	55929.065	121.916	7326.631
1440.0	0.7322	0.2678	7.05127	7.73931	-2.39849	20.00342	32.43406	1.72112	0.58102	12.99306	66.03051	4.67629	0.38925	7.10049	1687.57699	1.17759	0.00495471	1733.30231	55390.294	107.754	7649.335
1435.0	0.75961	0.24039	7.05918	7.73089	-2.50479	19.79503	32.43091	1.71627	0.58266	15.25315	64.96925	5.50711	0.38486	7.11964	2061.39501	1.17099	0.00404438	1732.59279	54906.608	96.7372	7917.509
1430.0	0.78292	0.21708	7.06632	7.72331	-2.60035	19.61347	32.42018	1.71181	0.58418	17.43642	64.13666	6.31257	0.38109	7.13865	2453.02186	1.16446	0.00338874	1732.03442	54466.49	88.0236	8142.665
1425.0	0.80294	0.19706	7.07283	7.71643	-2.68703	19.4541	32.40334	1.70767	0.58559	19.53068	63.48901	7.08757	0.37781	7.1578	2861.15026	1.15793	0.00289682	1731.60501	54061.327	81.0326	8333.411
1420.0	0.82027	0.17973	7.07884	7.71012	-2.76669	19.31225	32.38139	1.7038	0.58692	21.53068	62.99303	7.82965	0.37495	7.17677	3285.17113	1.15147	0.0025155	1731.28739	53684.568	75.3518	8496.296
1416.87	0.83013	0.16987	7.08248	7.70634	-2.81429	19.229	32.36595	1.70145	0.58773	22.75678	62.73903	8.28546	0.3733	7.18846	3562.1638	1.14747	0.0023156	1731.13509	53459.488	 	8587.633
1415.0	0.83769	0.16231	7.08555	7.70315	-2.85459	19.1474	32.36037	1.69987	0.58828	23.72092	62.50588	8.64432	0.37205	7.19643	3770.15453	1.14493	0.00218544	1731.13134	53303.62	76.1896	8663.909
1410.0	0.85563	0.14437	7.09309	7.69537	-2.95273	18.95399	32.34106	1.69585	0.58968	26.17187	62.00842	9.55827	0.36907	7.21775	4334.62272	1.13817	0.00189521	1731.20071	52912.463	78.2314	8842.265
1405.0	0.87063	0.12937	7.09979	7.68847	-3.03966	18.78925	32.31583	1.69213	0.59097	28.42296	61.67127	10.39967	0.36653	7.23859	4905.58777	1.13152	0.00166965	1731.36184	52554.323	71.628	8988.134
1400.0	0.88333	0.11667	7.10581	7.68231	-3.11737	18.64817	32.28598	1.68865	0.59219	30.49553	61.46149	11.17586	0.36435	7.25937	5485.33002	1.12492	0.00148874	1731.59961	52221.876	66.4894	9108.835
1395.0	0.89419	0.10581	7.11129	7.67674	-3.18768	18.52608	32.25243	1.68535	0.59335	32.40958	61.35471	11.89385	0.36245	7.28017	6076.20638	1.11836	0.00133995	1731.90277	51909.763	62.4226	9209.724
1392.85	0.89794	0.10206	7.1133	7.67463	-3.21426	18.48312	32.236	1.68404	0.59381	33.11864	61.35577	12.16005	0.36178	7.28892	6319.77581	1.11558	0.00128665	1732.04879	51783.876	 	9245.139
1390.0	0.92441	0.0755909	7.12134	7.66608	-3.32202	18.22926	32.24679	1.68059	0.59503	37.75059	60.45917	13.90666	0.35728	7.34009	7401.3569	1.1059	0.00109675	1731.2868	51314.642	119.024	9594.139
1385.0	0.95068	0.0493224	7.13052	7.65635	-3.44482	17.96173	32.23386	1.67621	0.59658	43.03558	59.77664	15.90713	0.35271	7.43462	8807.64691	1.08856	9.18863E-4	1730.44718	50763.916	110.145	9934.675
1380.0	0.96496	0.0350381	7.13677	7.64973	-3.52822	17.79996	32.20187	1.67282	0.59779	46.36233	59.62572	17.16962	0.35013	7.53302	9886.73908	1.0711	8.16105E-4	1729.90742	50373.763	78.0306	10115.148
1375.0	0.97382	0.0261758	7.1417	7.64452	-3.59394	17.6855	32.16118	1.66987	0.59885	48.71418	59.71735	18.06317	0.34844	7.63412	10819.11921	1.05372	7.43518E-4	1729.56912	50056.062	63.5402	10223.678
1370.0	0.97981	0.0201897	7.14591	7.64006	-3.65016	17.59638	32.1159	1.66715	0.59983	50.52061	59.93938	18.7498	0.34723	7.73815	11685.23094	1.0364	6.8632E-4	1729.36968	49776.763	55.8598	10294.31
1365.0	0.9841	0.0158988	7.14971	7.63605	-3.70078	17.52205	32.0679	1.66457	0.60076	51.99536	60.23963	19.3104	0.3463	7.84416	12526.24665	1.01928	6.38292E-4	1729.27299	49520.126	51.3274	10342.781
1360.0	0.98732	0.0126849	7.15324	7.63232	-3.74779	17.4572	32.01818	1.66206	0.60166	53.25501	60.59084	19.78918	0.34556	7.95257	13365.88733	1.00232	5.96369E-4	1729.25472	49277.944	48.4364	10377.294
1355.0	0.9898	0.0101954	7.15659	7.62879	-3.7923	17.39883	31.96732	1.65961	0.60255	54.36845	60.97744	20.21231	0.34493	8.06291	14219.27197	0.98557	5.58861E-4	1729.2954	49045.536	46.4816	10402.527
1350.0	0.99179	0.00821439	7.15981	7.6254	-3.83505	17.34494	31.91565	1.65719	0.60343	55.37934	61.38971	20.5964	0.34439	8.17506	15097.25997	0.96907	5.24744E-4	1729.38478	48820.052	45.0968	10421.329
1345.0	0.9934	0.00660417	7.16292	7.62212	-3.87644	17.29446	31.86339	1.6548	0.6043	56.31525	61.82164	20.95191	0.34392	8.28935	16007.6644	0.95276	4.93375E-4	1729.51152	48599.659	44.0786	10435.525
1340.0	0.99473	0.00527162	7.16596	7.61892	-3.91679	17.24653	31.8107	1.65242	0.60517	57.19542	62.26906	21.2862	0.34349	8.40528	16957.18292	0.93672	4.6431E-4	1729.66987	48383.132	43.3054	10446.34
1335.0	0.99585	0.0041515	7.16894	7.61579	-3.95628	17.20065	31.75768	1.65004	0.60604	58.03362	62.72901	21.60449	0.34309	8.52323	17951.76284	0.92089	4.37226E-4	1729.85245	48169.619	42.7026	10454.623
1330.0	0.9968	0.00319826	7.17186	7.61271	-3.9951	17.15633	31.7044	1.64768	0.60691	58.8394	63.19943	21.91045	0.34272	8.64282	18996.57789	0.90533	4.11894E-4	1730.05702	47958.511	42.2216	10460.978
1325.0	0.99762	0.00237875	7.17475	7.60968	-4.03333	17.11335	31.65087	1.64532	0.60779	59.62009	63.67873	22.20685	0.34238	8.76436	20096.93074	0.88999	3.88128E-4	1730.27836	47749.362	41.8298	10465.849
1320.0	0.99833	0.00166603	7.1776	7.60669	-4.07106	17.07148	31.59717	1.64296	0.60866	60.38109	64.16575	22.49576	0.34206	8.88745	21257.8989	0.87492	3.65783E-4	1730.51516	47541.836	41.5052	10469.569
1315.0	0.99896	0.00104145	7.18042	7.60373	-4.10833	17.03061	31.54332	1.6406	0.60953	61.1262	64.65962	22.77863	0.34174	9.01255	22484.55956	0.86006	3.44742E-4	1730.7634	47335.678	41.2316	10472.388
1310.0	0.99951	4.89973E-4	7.18321	7.60081	-4.14521	16.99053	31.48935	1.63823	0.61041	61.85899	65.15958	23.05682	0.34145	9.13959	23782.30851	0.84544	3.24904E-4	1731.02188	47130.69	40.9976	10474.504
1305.0	1.0	0.0	7.18597	7.59791	-4.18173	16.95116	31.43528	1.63587	0.6113	62.58194	65.66504	23.3313	0.34116	 	25156.67246	 	3.06184E-4	 	46926.715	40.795	10476.069
1300.0	1.0	0.0	7.18818	7.59558	-4.21119	16.93203	31.37921	1.6336	0.61214	63.16196	66.19305	23.55093	0.34097	 	26562.12815	 	2.89064E-4	 	46731.478	39.0474	 
1295.0	1.0	0.0	7.19039	7.59324	-4.2406	16.9129	31.32314	1.63132	0.613	63.74567	66.72365	23.772	0.34077	 	28055.82845	 	2.72804E-4	 	46534.106	39.4744	 
1290.0	1.0	0.0	7.19259	7.59092	-4.26995	16.89377	31.26707	1.62904	0.61386	64.33304	67.25679	23.99451	0.34058	 	29643.8993	 	2.57367E-4	 	46336.942	39.4328	 
1285.0	1.0	0.0	7.1948	7.58859	-4.29926	16.87464	31.211	1.62674	0.61472	64.92402	67.7924	24.21842	0.34039	 	31332.93132	 	2.42714E-4	 	46139.986	39.3912	 
1280.0	1.0	0.0	7.197	7.58627	-4.32851	16.85551	31.15494	1.62444	0.6156	65.51857	68.33044	24.44373	0.34019	 	33130.018	 	2.28812E-4	 	45943.236	39.35	 
1275.0	1.0	0.0	7.19919	7.58396	-4.35771	16.83638	31.09887	1.62213	0.61647	66.11663	68.87084	24.67041	0.34	 	35042.79726	 	2.15626E-4	 	45746.689	39.3094	 
1270.0	1.0	0.0	7.20139	7.58165	-4.38685	16.81725	31.0428	1.61981	0.61736	66.71816	69.41354	24.89846	0.33981	 	37079.49664	 	2.03124E-4	 	45550.345	39.2688	 
1265.0	1.0	0.0	7.20358	7.57934	-4.41595	16.79812	30.98674	1.61749	0.61824	67.32312	69.9585	25.12785	0.33961	 	39248.98263	 	1.91274E-4	 	45354.201	39.2288	 
1260.0	1.0	0.0	7.20577	7.57704	-4.44499	16.779	30.93067	1.61515	0.61914	67.93146	70.50565	25.35856	0.33942	 	41560.81436	 	1.80048E-4	 	45158.254	39.1894	 
1255.0	1.0	0.0	7.20796	7.57474	-4.47398	16.75987	30.8746	1.61281	0.62004	68.54313	71.05494	25.59059	0.33923	 	44025.30217	 	1.69414E-4	 	44962.504	39.15	 
1250.0	1.0	0.0	7.21014	7.57244	-4.50292	16.74074	30.81854	1.61045	0.62094	69.15808	71.60632	25.82391	0.33903	 	46653.57147	 	1.59347E-4	 	44766.948	39.1112	 
1245.0	1.0	0.0	7.21232	7.57015	-4.53181	16.72162	30.76247	1.60809	0.62185	69.77627	72.15972	26.05851	0.33884	 	49457.63246	 	1.49819E-4	 	44571.583	39.073	 
1240.0	1.0	0.0	7.2145	7.56787	-4.56065	16.70249	30.70641	1.60572	0.62277	70.39766	72.71509	26.29437	0.33864	 	52450.45629	 	1.40805E-4	 	44376.409	39.0348	 
1235.0	1.0	0.0	7.21668	7.56558	-4.58943	16.68337	30.65035	1.60334	0.6237	71.0222	73.27238	26.53148	0.33845	 	55646.0582	 	1.32281E-4	 	44181.423	38.9972	 
1230.0	1.0	0.0	7.21885	7.56331	-4.61816	16.66425	30.59428	1.60096	0.62463	71.64983	73.83153	26.76981	0.33826	 	59059.5884	 	1.24222E-4	 	43986.622	38.9602	 
1225.0	1.0	0.0	7.22102	7.56103	-4.64684	16.64513	30.53822	1.59856	0.62556	72.28052	74.39249	27.00935	0.33806	 	62707.43152	 	1.16607E-4	 	43792.005	38.9234	 
1220.0	1.0	0.0	7.22319	7.55876	-4.67547	16.62601	30.48216	1.59616	0.6265	72.91422	74.95521	27.25008	0.33787	 	66607.3153	 	1.09413E-4	 	43597.569	38.8872	 
1215.0	1.0	0.0	7.22536	7.5565	-4.70405	16.60689	30.4261	1.59374	0.62745	73.55088	75.51963	27.49199	0.33768	 	70778.42967	 	1.0262E-4	 	43403.312	38.8514	 
1210.0	1.0	0.0	7.22752	7.55423	-4.73257	16.58777	30.37003	1.59132	0.62841	74.19046	76.0857	27.73507	0.33748	 	75241.5571	 	9.62086E-5	 	43209.23	38.8164	 
1205.0	1.0	0.0	7.22968	7.55198	-4.76104	16.56865	30.31397	1.58889	0.62937	74.83291	76.65336	27.97928	0.33729	 	80019.21544	 	9.01594E-5	 	43015.322	38.7816	 
1200.0	1.0	0.0	7.23184	7.54972	-4.78946	16.54953	30.25791	1.58645	0.63034	75.47819	77.22256	28.22462	0.3371	 	85135.81454	 	8.44542E-5	 	42821.584	38.7476	 
1195.0	1.0	0.0	7.234	7.54747	-4.81783	16.53041	30.20186	1.584	0.63131	76.12624	77.79326	28.47108	0.3369	 	90617.82801	 	7.90758E-5	 	42628.014	38.714	 
1190.0	1.0	0.0	7.23615	7.54523	-4.84615	16.5113	30.1458	1.58154	0.6323	76.77702	78.36539	28.71862	0.33671	 	96493.98174	 	7.40074E-5	 	42434.61	38.6808	 
1185.0	1.0	0.0	7.2383	7.54299	-4.87442	16.49218	30.08974	1.57907	0.63328	77.43049	78.93891	28.96724	0.33652	 	102795.4609	 	6.92333E-5	 	42241.367	38.6486	 
1180.0	1.0	0.0	7.24045	7.54075	-4.90263	16.47307	30.03369	1.57659	0.63428	78.0866	79.51376	29.21693	0.33632	 	109556.1373	 	6.47382E-5	 	42048.284	38.6166	 
1175.0	1.0	0.0	7.24259	7.53852	-4.93079	16.45395	29.97763	1.57411	0.63528	78.74531	80.08989	29.46765	0.33613	 	116812.8196	 	6.05076E-5	 	41855.358	38.5852	 
1170.0	1.0	0.0	7.24473	7.53629	-4.9589	16.43484	29.92158	1.57161	0.63629	79.40656	80.66726	29.7194	0.33594	 	124605.5278	 	5.65276E-5	 	41662.584	38.5548	 
1165.0	1.0	0.0	7.24687	7.53406	-4.98696	16.41572	29.86553	1.5691	0.63731	80.07032	81.2458	29.97216	0.33574	 	132977.7962	 	5.27851E-5	 	41469.961	38.5246	 
1160.0	1.0	0.0	7.24901	7.53184	-5.01497	16.39661	29.80948	1.56659	0.63833	80.73653	81.82547	30.22592	0.33555	 	141977.0063	 	4.92675E-5	 	41277.485	38.4952	 
1155.0	1.0	0.0	7.25114	7.52962	-5.04292	16.3775	29.75343	1.56406	0.63936	81.40515	82.40622	30.48065	0.33536	 	151654.7539	 	4.59626E-5	 	41085.152	38.4666	 
1150.0	1.0	0.0	7.25327	7.52741	-5.07082	16.35839	29.69739	1.56153	0.6404	82.07614	82.98801	30.73634	0.33516	 	162067.2536	 	4.2859E-5	 	40892.96	38.4384	 
1145.0	1.0	0.0	7.2554	7.5252	-5.09868	16.33928	29.64135	1.55899	0.64144	82.74944	83.57076	30.99297	0.33497	 	173275.7849	 	3.99458E-5	 	40700.905	38.411	 
1140.0	1.0	0.0	7.25753	7.523	-5.12647	16.32017	29.58531	1.55643	0.6425	83.42502	84.15445	31.25052	0.33478	 	185347.1846	 	3.72125E-5	 	40508.983	38.3844	 
1135.0	1.0	0.0	7.25965	7.5208	-5.15422	16.30106	29.52928	1.55387	0.64356	84.10283	84.73902	31.50899	0.33458	 	198354.3908	 	3.46492E-5	 	40317.191	38.3584	 
1130.0	1.0	0.0	7.26177	7.5186	-5.18192	16.28196	29.47324	1.55129	0.64462	84.78282	85.32442	31.76835	0.33439	 	212377.0431	 	3.22465E-5	 	40125.525	38.3332	 
1125.0	1.0	0.0	7.26389	7.51641	-5.20956	16.26285	29.41722	1.54871	0.6457	85.46494	85.9106	32.02858	0.3342	 	227502.1472	 	2.99954E-5	 	39933.982	38.3086	 
1120.0	1.0	0.0	7.26601	7.51422	-5.23715	16.24374	29.3612	1.54612	0.64678	86.14915	86.49751	32.28968	0.334	 	243824.8091	 	2.78873E-5	 	39742.557	38.285	 
1115.0	1.0	0.0	7.26812	7.51204	-5.26469	16.22464	29.30518	1.54351	0.64787	86.83541	87.08511	32.55161	0.33381	 	261449.0491	 	2.59141E-5	 	39551.246	38.2622	 
1110.0	1.0	0.0	7.27023	7.50986	-5.29218	16.20553	29.24917	1.5409	0.64897	87.52366	87.67334	32.81437	0.33362	 	280488.7013	 	2.4068E-5	 	39360.046	38.24	 
1105.0	1.0	0.0	7.27233	7.50768	-5.31962	16.18643	29.19317	1.53827	0.65008	88.21387	88.26216	33.07794	0.33342	 	301068.413	 	2.23418E-5	 	39168.952	38.2188	 
1100.0	1.0	0.0	7.27444	7.50551	-5.347	16.16733	29.13718	1.53564	0.6512	88.90598	88.85153	33.3423	0.33323	 	323324.7507	 	2.07284E-5	 	38977.96	38.1984	 
1095.0	1.0	0.0	7.27654	7.50334	-5.37434	16.14822	29.08119	1.53299	0.65232	89.59996	89.44138	33.60743	0.33304	 	347407.4288	 	1.92212E-5	 	38787.066	38.1788	 
1090.0	1.0	0.0	7.27864	7.50118	-5.40162	16.12912	29.02522	1.53033	0.65345	90.29575	90.03168	33.87332	0.33284	 	373480.6735	 	1.7814E-5	 	38596.264	38.1604	 
1085.0	1.0	0.0	7.28073	7.49902	-5.42885	16.11002	28.96925	1.52767	0.65459	90.99331	90.62238	34.13996	0.33265	 	401724.7381	 	1.65008E-5	 	38405.551	38.1426	 
1080.0	1.0	0.0	7.28283	7.49687	-5.45603	16.09092	28.9133	1.52499	0.65574	91.69259	91.21343	34.40732	0.33246	 	432337.5877	 	1.5276E-5	 	38214.921	38.126	 
1075.0	1.0	0.0	7.28492	7.49472	-5.48315	16.07182	28.85736	1.5223	0.6569	92.39356	91.80479	34.67538	0.33226	 	465536.7742	 	1.41342E-5	 	38024.37	38.1102	 
1070.0	1.0	0.0	7.287	7.49257	-5.51023	16.05272	28.80144	1.5196	0.65807	93.09615	92.39641	34.94414	0.33207	 	501561.5226	 	1.30703E-5	 	37833.893	38.0954	 
1065.0	1.0	0.0	7.28909	7.49043	-5.53725	16.03362	28.74553	1.51688	0.65925	93.80034	92.98824	35.21357	0.33188	 	540675.0562	 	1.20797E-5	 	37643.484	38.0818	 
1060.0	1.0	0.0	7.29117	7.48829	-5.56422	16.01453	28.68964	1.51416	0.66043	94.50607	93.58024	35.48366	0.33168	 	583167.1883	 	1.11576E-5	 	37453.138	38.0692	 
1055.0	1.0	0.0	7.29325	7.48615	-5.59114	15.99543	28.63377	1.51142	0.66163	95.21329	94.17236	35.75438	0.33149	 	629357.2135	 	1.03E-5	 	37262.849	38.0578	 
1050.0	1.0	0.0	7.29533	7.48402	-5.61801	15.97633	28.57792	1.50868	0.66283	95.92196	94.76455	36.02574	0.3313	 	679597.136	 	9.50264E-6	 	37072.613	38.0472	 
1045.0	1.0	0.0	7.2974	7.4819	-5.64482	15.95724	28.5221	1.50592	0.66405	96.63204	95.35678	36.29769	0.3311	 	734275.2749	 	8.76179E-6	 	36882.422	38.0382	 
1040.0	1.0	0.0	7.29947	7.47977	-5.67159	15.93815	28.4663	1.50315	0.66527	97.34348	95.94899	36.57024	0.33091	 	793820.2959	 	8.07382E-6	 	36692.272	38.03	 
1035.0	1.0	0.0	7.30154	7.47766	-5.6983	15.91905	28.41054	1.50036	0.66651	98.05624	96.54115	36.84337	0.33072	 	858705.7211	 	7.43532E-6	 	36502.155	38.0234	 
1030.0	1.0	0.0	7.3036	7.47554	-5.72496	15.89996	28.3548	1.49756	0.66775	98.77026	97.1332	37.11704	0.33052	 	929454.9785	 	6.8431E-6	 	36312.067	38.0176	 
1025.0	1.0	0.0	7.30566	7.47343	-5.75157	15.88087	28.2991	1.49475	0.66901	99.48551	97.72511	37.39126	0.33033	 	1006647.059	 	6.29411E-6	 	36121.999	38.0136	 
1020.0	1.0	0.0	7.30772	7.47133	-5.77812	15.86178	28.24344	1.49193	0.67027	100.20194	98.31683	37.666	0.33014	 	1090922.857	 	5.78551E-6	 	35931.945	38.0108	 
1015.0	1.0	0.0	7.30978	7.46922	-5.80463	15.84269	28.18782	1.4891	0.67155	100.9195	98.90831	37.94125	0.32994	 	1182992.294	 	5.31461E-6	 	35741.899	38.0092	 
1010.0	1.0	0.0	7.31183	7.46713	-5.83108	15.8236	28.13224	1.48625	0.67284	101.63815	99.49951	38.21698	0.32975	 	1283642.3	 	4.87888E-6	 	35551.853	38.0092	 
1005.0	1.0	0.0	7.31388	7.46503	-5.85748	15.80451	28.07671	1.48338	0.67413	102.35784	100.09039	38.49319	0.32956	 	1393745.805	 	4.47595E-6	 	35361.799	38.0108	 
1000.0	1.0	0.0	7.31593	7.46294	-5.88383	15.78542	28.02124	1.48051	0.67545	103.07853	100.68091	38.76986	0.32936	 	1514271.833	 	4.10358E-6	 	35171.731	38.0136	 
995.0	1.0	0.0	7.31798	7.46086	-5.91013	15.76633	27.96582	1.47761	0.67677	103.80017	101.27102	39.04696	0.32917	 	1646296.871	 	3.75967E-6	 	34981.639	38.0184	 
990.0	1.0	0.0	7.32002	7.45878	-5.93638	15.74724	27.91046	1.47471	0.6781	104.52272	101.86068	39.32448	0.32898	 	1791017.678	 	3.44224E-6	 	34791.517	38.0244	 
985.0	1.0	0.0	7.32206	7.4567	-5.96257	15.72816	27.85517	1.47178	0.67945	105.24613	102.44985	39.60241	0.32878	 	1949765.716	 	3.14946E-6	 	34601.354	38.0326	 
980.0	1.0	0.0	7.32409	7.45463	-5.98872	15.70907	27.79995	1.46885	0.68081	105.97035	103.03848	39.88073	0.32859	 	2124023.442	 	2.87959E-6	 	34411.144	38.042	 
975.0	1.0	0.0	7.32613	7.45256	-6.01481	15.68999	27.74481	1.46589	0.68218	106.69535	103.62654	40.15942	0.3284	 	2315442.696	 	2.63099E-6	 	34220.875	38.0538	 
970.0	1.0	0.0	7.32816	7.45049	-6.04085	15.6709	27.68975	1.46293	0.68356	107.42108	104.21398	40.43846	0.3282	 	2525865.487	 	2.40215E-6	 	34030.54	38.067	 
965.0	1.0	0.0	7.33018	7.44843	-6.06684	15.65182	27.63477	1.45994	0.68496	108.14749	104.80076	40.71784	0.32801	 	2757347.499	 	2.19164E-6	 	33840.128	38.0824	 
960.0	1.0	0.0	7.33221	7.44638	-6.09277	15.63274	27.5799	1.45694	0.68637	108.87453	105.38683	40.99755	0.32782	 	3012184.703	 	1.99812E-6	 	33649.63	38.0996	 
955.0	1.0	0.0	7.33423	7.44432	-6.11866	15.61366	27.52512	1.45392	0.6878	109.60216	105.97217	41.27755	0.32762	 	3292943.505	 	1.82035E-6	 	33459.034	38.1192	 
950.0	1.0	0.0	7.33625	7.44227	-6.14449	15.59458	27.47045	1.45088	0.68924	110.33035	106.55672	41.55785	0.32743	 	3602494.937	 	1.65715E-6	 	33268.33	38.1408	 
945.0	1.0	0.0	7.33826	7.44023	-6.17027	15.5755	27.41589	1.44783	0.69069	111.05903	107.14045	41.83841	0.32724	 	3944053.458	 	1.50746E-6	 	33077.506	38.1648	 
940.0	1.0	0.0	7.34028	7.43819	-6.196	15.55642	27.36145	1.44475	0.69216	111.78817	107.72331	42.11923	0.32704	 	4321221.034	 	1.37023E-6	 	32886.552	38.1908	 
935.0	1.0	0.0	7.34229	7.43615	-6.22168	15.53734	27.30714	1.44166	0.69365	112.51772	108.30527	42.40029	0.32685	 	4738037.253	 	1.24454E-6	 	32695.453	38.2198	 
930.0	1.0	0.0	7.34429	7.43412	-6.24731	15.51826	27.25297	1.43855	0.69515	113.24764	108.88628	42.68156	0.32666	 	5199036.361	 	1.12949E-6	 	32504.199	38.2508	 
925.0	1.0	0.0	7.3463	7.43209	-6.27288	15.49918	27.19894	1.43541	0.69666	113.97788	109.4663	42.96304	0.32646	 	5709312.225	 	1.02427E-6	 	32312.775	38.2848	 
920.0	1.0	0.0	7.3483	7.43007	-6.2984	15.48011	27.14507	1.43226	0.6982	114.7084	110.0453	43.24471	0.32627	 	6274592.405	 	9.28103E-7	 	32121.169	38.3212	 
915.0	1.0	0.0	7.3503	7.42805	-6.32388	15.46103	27.09135	1.42909	0.69975	115.43915	110.62324	43.52654	0.32608	 	6901322.679	 	8.40283E-7	 	31929.364	38.361	 
910.0	1.0	0.0	7.35229	7.42603	-6.3493	15.44196	27.0378	1.42589	0.70132	116.17009	111.20008	43.80853	0.32588	 	7596763.6	 	7.60148E-7	 	31737.347	38.4034	 
905.0	1.0	0.0	7.35428	7.42402	-6.37466	15.42288	26.98443	1.42267	0.7029	116.90117	111.77577	44.09066	0.32569	 	8369100.891	 	6.87082E-7	 	31545.101	38.4492	 
900.0	1.0	0.0	7.35627	7.42202	-6.39998	15.40381	26.93124	1.41943	0.70451	117.63235	112.35028	44.3729	0.3255	 	9227571.799	 	6.20516E-7	 	31352.611	38.498	 
895.0	1.0	0.0	7.35826	7.42001	-6.42525	15.38473	26.87825	1.41617	0.70613	118.36358	112.92357	44.65525	0.3253	 	1.018260985E7	 	5.5992E-7	 	31159.859	38.5504	 
890.0	1.0	0.0	7.36024	7.41801	-6.45046	15.36566	26.82546	1.41288	0.70777	119.09483	113.4956	44.93768	0.32511	 	1.124601082E7	 	5.04805E-7	 	30966.827	38.6064	 
885.0	1.0	0.0	7.36222	7.41602	-6.47562	15.34659	26.77288	1.40957	0.70944	119.82603	114.06633	45.22018	0.32492	 	1.243112335E7	 	4.54717E-7	 	30773.496	38.6662	 
880.0	1.0	0.0	7.3642	7.41403	-6.50073	15.32752	26.72053	1.40624	0.71112	120.55716	114.63573	45.50274	0.32472	 	1.375306784E7	 	4.09235E-7	 	30579.847	38.7298	 
875.0	1.0	0.0	7.36617	7.41204	-6.52579	15.30845	26.6684	1.40288	0.71282	121.28816	115.20376	45.78533	0.32453	 	1.522898836E7	 	3.67972E-7	 	30385.858	38.7978	 
870.0	1.0	0.0	7.36815	7.41006	-6.55079	15.28938	26.61651	1.39949	0.71455	122.01899	115.77037	46.06793	0.32434	 	1.68783427E7	 	3.30567E-7	 	30191.509	38.8698	 
865.0	1.0	0.0	7.37011	7.40808	-6.57575	15.27031	26.56487	1.39608	0.71629	122.74961	116.33554	46.35054	0.32414	 	1.872323665E7	 	2.96692E-7	 	29996.776	38.9466	 
860.0	1.0	0.0	7.37208	7.4061	-6.60065	15.25125	26.51348	1.39264	0.71806	123.47998	116.89922	46.63314	0.32395	 	2.078880983E7	 	2.66038E-7	 	29801.635	39.0282	 
855.0	1.0	0.0	7.37404	7.40413	-6.6255	15.23218	26.46235	1.38917	0.71985	124.21004	117.46138	46.9157	0.32376	 	2.310368141E7	 	2.38327E-7	 	29606.06	39.115	 
850.0	1.0	0.0	7.376	7.40217	-6.6503	15.21311	26.41149	1.38568	0.72167	124.93975	118.02198	47.19822	0.32356	 	2.570046543E7	 	2.13296E-7	 	29410.025	39.207	 
845.0	1.0	0.0	7.37796	7.4002	-6.67505	15.19405	26.36092	1.38216	0.72351	125.66907	118.58099	47.48067	0.32337	 	2.861636767E7	 	1.90709E-7	 	29213.5	39.305	 
840.0	1.0	0.0	7.37991	7.39825	-6.69975	15.17498	26.31063	1.37861	0.72537	126.39796	119.13836	47.76303	0.32318	 	3.189387721E7	 	1.70346E-7	 	29016.456	39.4088	 
835.0	1.0	0.0	7.38186	7.39629	-6.72439	15.15592	26.26063	1.37503	0.72726	127.12636	119.69406	48.0453	0.32298	 	3.558156915E7	 	1.52006E-7	 	28818.862	39.5188	 
830.0	1.0	0.0	7.38381	7.39434	-6.74899	15.13686	26.21092	1.37142	0.72917	127.85425	120.24806	48.32746	0.32279	 	3.973503699E7	 	1.35503E-7	 	28620.682	39.636	 
825.0	1.0	0.0	7.38575	7.3924	-6.77353	15.11779	26.16153	1.36778	0.73111	128.58156	120.80032	48.60948	0.3226	 	4.441797719E7	 	1.20667E-7	 	28421.881	39.7602	 
820.0	1.0	0.0	7.38769	7.39045	-6.79802	15.09873	26.11244	1.36411	0.73308	129.30826	121.3508	48.89135	0.3224	 	4.970345209E7	 	1.07345E-7	 	28222.42	39.8922	 
815.0	1.0	0.0	7.38963	7.38852	-6.82246	15.07967	26.06367	1.36041	0.73507	130.03431	121.89947	49.17306	0.32221	 	5.567536237E7	 	9.53921E-8	 	28022.26	40.032	 
810.0	1.0	0.0	7.39156	7.38658	-6.84685	15.06061	26.01522	1.35668	0.73709	130.75966	122.44629	49.45458	0.32202	 	6.243016584E7	 	8.468E-8	 	27821.355	40.181	 
805.0	1.0	0.0	7.39349	7.38465	-6.87118	15.04155	25.96708	1.35293	0.73914	131.48426	122.99123	49.73591	0.32182	 	7.007888628E7	 	7.50894E-8	 	27619.659	40.3392	 
800.0	1.0	0.0	7.39542	7.38273	-6.89547	15.02249	25.91927	1.34913	0.74122	132.20808	123.53425	50.01702	0.32163	 	7.874946421E7	 	6.65119E-8	 	27417.122	40.5074	 
795.0	1.0	0.0	7.39735	7.3808	-6.9197	15.00344	25.87179	1.34531	0.74332	132.93106	124.07532	50.29789	0.32144	 	8.858951129E7	 	5.88487E-8	 	27213.691	40.6862	 
790.0	1.0	0.0	7.39927	7.37889	-6.94388	14.98438	25.82463	1.34146	0.74546	133.65317	124.61441	50.57852	0.32124	 	9.976954179E7	 	5.20096E-8	 	27009.309	40.8764	 
785.0	1.0	0.0	7.40119	7.37697	-6.96801	14.96532	25.7778	1.33758	0.74762	134.37436	125.15147	50.85888	0.32105	 	1.124867686E8	 	4.59127E-8	 	26803.912	41.0794	 
780.0	1.0	0.0	7.4031	7.37506	-6.99209	14.94627	25.73129	1.33366	0.74981	135.09459	125.68648	51.13896	0.32086	 	1.269695685E8	 	4.04834E-8	 	26597.435	41.2954	 
775.0	1.0	0.0	7.40502	7.37316	-7.01611	14.92721	25.6851	1.32972	0.75204	135.81381	126.2194	51.41874	0.32066	 	1.434827414E8	 	3.56542E-8	 	26389.805	41.526	 
770.0	1.0	0.0	7.40693	7.37126	-7.04009	14.90816	25.63924	1.32574	0.75429	136.53198	126.7502	51.69821	0.32047	 	1.623337133E8	 	3.13635E-8	 	26180.944	41.7722	 
765.0	1.0	0.0	7.40883	7.36936	-7.06401	14.8891	25.59368	1.32174	0.75658	137.24905	127.27884	51.97734	0.32028	 	1.838798627E8	 	2.75558E-8	 	25970.768	42.0352	 
760.0	1.0	0.0	7.41074	7.36747	-7.08788	14.87005	25.54844	1.3177	0.7589	137.96499	127.80529	52.25612	0.32008	 	2.085371847E8	 	2.41806E-8	 	25759.185	42.3166	 
755.0	1.0	0.0	7.41264	7.36558	-7.1117	14.851	25.50349	1.31363	0.76125	138.67975	128.32952	52.53454	0.31989	 	2.367905532E8	 	2.11923E-8	 	25546.096	42.6178	 
750.0	1.0	0.0	7.41454	7.3637	-7.13547	14.83195	25.45884	1.30954	0.76363	139.39328	128.85149	52.81258	0.3197	 	2.692058924E8	 	1.85499E-8	 	25331.392	42.9408	 
745.0	1.0	0.0	7.41643	7.36181	-7.15919	14.8129	25.41447	1.30541	0.76604	140.10555	129.37118	53.09021	0.3195	 	3.064446332E8	 	1.62161E-8	 	25114.954	43.2876	 
740.0	1.0	0.0	7.41832	7.35994	-7.18285	14.79385	25.37037	1.30126	0.76848	140.8165	129.88854	53.36743	0.31931	 	3.492809098E8	 	1.41575E-8	 	24896.653	43.6602	 
735.0	1.0	0.0	7.42021	7.35807	-7.20646	14.7748	25.32653	1.29708	0.77096	141.5261	130.40355	53.64422	0.31912	 	3.986220462E8	 	1.23438E-8	 	24676.347	44.0612	 
730.0	1.0	0.0	7.42209	7.3562	-7.23003	14.75575	25.28294	1.29287	0.77347	142.2343	130.91618	53.92056	0.31892	 	4.555329972E8	 	1.07481E-8	 	24453.879	44.4936	 
725.0	1.0	0.0	7.42397	7.35433	-7.25354	14.7367	25.23959	1.28864	0.77601	142.94106	131.42638	54.19644	0.31873	 	5.212655549E8	 	9.34595E-9	 	24229.08	44.9598	 
720.0	1.0	0.0	7.42585	7.35247	-7.277	14.71766	25.19644	1.28438	0.77859	143.64634	131.93414	54.47183	0.31854	 	5.97293301E8	 	8.11547E-9	 	24001.759	45.4642	 
715.0	1.0	0.0	7.42773	7.35062	-7.3004	14.69861	25.1535	1.28009	0.78119	144.35009	132.43942	54.74673	0.31834	 	6.85353503E8	 	7.03712E-9	 	23771.708	46.0102	 
710.0	1.0	0.0	7.4296	7.34876	-7.32376	14.67956	25.11074	1.27579	0.78383	145.05228	132.94218	55.02111	0.31815	 	7.874974139E8	 	6.09337E-9	 	23538.698	46.602	 
705.0	1.0	0.0	7.43147	7.34692	-7.34706	14.66052	25.06815	1.27145	0.7865	145.75285	133.4424	55.29496	0.31796	 	9.061507584E8	 	5.26856E-9	 	23302.472	47.2452	 
700.0	1.0	0.0	7.43333	7.34507	-7.37032	14.64148	25.02569	1.2671	0.7892	146.45176	133.94004	55.56826	0.31776	 	1.044186587E9	 	4.54871E-9	 	23062.746	47.9452	 
695.0	1.0	0.0	7.4352	7.34323	-7.39352	14.62243	24.98335	1.26273	0.79194	147.14898	134.43508	55.841	0.31757	 	1.205013179E9	 	3.92137E-9	 	22796.492	53.2508	 
690.0	1.0	0.0	7.43706	7.3414	-7.41667	14.60339	24.94111	1.25833	0.7947	147.84446	134.92749	56.11315	0.31738	 	1.39268027E9	 	3.37543E-9	 	22522.473	54.8038	 
685.0	1.0	0.0	7.43891	7.33957	-7.43976	14.58435	24.89894	1.25392	0.7975	148.53815	135.41722	56.38471	0.31718	 	1.612007659E9	 	2.90104E-9	 	22252.054	54.0838	 
680.0	1.0	0.0	7.44076	7.33774	-7.46281	14.56531	24.85682	1.24949	0.80033	149.23002	135.90426	56.65566	0.31699	 	1.868741179E9	 	2.48942E-9	 	21985.101	53.3906	 
675.0	1.0	0.0	7.44261	7.33592	-7.48581	14.54627	24.81472	1.24505	0.80318	149.92002	136.38858	56.92598	0.3168	 	2.169742167E9	 	2.13283E-9	 	21721.491	52.722	 
670.0	1.0	0.0	7.44446	7.3341	-7.50875	14.52723	24.77261	1.24059	0.80607	150.60811	136.87013	57.19565	0.3166	 	2.523218076E9	 	1.82437E-9	 	21461.103	52.0776	 
665.0	1.0	0.0	7.4463	7.33228	-7.53164	14.50819	24.73047	1.23611	0.80899	151.29425	137.3489	57.46466	0.31641	 	2.939003648E9	 	1.55797E-9	 	21203.824	51.4558	 
660.0	1.0	0.0	7.44814	7.33047	-7.55448	14.48915	24.68827	1.23163	0.81194	151.97839	137.82486	57.73299	0.31622	 	3.428904378E9	 	1.32826E-9	 	20949.547	50.8554	 
655.0	1.0	0.0	7.44998	7.32866	-7.57727	14.47012	24.64597	1.22713	0.81491	152.6605	138.29796	58.00062	0.31602	 	4.00711685E9	 	1.13051E-9	 	20698.168	50.2758	 
650.0	1.0	0.0	7.45181	7.32686	-7.60001	14.45108	24.60356	1.22262	0.81791	153.34053	138.7682	58.26755	0.31583	 	4.690744146E9	 	9.60544E-10	 	20449.591	49.7154	 
645.0	1.0	0.0	7.45364	7.32506	-7.62269	14.43204	24.561	1.21811	0.82095	154.01843	139.23553	58.53374	0.31564	 	5.500429036E9	 	8.14711E-10	 	20203.723	49.1736	 
640.0	1.0	0.0	7.45547	7.32327	-7.64533	14.41301	24.51826	1.21358	0.82401	154.69418	139.69993	58.7992	0.31544	 	6.461133407E9	 	6.89795E-10	 	19960.475	48.6496	 
635.0	1.0	0.0	7.45729	7.32148	-7.66791	14.39397	24.47532	1.20906	0.82709	155.36772	140.16137	59.06389	0.31525	 	7.60309962E9	 	5.8298E-10	 	19719.763	48.1424	 
630.0	1.0	0.0	7.45911	7.31969	-7.69044	14.37494	24.43213	1.20453	0.8302	156.03902	140.61983	59.32781	0.31506	 	8.963038659E9	 	4.91803E-10	 	19481.508	47.651	 
625.0	1.0	0.0	7.46093	7.31791	-7.71292	14.35591	24.38867	1.19999	0.83334	156.70803	141.07526	59.59093	0.31486	 	1.05856E10	 	4.14114E-10	 	19245.634	47.1748	 
620.0	1.0	0.0	7.46274	7.31613	-7.73535	14.33688	24.34492	1.19546	0.8365	157.37471	141.52766	59.85325	0.31467	 	1.2525199999999998E10	 	3.48038E-10	 	19012.067	46.7134	 
615.0	1.0	0.0	7.46455	7.31435	-7.75773	14.31784	24.30083	1.19092	0.83969	158.03902	141.97698	60.11474	0.31448	 	1.4848299999999998E10	 	2.91942E-10	 	18780.738	46.2658	 
610.0	1.0	0.0	7.46636	7.31258	-7.78006	14.29881	24.25639	1.18639	0.8429	158.70092	142.4232	60.37539	0.31428	 	1.76362E10	 	2.44408E-10	 	18551.582	45.8312	 
605.0	1.0	0.0	7.46816	7.31082	-7.80233	14.27978	24.21157	1.18185	0.84613	159.36037	142.8663	60.63519	0.31409	 	2.09887E10	 	2.04207E-10	 	18324.536	45.4092	 
600.0	1.0	0.0	7.46996	7.30905	-7.82455	14.26076	24.16632	1.17732	0.84938	160.01733	143.30624	60.89411	0.3139	 	2.5028299999999996E10	 	1.70273E-10	 	18099.54	44.9992	 
595.0	1.0	0.0	7.47176	7.3073	-7.84672	14.24173	24.12064	1.1728	0.85266	160.67175	143.74301	61.15215	0.3137	 	2.9905899999999996E10	 	1.41685E-10	 	17876.536	44.6008	 
590.0	1.0	0.0	7.47356	7.30554	-7.86884	14.2227	24.07449	1.16828	0.85596	161.3236	144.17657	61.40928	0.31351	 	3.58078E10	 	1.17651E-10	 	17655.471	44.213	 
585.0	1.0	0.0	7.47535	7.30379	-7.89091	14.20367	24.02785	1.16377	0.85928	161.97284	144.60689	61.6655	0.31332	 	4.29647E10	 	9.74852E-11	 	17436.291	43.836	 
580.0	1.0	0.0	7.47713	7.30205	-7.91293	14.18465	23.98069	1.15926	0.86262	162.61942	145.03396	61.92077	0.31312	 	5.166209999999999E10	 	8.06009E-11	 	17218.947	43.4688	 
575.0	1.0	0.0	7.47892	7.30031	-7.93489	14.16562	23.93299	1.15476	0.86598	163.2633	145.45775	62.1751	0.31293	 	6.225539999999999E10	 	6.6494E-11	 	17003.392	43.111	 
570.0	1.0	0.0	7.4807	7.29857	-7.95681	14.1466	23.88473	1.15028	0.86936	163.90445	145.87823	62.42846	0.31274	 	7.51869E10	 	5.4733E-11	 	16789.579	42.7626	 
565.0	1.0	0.0	7.48248	7.29683	-7.97867	14.12757	23.83588	1.1458	0.87275	164.54282	146.29537	62.68083	0.31254	 	9.10093E10	 	4.49493E-11	 	16577.466	42.4226	 
560.0	1.0	0.0	7.48425	7.2951	-8.00048	14.10855	23.78644	1.14133	0.87617	165.17838	146.70915	62.93221	0.31235	 	1.10414E11	 	3.68286E-11	 	16367.011	42.091	 
555.0	1.0	0.0	7.48602	7.29338	-8.02224	14.08953	23.73638	1.13687	0.8796	165.81108	147.11955	63.18257	0.31216	 	1.34269E11	 	3.01036E-11	 	16158.174	41.7674	 
550.0	1.0	0.0	7.48779	7.29166	-8.04395	14.07051	23.68568	1.13243	0.88306	166.44089	147.52653	63.43191	0.31197	 	1.63667E11	 	2.45473E-11	 	15950.916	41.4516	 
545.0	1.0	0.0	7.48955	7.28994	-8.0656	14.05149	23.63434	1.128	0.88653	167.06777	147.93009	63.6802	0.31177	 	1.99985E11	 	1.99674E-11	 	15745.201	41.143	 
540.0	1.0	0.0	7.49131	7.28823	-8.08721	14.03247	23.58234	1.12357	0.89002	167.69167	148.33018	63.92743	0.31158	 	2.44964E11	 	1.62015E-11	 	15540.994	40.8414	 
535.0	1.0	0.0	7.49307	7.28652	-8.10876	14.01345	23.52967	1.11916	0.89352	168.31256	148.7268	64.17358	0.31139	 	3.00815E11	 	1.31123E-11	 	15338.261	40.5466	 
530.0	1.0	0.0	7.49482	7.28481	-8.13027	13.99443	23.47633	1.11477	0.89705	168.93039	149.11991	64.41865	0.31119	 	3.70344E11	 	1.05847E-11	 	15136.97	40.2582	 
525.0	1.0	0.0	7.49657	7.28311	-8.15172	13.97541	23.4223	1.11038	0.90059	169.54514	149.50949	64.6626	0.311	 	4.57134E11	 	8.52172E-12	 	14937.091	39.9758	 
520.0	1.0	0.0	7.49832	7.28142	-8.17312	13.95639	23.36758	1.10601	0.90415	170.15676	149.89552	64.90544	0.31081	 	5.65763E11	 	6.84238E-12	 	14738.592	39.6998	 
515.0	1.0	0.0	7.50006	7.27972	-8.19446	13.93738	23.31217	1.10165	0.90773	170.76522	150.27798	65.14714	0.31061	 	7.02103E11	 	5.47892E-12	 	14541.446	39.4292	 
510.0	1.0	0.0	7.5018	7.27803	-8.21576	13.91836	23.25608	1.0973	0.91133	171.37047	150.65684	65.38768	0.31042	 	8.73703E11	 	4.3749E-12	 	14345.624	39.1644	 
505.0	1.0	0.0	7.50354	7.27635	-8.23701	13.89935	23.19929	1.09297	0.91494	171.97247	151.03207	65.62707	0.31023	 	1.0903E12	 	3.4834E-12	 	14151.102	38.9044	 
500.0	1.0	0.0	7.50527	7.27467	-8.2582	13.88033	23.14182	1.08864	0.91858	172.5712	151.40367	65.86527	0.31003	 	1.3645E12	 	2.76551E-12	 	13957.852	38.65	 
495.0	1.0	0.0	7.507	7.27299	-8.27934	13.86132	23.08367	1.08432	0.92223	173.16661	151.77161	66.10227	0.30984	 	1.71266E12	 	2.18908E-12	 	13765.851	38.4002	 
490.0	1.0	0.0	7.50873	7.27132	-8.30043	13.84231	23.02485	1.08002	0.92591	173.75867	152.13586	66.33806	0.30965	 	2.15605E12	 	1.72758E-12	 	13575.074	38.1554	 
485.0	1.0	0.0	7.51045	7.26965	-8.32147	13.82329	22.96537	1.07572	0.92961	174.34733	152.4964	66.57263	0.30945	 	2.7225E12	 	1.35917E-12	 	13385.499	37.915	 
480.0	1.0	0.0	7.51217	7.26799	-8.34246	13.80428	22.90523	1.07143	0.93333	174.93257	152.85322	66.80596	0.30926	 	3.44842E12	 	1.06598E-12	 	13197.105	37.6788	 
475.0	1.0	0.0	7.51389	7.26633	-8.3634	13.78527	22.84445	1.06715	0.93708	175.51434	153.2063	67.03803	0.30907	 	4.38173E12	 	8.33355E-13	 	13009.869	37.4472	 
470.0	1.0	0.0	7.5156	7.26467	-8.38428	13.76626	22.78305	1.06288	0.94084	176.0926	153.5556	67.26884	0.30887	 	5.58561E12	 	6.49371E-13	 	12823.771	37.2196	 
465.0	1.0	0.0	7.51731	7.26302	-8.40512	13.74725	22.72104	1.05861	0.94464	176.66734	153.90112	67.49836	0.30868	 	7.1437E12	 	5.04322E-13	 	12638.792	36.9958	 
460.0	1.0	0.0	7.51902	7.26137	-8.4259	13.72825	22.65845	1.05434	0.94846	177.2385	154.24283	67.72658	0.30849	 	9.16714E12	 	3.90342E-13	 	12454.912	36.776	 
455.0	1.0	0.0	7.52072	7.25973	-8.44663	13.70924	22.59528	1.05008	0.95231	177.80605	154.58072	67.9535	0.30829	 	1.18041E13	 	3.01076E-13	 	12272.113	36.5598	 
450.0	1.0	0.0	7.52242	7.25809	-8.46731	13.69023	22.53156	1.04582	0.95619	178.36995	154.91476	68.17908	0.3081	 	1.52528E13	 	2.31402E-13	 	12090.376	36.3474	 
445.0	1.0	0.0	7.52412	7.25645	-8.48794	13.67123	22.46731	1.04155	0.9601	178.93018	155.24494	68.40333	0.30791	 	1.97795E13	 	1.7721E-13	 	11909.685	36.1382	 
440.0	1.0	0.0	7.52581	7.25482	-8.50852	13.65222	22.40256	1.03729	0.96405	179.4867	155.57124	68.62622	0.30771	 	2.57433E13	 	1.35208E-13	 	11730.023	35.9324	 
435.0	1.0	0.0	7.5275	7.25319	-8.52904	13.63322	22.33732	1.03303	0.96803	180.03947	155.89363	68.84775	0.30752	 	3.36302E13	 	1.02774E-13	 	11551.373	35.73	 
430.0	1.0	0.0	7.52918	7.25157	-8.54952	13.61421	22.27163	1.02876	0.97204	180.58846	156.21212	69.0679	0.30733	 	4.41007E13	 	7.78197E-14	 	11373.719	35.5308	 
425.0	1.0	0.0	7.53086	7.24995	-8.56994	13.59521	22.20551	1.02449	0.9761	181.13364	156.52666	69.28665	0.30713	 	5.8056E13	 	5.86933E-14	 	11197.047	35.3344	 
420.0	1.0	0.0	7.53254	7.24833	-8.59031	13.57621	22.13899	1.0202	0.9802	181.67497	156.83726	69.504	0.30694	 	7.67312E13	 	4.40902E-14	 	11021.341	35.1412	 
415.0	1.0	0.0	7.53422	7.24672	-8.61063	13.55721	22.07209	1.01592	0.98433	182.21242	157.14389	69.71992	0.30675	 	1.01825E14	 	3.29848E-14	 	10846.587	34.9508	 
410.0	1.0	0.0	7.53589	7.24512	-8.6309	13.5382	22.00484	1.01162	0.98852	182.74596	157.44653	69.93442	0.30655	 	1.3568799999999998E14	 	2.45733E-14	 	10672.771	34.7632	 
405.0	1.0	0.0	7.53756	7.24351	-8.65112	13.5192	21.93728	1.0073	0.99275	183.27555	157.74518	70.14746	0.30636	 	1.81578E14	 	1.82285E-14	 	10499.879	34.5784	 
400.0	1.0	0.0	7.53922	7.24191	-8.67128	13.50021	21.86942	1.00298	0.99703	183.80117	158.03982	70.35905	0.30617	 	2.44042E14	 	1.34628E-14	 	10327.899	34.396	 
395.0	1.0	0.0	7.54088	7.24032	-8.6914	13.48121	21.80131	0.99864	1.00136	184.32278	158.33042	70.56917	0.30597	 	3.29448E14	 	9.89859E-15	 	10156.816	34.2166	 
390.0	1.0	0.0	7.54254	7.23873	-8.71146	13.46221	21.73296	0.99428	1.00575	184.84036	158.61699	70.7778	0.30578	 	4.46762E14	 	7.24473E-15	 	9986.619	34.0394	 
385.0	1.0	0.0	7.54419	7.23714	-8.73147	13.44321	21.66441	0.98991	1.01019	185.35387	158.89949	70.98494	0.30559	 	6.0866E14	 	5.27761E-15	 	9817.295	33.8648	 
380.0	1.0	0.0	7.54584	7.23556	-8.75144	13.42422	21.59569	0.98552	1.0147	185.86328	159.17793	71.19057	0.30539	 	8.33162E14	 	3.82622E-15	 	9648.833	33.6924	 
375.0	1.0	0.0	7.54749	7.23398	-8.77135	13.40522	21.52682	0.9811	1.01926	186.36856	159.45229	71.39468	0.3052	 	1.14601E15	 	2.76041E-15	 	9481.221	33.5224	 
370.0	1.0	0.0	7.54913	7.2324	-8.7912	13.38623	21.45783	0.97666	1.0239	186.8697	159.72255	71.59726	0.30501	 	1.58416E15	 	1.98152E-15	 	9314.447	33.3548	 
365.0	1.0	0.0	7.55077	7.23083	-8.81101	13.36723	21.38876	0.9722	1.0286	187.36665	159.9887	71.7983	0.30481	 	2.20097E15	 	1.41513E-15	 	9148.501	33.1892	 
360.0	1.0	0.0	7.55241	7.22927	-8.83077	13.34824	21.31962	0.96771	1.03337	187.85939	160.25074	71.99778	0.30462	 	3.07387E15	 	1.00533E-15	 	8983.373	33.0256	 
355.0	1.0	0.0	7.55404	7.2277	-8.85047	13.32924	21.25045	0.96319	1.03821	188.34789	160.50865	72.1957	0.30443	 	4.31583E15	 	7.10371E-16	 	8819.05	32.8646	 
350.0	1.0	0.0	7.55567	7.22615	-8.87012	13.31025	21.18127	0.95865	1.04314	188.83213	160.76242	72.39204	0.30423	 	6.0927E15	 	4.99194E-16	 	8655.524	32.7052	 
345.0	1.0	0.0	7.5573	7.22459	-8.88972	13.29126	21.1121	0.95407	1.04814	189.31208	161.01204	72.58679	0.30404	 	8.64923E15	 	3.48822E-16	 	8492.785	32.5478	 
340.0	1.0	0.0	7.55892	7.22304	-8.90927	13.27227	21.04298	0.94946	1.05323	189.78772	161.25751	72.77995	0.30385	 	1.23488E16	 	2.42341E-16	 	8330.822	32.3926	 
335.0	1.0	0.0	7.56054	7.2215	-8.92877	13.25328	20.97392	0.94482	1.0584	190.25902	161.49881	72.97151	0.30365	 	1.7734500000000002E16	 	1.6737E-16	 	8169.626	32.2392	 
330.0	1.0	0.0	7.56215	7.21995	-8.94822	13.23429	20.90495	0.94014	1.06367	190.72596	161.73594	73.16144	0.30346	 	2.56222E16	 	1.14893E-16	 	8009.188	32.0876	 
325.0	1.0	0.0	7.56376	7.21842	-8.96762	13.2153	20.83609	0.93543	1.06903	191.18852	161.96889	73.34976	0.30327	 	3.72466E16	 	7.83808E-17	 	7849.5	31.9376	 
320.0	1.0	0.0	7.56537	7.21688	-8.98696	13.19632	20.76736	0.93068	1.07448	191.64667	162.19765	73.53643	0.30307	 	5.44874E16	 	5.31319E-17	 	7690.552	31.7896	 
315.0	1.0	0.0	7.56697	7.21535	-9.00626	13.17733	20.69878	0.92589	1.08004	192.10039	162.42222	73.72147	0.30288	 	8.02258E16	 	3.57817E-17	 	7532.335	31.6434	 
310.0	1.0	0.0	7.56858	7.21383	-9.0255	13.15834	20.63037	0.92107	1.0857	192.54967	162.64259	73.90485	0.30269	 	1.18909E17	 	2.39361E-17	 	7374.842	31.4986	 
305.0	1.0	0.0	7.57017	7.2123	-9.04469	13.13936	20.56214	0.9162	1.09147	192.99447	162.85877	74.08657	0.30249	 	1.77447E17	 	1.59023E-17	 	7218.063	31.3558	 
300.0	1.0	0.0	7.57177	7.21079	-9.06383	13.12038	20.49411	0.91129	1.09734	193.4348	163.07074	74.26662	0.3023	 	2.66659E17	 	1.04905E-17	 	7061.992	31.2142	 
295.0	1.0	0.0	7.57336	7.20927	-9.08292	13.10139	20.4263	0.90634	1.10334	193.87062	163.2785	74.445	0.30211	 	4.03607E17	 	6.87054E-18	 	6906.621	31.0742	 
290.0	1.0	0.0	7.57494	7.20776	-9.10195	13.08241	20.35872	0.90135	1.10945	194.30192	163.48206	74.62169	0.30191	 	6.15399E17	 	4.46636E-18	 	6751.941	30.936	 
285.0	1.0	0.0	7.57652	7.20626	-9.12094	13.06343	20.29138	0.89631	1.11569	194.72869	163.68141	74.7967	0.30172	 	9.45447E17	 	2.88138E-18	 	6597.945	30.7992	 
280.0	1.0	0.0	7.5781	7.20476	-9.13987	13.04444	20.2243	0.89122	1.12205	195.15091	163.87655	74.97001	0.30153	 	1.46382E18	 	1.84434E-18	 	6444.627	30.6636	 
275.0	1.0	0.0	7.57968	7.20326	-9.15876	13.02546	20.15748	0.8861	1.12855	195.56857	164.06749	75.14162	0.30133	 	2.28457E18	 	1.17107E-18	 	6291.979	30.5296	 
270.0	1.0	0.0	7.58125	7.20177	-9.17759	13.00648	20.09093	0.88092	1.13517	195.98165	164.25422	75.31152	0.30114	 	3.59483E18	 	7.37442E-19	 	6139.994	30.397	 
265.0	1.0	0.0	7.58282	7.20028	-9.19637	12.9875	20.02467	0.8757	1.14194	196.39015	164.43675	75.47971	0.30095	 	5.70442E18	 	4.60446E-19	 	5988.666	30.2656	 
260.0	1.0	0.0	7.58438	7.19879	-9.2151	12.96853	19.9587	0.87043	1.14885	196.79405	164.61508	75.64619	0.30075	 	9.13073E18	 	2.84991E-19	 	5837.987	30.1358	 
255.0	1.0	0.0	7.58594	7.19731	-9.23378	12.94955	19.89302	0.86512	1.15591	197.19336	164.78922	75.81094	0.30056	 	1.47458E19	 	1.74814E-19	 	5687.953	30.0068	 
250.0	1.0	0.0	7.5875	7.19583	-9.25241	12.93057	19.82763	0.85975	1.16313	197.58805	164.95918	75.97397	0.30037	 	2.4033E19	 	1.06244E-19	 	5538.556	29.8794	 
245.0	1.0	0.0	7.58905	7.19436	-9.27098	12.9116	19.76256	0.85434	1.1705	197.97814	165.12496	76.13528	0.30017	 	3.95407E19	 	6.39585E-20	 	5389.792	29.7528	 
240.0	1.0	0.0	7.5906	7.19289	-9.28951	12.89262	19.69779	0.84888	1.17803	198.3636	165.28657	76.29486	0.29998	 	6.56891E19	 	3.81275E-20	 	5241.653	29.6278	 
235.0	1.0	0.0	7.59215	7.19143	-9.30798	12.87364	19.63332	0.84337	1.18573	198.74445	165.44403	76.45271	0.29979	 	1.1022499999999998E20	 	2.25008E-20	 	5094.134	29.5038	 
230.0	1.0	0.0	7.59369	7.18997	-9.3264	12.85467	19.56917	0.8378	1.1936	199.12068	165.59735	76.60883	0.29959	 	1.86868E20	 	1.31416E-20	 	4947.23	29.3808	 
225.0	1.0	0.0	7.59523	7.18851	-9.34477	12.8357	19.50532	0.83219	1.20164	199.4923	165.74653	76.76322	0.2994	 	3.2017899999999997E20	 	7.59371E-21	 	4800.936	29.2588	 
220.0	1.0	0.0	7.59677	7.18706	-9.36309	12.81672	19.44178	0.82653	1.20987	199.8593	165.8916	76.91588	0.29921	 	5.5461599999999993E20	 	4.33984E-21	 	4655.246	29.138	 
215.0	1.0	0.0	7.5983	7.18561	-9.38136	12.79775	19.37855	0.82082	1.21829	200.2217	166.03257	77.06682	0.29901	 	9.715819999999999E20	 	2.45223E-21	 	4510.156	29.018	 
210.0	1.0	0.0	7.59982	7.18416	-9.39958	12.77878	19.31562	0.81506	1.2269	200.5795	166.16947	77.21603	0.29882	 	1.72189E21	 	1.3695E-21	 	4365.662	28.8988	 
205.0	1.0	0.0	7.60135	7.18272	-9.41774	12.75981	19.25299	0.80925	1.23571	200.93271	166.3023	77.36352	0.29863	 	3.08838E21	 	7.5565E-22	 	4221.757	28.781	 
200.0	1.0	0.0	7.60287	7.18129	-9.43586	12.74084	19.19067	0.80339	1.24473	201.28135	166.43109	77.50929	0.29843	 	5.60812E21	 	4.11783E-22	 	4078.439	28.6636	 
195.0	1.0	0.0	7.60439	7.17985	-9.45392	12.72187	19.12863	0.79748	1.25395	201.62543	166.55588	77.65334	0.29824	 	1.03143E22	 	2.2153E-22	 	3935.702	28.5474	 
190.0	1.0	0.0	7.6059	7.17843	-9.47193	12.7029	19.06689	0.79152	1.2634	201.96497	166.67667	77.7957	0.29805	 	1.9220899999999997E22	 	1.17608E-22	 	3793.544	28.4316	 
185.0	1.0	0.0	7.60741	7.177	-9.48989	12.68394	19.00542	0.7855	1.27307	202.29998	166.79351	77.93635	0.29785	 	3.6308499999999996E22	 	6.15866E-23	 	3651.96	28.3168	 
180.0	1.0	0.0	7.60891	7.17558	-9.5078	12.66497	18.94424	0.77944	1.28297	202.63051	166.90643	78.07531	0.29766	 	6.95568E22	 	3.17972E-23	 	3510.947	28.2026	 
175.0	1.0	0.0	7.61042	7.17417	-9.52566	12.646	18.88333	0.77333	1.29312	202.95656	167.01545	78.21259	0.29747	 	1.3519799999999999E23	 	1.61786E-23	 	3370.502	28.089	 
170.0	1.0	0.0	7.61191	7.17275	-9.54347	12.62704	18.82269	0.76716	1.30351	203.27817	167.12061	78.3482	0.29727	 	2.6675599999999997E23	 	8.10817E-24	 	3230.62	27.9764	 
165.0	1.0	0.0	7.61341	7.17135	-9.56122	12.60808	18.7623	0.76095	1.31415	203.59538	167.22195	78.48216	0.29708	 	5.34558E23	 	4.0005E-24	 	3091.301	27.8638	 
160.0	1.0	0.0	7.6149	7.16994	-9.57893	12.58911	18.70217	0.75468	1.32506	203.90822	167.31952	78.61447	0.29689	 	1.08854E24	 	1.94214E-24	 	2952.54	27.7522	 
155.0	1.0	0.0	7.61639	7.16854	-9.59658	12.57015	18.64229	0.74837	1.33624	204.21673	167.41335	78.74515	0.29669	 	2.2537600000000002E24	 	9.27203E-25	 	2814.336	27.6408	 
150.0	1.0	0.0	7.61787	7.16715	-9.61418	12.55119	18.58265	0.742	1.34771	204.52096	167.5035	78.87421	0.2965	 	4.74723E24	 	4.35051E-25	 	2676.686	27.53	 
145.0	1.0	0.0	7.61935	7.16575	-9.63173	12.53223	18.52323	0.73559	1.35946	204.82096	167.59002	79.00169	0.29631	 	1.01791E25	 	2.00497E-25	 	2539.589	27.4194	 
140.0	1.0	0.0	7.62082	7.16437	-9.64923	12.51326	18.46404	0.72912	1.37152	205.11679	167.67296	79.12759	0.29611	 	2.2233000000000002E25	 	9.06977E-26	 	2403.042	27.3094	 
135.0	1.0	0.0	7.6223	7.16298	-9.66668	12.4943	18.40507	0.7226	1.38388	205.40849	167.75237	79.25194	0.29592	 	4.9499300000000005E25	 	4.02446E-26	 	2267.045	27.1994	 
130.0	1.0	0.0	7.62377	7.1616	-9.68408	12.47535	18.34631	0.71604	1.39657	205.69614	167.82833	79.37476	0.29573	 	1.1241400000000002E26	 	1.75038E-26	 	2131.597	27.0896	 
125.0	1.0	0.0	7.62523	7.16023	-9.70143	12.45639	18.28774	0.70942	1.4096	205.97981	167.9009	79.49608	0.29553	 	2.6061100000000003E26	 	7.45661E-27	 	1996.696	26.9802	 
120.0	1.0	0.0	7.62669	7.15886	-9.71872	12.43743	18.22938	0.70276	1.42297	206.25957	167.97015	79.61593	0.29534	 	6.172350000000001E26	 	3.10881E-27	 	1862.342	26.8708	 
115.0	1.0	0.0	7.62815	7.15749	-9.73597	12.41847	18.1712	0.69604	1.4367	206.53551	168.03616	79.73434	0.29515	 	1.49471E27	 	1.26745E-27	 	1728.536	26.7612	 
110.0	1.0	0.0	7.6296	7.15613	-9.75316	12.39952	18.11319	0.68927	1.4508	206.80771	168.09901	79.85134	0.29495	 	3.70413E27	 	5.04858E-28	 	1595.277	26.6518	 
105.0	1.0	0.0	7.63105	7.15477	-9.7703	12.38056	18.05536	0.68246	1.46529	207.07627	168.15879	79.96697	0.29476	 	9.40241E27	 	1.96296E-28	 	1462.566	26.5422	 
100.0	1.0	0.0	7.6325	7.15341	-9.78739	12.36161	17.9977	0.67559	1.48018	207.34129	168.21558	80.08127	0.29457	 	2.4470000000000002E28	 	7.4428E-29	 	1330.404	26.4324	 
95.0	1.0	0.0	7.63394	7.15206	-9.80443	12.34265	17.94019	0.66868	1.49549	207.6029	168.26949	80.19429	0.29437	 	6.53599E28	 	2.74916E-29	 	1198.792	26.3224	 
90.0	1.0	0.0	7.63538	7.15071	-9.82142	12.3237	17.88284	0.66171	1.51124	207.8612	168.32063	80.30606	0.29418	 	1.79365E29	 	9.88175E-30	 	1067.733	26.2118	 
85.0	1.0	0.0	7.63681	7.14937	-9.83836	12.30475	17.82562	0.65469	1.52743	208.11632	168.36911	80.41663	0.29399	 	5.0630000000000004E29	 	3.45258E-30	 	937.228	26.101	 
80.0	1.0	0.0	7.63824	7.14803	-9.85524	12.28579	17.76855	0.64763	1.5441	208.36842	168.41504	80.52607	0.29379	 	1.47176E30	 	1.17114E-30	 	807.281	25.9894	 
75.0	1.0	0.0	7.63967	7.1467	-9.87208	12.26684	17.7116	0.64051	1.56125	208.61763	168.45856	80.63443	0.2936	 	4.41143E30	 	3.85189E-31	 	677.894	25.8774	 
70.0	1.0	0.0	7.64109	7.14537	-9.88886	12.24789	17.65478	0.63334	1.57892	208.86412	168.4998	80.74177	0.29341	 	1.36525E31	 	1.22675E-31	 	549.071	25.7646	 
65.0	1.0	0.0	7.64251	7.14404	-9.90559	12.22894	17.59808	0.62613	1.59712	209.10807	168.53892	80.84816	0.29321	 	4.368749999999999E31	 	3.7778E-32	 	420.817	25.6508	 
60.0	1.0	0.0	7.64392	7.14272	-9.92227	12.20999	17.5415	0.61886	1.61588	209.34966	168.57607	80.95366	0.29302	 	1.44765E32	 	1.12322E-32	 	293.137	25.536	 
55.0	1.0	0.0	7.64534	7.1414	-9.9389	12.19105	17.48502	0.61154	1.63522	209.5891	168.61141	81.05837	0.29283	 	4.97537E32	 	3.21909E-33	 	166.036	25.4202	 
50.0	1.0	0.0	7.64674	7.14008	-9.95548	12.1721	17.42864	0.60417	1.65517	209.8266	168.64513	81.16236	0.29263	 	1.77656E33	 	8.87792E-34	 	39.521	25.303	 
45.0	1.0	0.0	7.64815	7.13877	-9.97201	12.15315	17.37236	0.59675	1.67575	210.0624	168.67742	81.26571	0.29244	 	6.60248E33	 	2.35186E-34	 	-86.402	25.1846	 
40.0	1.0	0.0	7.64955	7.13747	-9.98849	12.13421	17.31617	0.58928	1.697	210.29674	168.70849	81.36854	0.29225	 	2.55883E34	 	5.97307E-35	 	-211.724	25.0644	 
35.0	1.0	0.0	7.65094	7.13616	-10.00491	12.11526	17.26007	0.58175	1.71895	210.5299	168.73855	81.47095	0.29206	 	1.03626E35	 	1.45138E-35	 	-336.436	24.9424	 
30.0	1.0	0.0	7.65234	7.13486	-10.02129	12.09632	17.20405	0.57418	1.74163	210.76218	168.76784	81.57303	0.29186	 	4.39473E35	 	3.36676E-36	 	-460.53	24.8188	 
25.0	1.0	0.0	7.65372	7.13357	-10.03761	 	17.14811	0.56655	1.76508	210.99388	168.79663	81.67493	0.29167	 	1.95632E36	 	7.43842E-37	 	-583.993	 	 
