T (C)	Fraction solid (wt)-TOTAL	Fraction liquid (wt)-LIQUID	Density (g/(cm)^3)-TOTAL	Molar volume (cm^3)-TOTAL	Volume change (%)-  	Average expansion coeff. (10e-6 1/K)-  	Thermal conductivity (W/(m*K))-TOTAL	Electrical resistivity (10e-6 Ohm*m)-TOTAL	Electrical conductivity (10e6 1/(Ohm*m))-TOTAL	Young's modulus (GPa)-TOTAL	Bulk modulus (GPa)-TOTAL	Shear modulus(GPa)-TOTAL	Poisson's ratio-TOTAL	Liquid viscosity (mPa s)-  	Total viscosity (mPa s)-  	Liquid diffusivity (10e-9 (m^2)/s)-  	Total diffusivity (10e-9 (m^2)/s)-  	Surface Tension (mN/m)-  	Enthalpy (J/mole)-TOTAL	Specific heat (J/(mole K))-TOTAL	Latent heat (J/mole)-TOTAL
1500.0	0.0	1.0	6.98188	7.82486	0.0	27.5749	30.72586	1.88044	0.53179	0.0	109.61555	0.0	0.49974	6.62533	6.62533	1.30625	1.30625	1760.16269	63961.971	 	0.0
1495.0	0.0	1.0	6.98579	7.82048	-0.0559943	27.52623	30.6554	1.87945	0.53207	0.0	109.80115	0.0	0.49974	6.68441	6.68441	1.29105	1.29105	1761.96994	63741.253	44.1436	0.0
1490.0	0.0	1.0	6.9897	7.81611	-0.11183	27.47762	30.58495	1.87845	0.53235	0.0	109.98674	0.0	0.49974	6.74435	6.74435	1.27596	1.27596	1763.77509	63520.966	44.0574	0.0
1485.0	0.0	1.0	6.9936	7.81175	-0.16752	27.42908	30.51449	1.87745	0.53264	0.0	110.17234	0.0	0.49974	6.80518	6.80518	1.26096	1.26096	1765.5781	63301.107	43.9718	0.0
1480.0	0.0	1.0	6.99749	7.80741	-0.22304	27.38061	30.44404	1.87644	0.53292	0.0	110.35793	0.0	0.49974	6.86691	6.86691	1.24608	1.24608	1767.37895	63081.675	43.8864	0.0
1475.0	0.0	1.0	7.00137	7.80308	-0.27841	27.3322	30.37358	1.87543	0.53321	0.0	110.54353	0.0	0.49974	6.92956	6.92956	1.23129	1.23129	1769.17764	62862.666	43.8018	0.0
1470.0	0.0	1.0	7.00525	7.79875	-0.33363	27.28386	30.30312	1.87441	0.5335	0.0	110.72912	0.0	0.49974	6.99314	6.99314	1.2166	1.2166	1770.97413	62644.079	43.7174	0.0
1465.0	0.0	1.0	7.00912	7.79445	-0.38869	27.23559	30.23267	1.87339	0.53379	0.0	110.91472	0.0	0.49974	7.05768	7.05768	1.20202	1.20202	1772.7684	62425.911	43.6336	0.0
1460.0	0.0	1.0	7.01299	7.79015	-0.44359	27.18739	30.16221	1.87237	0.53408	0.0	111.10031	0.0	0.49974	7.12319	7.12319	1.18754	1.18754	1774.56043	62208.16	43.5502	0.0
1455.0	0.0	1.0	7.01685	7.78587	-0.49834	27.13926	30.09175	1.87134	0.53438	0.0	111.28591	0.0	0.49974	7.18969	7.18969	1.17316	1.17316	1776.3502	61990.824	43.4672	0.0
1450.0	0.0	1.0	7.0207	7.78159	-0.55294	27.0912	30.0213	1.8703	0.53467	0.0	111.4715	0.0	0.49974	7.25721	7.25721	1.15888	1.15888	1778.13769	61773.951	43.3746	0.0
1445.0	0.0	1.0	7.02455	7.77733	-0.60737	27.04322	29.95084	1.86926	0.53497	0.0	111.6571	0.0	0.49974	7.32576	7.32576	1.14471	1.14471	1779.92286	61557.621	43.266	0.0
1440.0	0.0	1.0	7.02838	7.77309	-0.66165	26.9953	29.88038	1.86822	0.53527	0.0	111.84269	0.0	0.49974	7.39536	7.39536	1.13064	1.13064	1781.70571	61341.822	43.1598	0.0
1435.0	0.0	1.0	7.03222	7.76885	-0.71578	26.94746	29.80993	1.86717	0.53557	0.0	112.02829	0.0	0.49974	7.46603	7.46603	1.11666	1.11666	1783.48619	61126.553	43.0538	0.0
1430.0	0.0	1.0	7.03604	7.76463	-0.76975	26.89969	29.73947	1.86611	0.53587	0.0	112.21388	0.0	0.49974	7.53781	7.53781	1.10279	1.10279	1785.2643	60911.808	42.949	0.0
1425.0	0.0	1.0	7.03986	7.76042	-0.82356	26.852	29.66902	1.86505	0.53618	0.0	112.39948	0.0	0.49974	7.6107	7.6107	1.08903	1.08903	1787.04	60697.586	42.8444	0.0
1420.0	0.0	1.0	7.04367	7.75622	-0.87722	26.80438	29.59856	1.86399	0.53648	0.0	112.58507	0.0	0.49974	7.68473	7.68473	1.07536	1.07536	1788.81327	60483.882	42.7408	0.0
1415.0	0.0	1.0	7.04747	7.75203	-0.93073	26.75684	29.5281	1.86292	0.53679	0.0	112.77067	0.0	0.49974	7.75993	7.75993	1.06179	1.06179	1790.58409	60270.695	42.6374	0.0
1410.0	0.0	1.0	7.05127	7.74786	-0.98407	26.70938	29.45765	1.86184	0.5371	0.0	112.95626	0.0	0.49974	7.83631	7.83631	1.04833	1.04833	1792.35242	60058.02	42.535	0.0
1405.0	0.0	1.0	7.05506	7.7437	-1.03726	26.66199	29.38719	1.86076	0.53741	0.0	113.14185	0.0	0.49974	7.91391	7.91391	1.03497	1.03497	1794.11825	59845.853	42.4334	0.0
1400.45	0.0	1.0	7.0585	7.73992	-1.08555	26.61893	29.32306	1.85977	0.5377	0.0	113.31079	0.0	0.49974	7.98562	7.98562	1.02289	1.02289	1795.72335	59653.17	42.3373	0.0020
1400.0	0.01645	0.98355	7.06081	7.73744	-1.1172	26.54152	29.35861	1.85702	0.5385	5.9349E-6	113.1775	1.98168E-6	0.49744	7.99084	8.16709	1.02195	0.99989	1795.53561	59453.106	445.716	181.082
1395.0	0.18334	0.81666	7.08425	7.71182	-1.44463	25.74452	29.72179	1.82885	0.54679	0.0932166	111.78872	0.0316233	0.47386	8.04878	27.64418	1.01156	0.29452	1793.58627	57413.168	407.988	2009.861
1390.0	0.31211	0.68789	7.10291	7.69169	-1.70196	25.13374	29.99919	1.80651	0.55355	0.79462	110.74796	0.27298	0.45544	8.10721	167.36487	1.00126	0.0485013	1791.78813	55800.257	322.582	3412.112
1385.0	0.41348	0.58652	7.11818	7.67531	-1.91128	24.6505	30.21287	1.78834	0.55918	2.47875	109.96486	0.86021	0.44078	8.16578	520.97845	0.99109	0.0155343	1790.13242	54494.268	261.198	4507.94
1380.0	0.49464	0.50536	7.13103	7.66158	-2.08671	24.25723	30.37762	1.77328	0.56393	5.13415	109.37675	1.79653	0.42891	8.22412	1117.3202	0.98109	0.0072214	1788.61132	53414.002	216.053	5378.536
1375.0	0.56061	0.43939	7.14199	7.65004	-2.23418	23.93853	30.50446	1.76056	0.568	8.55633	108.94158	3.01457	0.41916	8.283	1946.26921	0.97117	0.00413314	1787.21077	52503.131	182.174	6080.231
1370.0	0.61495	0.38505	7.15154	7.64003	-2.36207	23.67189	30.60074	1.7497	0.57153	12.50022	108.625	4.42941	0.41105	8.342	2983.3238	0.96138	0.00268821	1785.92581	51721.63	156.3	6653.042
1368.95	0.62478	0.37522	7.15334	7.63815	-2.38609	23.62349	30.61654	1.74768	0.57219	13.34088	108.57642	4.73223	0.40958	8.35453	3217.32518	0.95932	0.0024911	1785.6621	51574.931	 	6756.073
1365.0	0.67205	0.32795	7.16187	7.62926	-2.49976	23.37591	30.76103	1.73528	0.57627	16.46377	108.14018	5.86973	0.40243	8.38026	4447.05775	0.95408	0.00179791	1784.18487	50952.745	153.777	7213.722
1360.0	0.72004	0.27996	7.17115	7.6197	-2.62194	23.12115	30.89503	1.72248	0.58056	20.2751	107.77066	7.26645	0.39512	8.41312	6141.84175	0.94745	0.00129782	1782.49098	50282.699	134.009	7676.047
1355.0	0.75798	0.24202	7.17913	7.6115	-2.72673	22.91341	30.98689	1.71212	0.58407	23.88331	107.55243	8.59563	0.38927	8.44635	7941.21332	0.94083	0.00100068	1780.95548	49712.419	114.056	8039.085
1350.0	0.7885	0.2115	7.18614	7.60434	-2.81823	22.74159	31.04766	1.70352	0.58702	27.32605	107.44493	9.86848	0.38451	8.47997	9820.99412	0.93422	8.06659E-4	1779.55706	49215.69	99.3458	8329.049
1345.0	0.81344	0.18656	7.19242	7.598	-2.89925	22.59819	31.08495	1.69624	0.58954	30.6599	107.42038	11.10399	0.38058	8.51439	11770.41405	0.92758	6.70986E-4	1778.27734	48774.448	88.2484	8564.004
1340.0	0.83408	0.16592	7.19814	7.59221	-2.97317	22.47388	31.10401	1.68996	0.59173	33.93844	107.45786	12.32079	0.37728	8.5488	13788.09034	0.92099	5.71028E-4	1777.10846	48375.911	79.7074	8756.724
1335.0	0.85136	0.14864	7.2034	7.58693	-3.04072	22.3668	31.10894	1.68445	0.59366	37.19675	107.54394	13.53115	0.37449	8.58396	15878.1041	0.91438	4.94327E-4	1776.03379	48010.823	73.0176	8916.463
1330.0	0.86596	0.13404	7.20829	7.582	-3.10365	22.27213	31.10259	1.67956	0.59539	40.45007	107.66767	14.74038	0.37208	8.61938	18048.20214	0.90779	4.33538E-4	1775.0472	47672.343	67.696	9050.062
1325.0	0.87842	0.12158	7.2129	7.57739	-3.16263	22.18811	31.08724	1.67515	0.59696	43.6939	107.82146	15.94664	0.37	8.65522	20308.65483	0.90121	3.84081E-4	1774.13848	47355.32	63.4046	9162.668
1320.0	0.88914	0.11086	7.21725	7.57303	-3.21834	22.1129	31.06451	1.67113	0.5984	46.90742	107.99937	17.14222	0.36818	8.6918	22670.54475	0.89461	3.4299E-4	1773.30047	47055.815	59.901	9258.218
1315.0	0.8984	0.1016	7.2214	7.56888	-3.27134	22.04492	31.03573	1.66743	0.59973	50.06152	108.19682	18.31633	0.36658	8.72863	25145.84414	0.88804	3.08256E-4	1772.52744	46770.772	57.0086	9339.765
1310.0	0.90647	0.0935276	7.22537	7.56492	-3.32205	21.98313	31.00193	1.66399	0.60096	53.12917	108.41011	19.45897	0.36516	8.76625	27749.19479	0.88144	2.78457E-4	1771.81324	46497.787	54.597	9409.711
1305.0	0.91354	0.0864593	7.22918	7.56108	-3.37101	21.92594	30.96386	1.66078	0.60213	56.07972	108.63636	20.55878	0.36389	8.80416	30493.73993	0.87488	2.52595E-4	1771.15683	46234.948	52.5678	9469.965
1304.39	0.91437	0.0856343	7.22965	7.56062	-3.37689	21.91912	30.95909	1.66039	0.60227	56.44051	108.66439	20.69331	0.36374	8.80874	30840.69165	0.87409	2.49657E-4	1771.07678	46203.479	 	9476.937
1300.0	0.9216	0.0783983	7.23386	7.55645	-3.43021	21.83827	30.93073	1.65729	0.6034	59.76367	108.85817	21.93229	0.36246	8.8477	33652.66113	0.86781	2.28159E-4	1771.00775	45959.5	55.0896	9543.28
1295.0	0.9287	0.0713017	7.23834	7.55201	-3.48693	21.7572	30.89357	1.65401	0.60459	63.2903	109.09249	23.2484	0.36118	8.89257	36993.11011	0.86069	2.06897E-4	1770.98416	45693.868	53.1264	9607.228
1290.0	0.93479	0.0652085	7.24256	7.54782	-3.54046	21.68492	30.852	1.65095	0.60571	66.5219	109.33851	24.45579	0.36004	8.93767	40503.44952	0.85362	1.88363E-4	1771.01646	45438.844	51.0048	9661.016
1285.0	0.94006	0.0599441	7.24655	7.54385	-3.59126	21.6202	30.80683	1.64809	0.60676	69.45712	109.59401	25.55376	0.35904	8.98305	44206.29221	0.84659	1.72033E-4	1771.09838	45192.63	49.2428	9706.437
1280.0	0.94463	0.0553724	7.25035	7.54007	-3.63961	21.56224	30.75866	1.64537	0.60777	72.10793	109.85728	26.54656	0.35814	9.0297	48124.86777	0.83951	1.57518E-4	1771.22264	44953.805	47.765	9744.912
1275.0	0.94862	0.0513829	7.254	7.53642	-3.6862	21.50909	30.70794	1.64278	0.60872	74.49672	110.12667	27.44236	0.35733	9.07628	52282.87597	0.83251	1.44524E-4	1771.39411	44721.234	46.5142	9777.573
1270.0	0.95222	0.047778	7.25756	7.53289	-3.73136	21.45979	30.65536	1.64029	0.60965	76.70474	110.40056	28.27137	0.35658	9.12417	56733.19727	0.82547	1.32757E-4	1771.60092	44493.074	45.632	9806.261
1265.0	0.95551	0.044491	7.26106	7.52943	-3.77559	21.41294	30.60116	1.63787	0.61055	78.75761	110.67791	29.04306	0.35588	9.17252	61508.19081	0.81846	1.22054E-4	1771.84738	44268.638	44.8872	9831.658
1261.32	0.95774	0.0422599	7.26361	7.52692	-3.80756	21.37993	30.56036	1.63613	0.6112	80.17174	110.88394	29.57521	0.35539	9.20835	65242.99683	0.81332	1.14792E-4	1772.04895	44105.744	 	9848.403
1261.32	0.95774	0.0422599	7.26361	7.52692	-3.80756	21.37993	30.56036	1.63613	0.6112	80.17174	110.88394	29.57521	0.35539	9.20835	65243.00569	0.81332	1.14792E-4	1772.04896	44105.743	 	9848.404
1260.0	0.95852	0.0414809	7.26452	7.52604	-3.81889	21.36849	30.54548	1.63552	0.61143	80.66897	110.95836	29.76243	0.35522	9.22205	66637.1151	0.81142	1.12294E-4	1772.24242	44047.319	44.2638	9854.373
1255.39	0.96239	0.0376058	7.26843	7.52259	-3.86293	21.31475	30.49558	1.63326	0.61227	83.01704	111.21209	30.64677	0.35442	9.26911	72128.29187	0.80487	1.03432E-4	1772.93887	43834.033	 	9884.785
1255.0	0.96346	0.0365423	7.26893	7.52208	-3.86943	21.30168	30.49355	1.63296	0.61238	83.61999	111.23776	30.87414	0.35421	9.286	72836.7297	0.8032	1.02401E-4	1772.88315	43803.722	48.7194	9899.796
1250.0	0.97376	0.0262427	7.27451	7.51635	-3.94268	21.165	30.45692	1.62958	0.61366	89.42473	111.56558	33.06812	0.35213	9.50441	81462.20316	0.78218	9.12585E-5	1772.38831	43462.224	68.2996	10043.549
1245.0	0.98012	0.0198832	7.27916	7.51155	-4.00399	21.06376	30.40851	1.62681	0.6147	93.02356	111.88654	34.43363	0.35077	9.72379	89638.65909	0.76202	8.2662E-5	1772.06327	43178.901	56.6646	10129.555
1240.0	0.98443	0.0155687	7.28333	7.50725	-4.05896	20.98123	30.35395	1.62437	0.61562	95.53802	112.20358	35.39033	0.34978	9.94421	97836.96873	0.74267	7.54859E-5	1771.86275	42925.936	50.593	10185.634
1235.0	0.98755	0.0124523	7.2872	7.50325	-4.11009	20.90991	30.29578	1.62211	0.61648	97.44645	112.51796	36.11793	0.349	10.16568	106301.5079	0.72409	6.92455E-5	1771.76035	42690.865	47.0142	10224.252
1230.0	0.9899	0.0100956	7.29088	7.49945	-4.15864	20.84597	30.23533	1.61996	0.6173	98.98424	112.83024	36.70512	0.34837	10.38916	115188.7942	0.70617	6.36911E-5	1771.73378	42467.271	44.7188	10251.826
1225.0	0.99175	0.00825049	7.29443	7.4958	-4.20539	20.78714	30.17334	1.61789	0.61809	100.27758	113.14085	37.19959	0.34783	10.61376	124612.8802	0.68893	5.86785E-5	1771.77325	42251.529	43.1484	10271.977
1220.0	0.99323	0.00676793	7.29787	7.49224	-4.25077	20.73208	30.11028	1.61587	0.61886	101.40163	113.44996	37.62977	0.34736	10.84007	134670.8923	0.67229	5.41148E-5	1771.86869	42041.413	42.0232	10286.929
1215.0	0.99445	0.00554956	7.30124	7.48878	-4.29509	20.67988	30.04638	1.61388	0.61962	102.40337	113.75777	38.01348	0.34693	11.06831	145453.623	0.65622	4.99354E-5	1772.0131	41835.5	41.1826	10298.103
1210.0	0.99547	0.0045312	7.30455	7.48538	-4.33855	20.62998	29.98172	1.61193	0.62037	103.31365	114.06437	38.36243	0.34655	11.29851	157045.68	0.64069	4.60941E-5	1772.19871	41632.834	40.5332	10306.453
1205.0	0.99633	0.00366623	7.3078	7.48203	-4.38127	20.58199	29.91675	1.60999	0.62112	104.15304	114.36976	38.68442	0.34619	11.53073	169538.1667	0.62567	4.25537E-5	1772.42059	41432.745	40.0178	10312.648
1200.0	0.99708	0.00292357	7.31102	7.47874	-4.42339	20.53549	29.85139	1.60805	0.62187	104.93754	114.67408	38.98555	0.34585	11.7657	183025.4145	0.61111	3.92846E-5	1772.67329	41234.752	39.5986	10317.164
1195.0	0.99772	0.00227734	7.31419	7.47548	-4.46498	20.49033	29.78573	1.60613	0.62262	105.67749	114.97729	39.26974	0.34553	12.00298	197605.7517	0.59699	3.62625E-5	1772.957	41038.502	39.25	10320.354
1190.0	0.99829	0.00171093	7.31734	7.47227	-4.50607	20.44633	29.71984	1.60421	0.62336	106.38092	115.27947	39.54006	0.34523	12.24271	213384.867	0.58331	3.34666E-5	1773.26716	40843.728	38.9548	10322.484
1185.0	0.99879	0.00120882	7.32045	7.46908	-4.54675	20.40332	29.6537	1.60229	0.62411	107.05453	115.58058	39.79906	0.34494	12.48561	230482.0799	0.57001	3.08782E-5	1773.59973	40650.225	38.7006	10323.754
1180.0	0.99924	7.6239E-4	7.32354	7.46593	-4.58705	20.36116	29.58739	1.60037	0.62485	107.70328	115.88071	40.04862	0.34466	12.73123	249022.5601	0.55709	2.84812E-5	1773.95253	40457.833	38.4784	10324.324
1175.0	0.99964	3.61593E-4	7.32661	7.4628	-4.627	20.31975	29.52089	1.59846	0.6256	108.33114	116.1798	40.29026	0.34438	12.98027	269145.8642	0.54452	2.62611E-5	1774.32388	40266.426	38.2814	10324.314
1170.0	1.0	0.0	7.32965	7.45971	-4.66661	20.27909	29.45425	1.59655	0.62635	108.9404	116.47788	40.52485	0.34412	 	291002.2629	 	2.42048E-5	 	40075.902	38.1048	10323.832
1165.0	1.0	0.0	7.33221	7.4571	-4.69991	20.2588	29.38557	1.59473	0.62706	109.34989	116.77333	40.68293	0.34393	 	314334.4097	 	2.23305E-5	 	39883.954	38.3896	 
1160.0	1.0	0.0	7.33477	7.4545	-4.73314	20.23854	29.31689	1.59291	0.62778	109.75915	117.06782	40.84096	0.34374	 	339721.2531	 	2.059E-5	 	39699.143	36.9622	 
1155.0	1.0	0.0	7.33733	7.4519	-4.76631	20.21829	29.24821	1.59108	0.6285	110.16816	117.36133	40.99895	0.34355	 	367359.4461	 	1.89745E-5	 	39514.635	36.9016	 
1150.0	1.0	0.0	7.33988	7.44931	-4.79943	20.19806	29.17953	1.58924	0.62923	110.57693	117.65388	41.1569	0.34336	 	397465.933	 	1.74758E-5	 	39330.427	36.8416	 
1145.0	1.0	0.0	7.34243	7.44673	-4.83248	20.17784	29.11085	1.5874	0.62996	110.98546	117.94545	41.3148	0.34317	 	430280.1925	 	1.60864E-5	 	39146.521	36.7812	 
1140.0	1.0	0.0	7.34498	7.44414	-4.86548	20.15765	29.04216	1.58554	0.6307	111.39374	118.23606	41.47265	0.34298	 	466066.7447	 	1.47988E-5	 	38962.915	36.7212	 
1135.0	1.0	0.0	7.34752	7.44157	-4.89842	20.13748	28.97348	1.58367	0.63144	111.80177	118.5257	41.63045	0.34279	 	505117.955	 	1.36064E-5	 	38779.609	36.6612	 
1130.0	1.0	0.0	7.35006	7.43899	-4.93129	20.11732	28.90479	1.5818	0.63219	112.20955	118.81437	41.78821	0.3426	 	547757.1737	 	1.25027E-5	 	38596.604	36.601	 
1125.0	1.0	0.0	7.3526	7.43643	-4.96411	20.09719	28.8361	1.57992	0.63294	112.61707	119.10208	41.94591	0.34241	 	594342.2508	 	1.14816E-5	 	38413.897	36.5414	 
1120.0	1.0	0.0	7.35513	7.43386	-4.99687	20.07707	28.76741	1.57803	0.6337	113.02433	119.38882	42.10356	0.34222	 	645269.4773	 	1.05376E-5	 	38231.488	36.4818	 
1115.0	1.0	0.0	7.35767	7.4313	-5.02956	20.05697	28.69872	1.57613	0.63447	113.43133	119.6746	42.26116	0.34203	 	700978.0048	 	9.66538E-6	 	38049.378	36.422	 
1110.0	1.0	0.0	7.3602	7.42875	-5.0622	20.03689	28.63003	1.57422	0.63524	113.83807	119.95942	42.41871	0.34184	 	761954.8073	 	8.85986E-6	 	37867.566	36.3624	 
1105.0	1.0	0.0	7.36272	7.4262	-5.09478	20.01683	28.56133	1.5723	0.63601	114.24454	120.24327	42.5762	0.34165	 	828740.2534	 	8.11642E-6	 	37686.051	36.303	 
1100.0	1.0	0.0	7.36525	7.42366	-5.1273	19.99678	28.49264	1.57037	0.63679	114.65075	120.52615	42.73363	0.34146	 	901934.3711	 	7.4307E-6	 	37504.831	36.244	 
1095.0	1.0	0.0	7.36777	7.42112	-5.15977	19.97676	28.42394	1.56844	0.63758	115.05668	120.80808	42.89101	0.34127	 	982203.8938	 	6.79859E-6	 	37323.908	36.1846	 
1090.0	1.0	0.0	7.37029	7.41858	-5.19217	19.95676	28.35524	1.56649	0.63837	115.46234	121.08904	43.04833	0.34108	 	1070290.194	 	6.21625E-6	 	37143.279	36.1258	 
1085.0	1.0	0.0	7.3728	7.41605	-5.22451	19.93677	28.28654	1.56454	0.63917	115.86772	121.36905	43.2056	0.34089	 	1167018.218	 	5.68011E-6	 	36962.944	36.067	 
1080.0	1.0	0.0	7.37531	7.41352	-5.2568	19.9168	28.21784	1.56257	0.63997	116.27282	121.64809	43.3628	0.3407	 	1273306.564	 	5.1868E-6	 	36782.903	36.0082	 
1075.0	1.0	0.0	7.37782	7.411	-5.28902	19.89685	28.14913	1.5606	0.64078	116.67764	121.92617	43.51994	0.34051	 	1390178.849	 	4.73319E-6	 	36603.154	35.9498	 
1070.0	1.0	0.0	7.38033	7.40849	-5.32119	19.87692	28.08043	1.55861	0.6416	117.08217	122.2033	43.67702	0.34032	 	1518776.545	 	4.31636E-6	 	36423.697	35.8914	 
1065.0	1.0	0.0	7.38283	7.40597	-5.3533	19.85701	28.01172	1.55662	0.64242	117.48642	122.47946	43.83404	0.34013	 	1660373.484	 	3.93356E-6	 	36244.531	35.8332	 
1060.0	1.0	0.0	7.38533	7.40346	-5.38535	19.83712	27.94301	1.55462	0.64325	117.89038	122.75467	43.99099	0.33994	 	1816392.267	 	3.58225E-6	 	36065.656	35.775	 
1055.0	1.0	0.0	7.38783	7.40096	-5.41735	19.81725	27.8743	1.5526	0.64408	118.29404	123.02893	44.14788	0.33975	 	1988422.827	 	3.26006E-6	 	35887.07	35.7172	 
1050.0	1.0	0.0	7.39033	7.39846	-5.44928	19.79739	27.80559	1.55058	0.64492	118.69741	123.30223	44.3047	0.33956	 	2178243.465	 	2.96476E-6	 	35708.773	35.6594	 
1045.0	1.0	0.0	7.39282	7.39597	-5.48116	19.77756	27.73688	1.54855	0.64577	119.10048	123.57457	44.46146	0.33937	 	2387844.693	 	2.6943E-6	 	35530.764	35.6018	 
1040.0	1.0	0.0	7.39531	7.39348	-5.51298	19.75774	27.66817	1.54651	0.64662	119.50325	123.84596	44.61815	0.33918	 	2619456.291	 	2.44675E-6	 	35353.043	35.5442	 
1035.0	1.0	0.0	7.3978	7.39099	-5.54474	19.73794	27.59945	1.54445	0.64748	119.90572	124.11639	44.77477	0.33899	 	2875578.023	 	2.22034E-6	 	35175.608	35.487	 
1030.0	1.0	0.0	7.40028	7.38851	-5.57644	19.71816	27.53073	1.54239	0.64834	120.30789	124.38587	44.93132	0.3388	 	3159014.556	 	2.0134E-6	 	34998.46	35.4296	 
1025.0	1.0	0.0	7.40276	7.38604	-5.60808	19.6984	27.46201	1.54032	0.64922	120.70974	124.6544	45.0878	0.33861	 	3472915.176	 	1.82439E-6	 	34821.596	35.3728	 
1020.0	1.0	0.0	7.40524	7.38356	-5.63967	19.67866	27.39329	1.53823	0.6501	121.11129	124.92198	45.24421	0.33842	 	3820818.995	 	1.65188E-6	 	34645.017	35.3158	 
1015.0	1.0	0.0	7.40771	7.3811	-5.6712	19.65894	27.32457	1.53614	0.65098	121.51252	125.18861	45.40055	0.33823	 	4206706.476	 	1.49455E-6	 	34468.721	35.2592	 
1010.0	1.0	0.0	7.41019	7.37864	-5.70267	19.63923	27.25585	1.53404	0.65188	121.91344	125.45429	45.55681	0.33804	 	4635058.178	 	1.35117E-6	 	34292.709	35.2024	 
1005.0	1.0	0.0	7.41266	7.37618	-5.73408	19.61955	27.18712	1.53192	0.65278	122.31404	125.71902	45.713	0.33785	 	5110921.828	 	1.22059E-6	 	34116.978	35.1462	 
1000.0	1.0	0.0	7.41512	7.37372	-5.76544	19.59988	27.11839	1.5298	0.65368	122.71432	125.9828	45.86912	0.33766	 	5639988.93	 	1.10176E-6	 	33941.528	35.09	 
995.0	1.0	0.0	7.41759	7.37127	-5.79674	19.58023	27.04966	1.52766	0.6546	123.11428	126.24564	46.02515	0.33747	 	6228682.386	 	9.93713E-7	 	33766.359	35.0338	 
990.0	1.0	0.0	7.42005	7.36883	-5.82798	19.5606	26.98093	1.52551	0.65552	123.51391	126.50753	46.18111	0.33728	 	6884256.771	 	8.95539E-7	 	33591.47	34.9778	 
985.0	1.0	0.0	7.4225	7.36639	-5.85916	19.54099	26.9122	1.52335	0.65645	123.91321	126.76847	46.337	0.33709	 	7614913.216	 	8.06407E-7	 	33416.859	34.9222	 
980.0	1.0	0.0	7.42496	7.36395	-5.89029	19.5214	26.84347	1.52119	0.65738	124.31218	127.02846	46.4928	0.3369	 	8429931.147	 	7.25547E-7	 	33242.527	34.8664	 
975.0	1.0	0.0	7.42741	7.36152	-5.92136	19.50183	26.77473	1.51901	0.65833	124.71083	127.28752	46.64852	0.33671	 	9339819.483	 	6.52251E-7	 	33068.471	34.8112	 
970.0	1.0	0.0	7.42986	7.3591	-5.95237	19.48228	26.70599	1.51681	0.65928	125.10913	127.54563	46.80416	0.33652	 	1.035649036E7	 	5.85865E-7	 	32894.692	34.7558	 
965.0	1.0	0.0	7.43231	7.35667	-5.98332	19.46274	26.63725	1.51461	0.66023	125.5071	127.8028	46.95972	0.33633	 	1.14934589E7	 	5.25786E-7	 	32721.189	34.7006	 
960.0	1.0	0.0	7.43475	7.35426	-6.01422	19.44322	26.56851	1.5124	0.6612	125.90473	128.05902	47.1152	0.33614	 	1.276607318E7	 	4.7146E-7	 	32547.96	34.6458	 
955.0	1.0	0.0	7.43719	7.35184	-6.04506	19.42373	26.49977	1.51017	0.66218	126.30202	128.31431	47.27059	0.33595	 	1.419177921E7	 	4.22378E-7	 	32375.005	34.591	 
950.0	1.0	0.0	7.43963	7.34943	-6.07585	19.40425	26.43102	1.50794	0.66316	126.69896	128.56865	47.4259	0.33576	 	1.579042661E7	 	3.7807E-7	 	32202.323	34.5364	 
945.0	1.0	0.0	7.44206	7.34703	-6.10657	19.38479	26.36228	1.50569	0.66415	127.09556	128.82206	47.58112	0.33557	 	1.758462145E7	 	3.38107E-7	 	32029.913	34.482	 
940.0	1.0	0.0	7.44449	7.34463	-6.13725	19.36535	26.29353	1.50343	0.66515	127.4918	129.07453	47.73626	0.33538	 	1.960013418E7	 	3.02094E-7	 	31857.775	34.4276	 
935.0	1.0	0.0	7.44692	7.34223	-6.16786	19.34593	26.22478	1.50116	0.66615	127.8877	129.32606	47.89131	0.33519	 	2.186637149E7	 	2.69669E-7	 	31685.907	34.3736	 
930.0	1.0	0.0	7.44935	7.33984	-6.19842	19.32652	26.15603	1.49888	0.66717	128.28324	129.57665	48.04627	0.335	 	2.441692294E7	 	2.405E-7	 	31514.308	34.3198	 
925.0	1.0	0.0	7.45177	7.33746	-6.22892	19.30714	26.08727	1.49658	0.66819	128.67843	129.82631	48.20114	0.33481	 	2.729019459E7	 	2.14285E-7	 	31342.978	34.266	 
920.0	1.0	0.0	7.45419	7.33507	-6.25937	19.28777	26.01852	1.49427	0.66922	129.07325	130.07503	48.35592	0.33462	 	3.053014463E7	 	1.90745E-7	 	31171.915	34.2126	 
915.0	1.0	0.0	7.45661	7.3327	-6.28976	19.26843	25.94976	1.49195	0.67026	129.46772	130.32283	48.51061	0.33443	 	3.418713801E7	 	1.69627E-7	 	31001.12	34.159	 
910.0	1.0	0.0	7.45902	7.33032	-6.32009	19.2491	25.881	1.48962	0.67131	129.86182	130.56968	48.6652	0.33424	 	3.831894063E7	 	1.507E-7	 	30830.59	34.106	 
905.0	1.0	0.0	7.46144	7.32795	-6.35037	19.22979	25.81224	1.48728	0.67237	130.25556	130.81561	48.81971	0.33405	 	4.29918771E7	 	1.33752E-7	 	30660.325	34.053	 
900.0	1.0	0.0	7.46384	7.32559	-6.38059	19.2105	25.74348	1.48492	0.67344	130.64892	131.0606	48.97412	0.33386	 	4.828218055E7	 	1.18591E-7	 	30490.324	34.0002	 
895.0	1.0	0.0	7.46625	7.32323	-6.41075	19.19123	25.67471	1.48255	0.67451	131.04192	131.30467	49.12843	0.33367	 	5.427756803E7	 	1.05042E-7	 	30320.587	33.9474	 
890.0	1.0	0.0	7.46865	7.32087	-6.44086	19.17197	25.60594	1.48017	0.6756	131.43455	131.5478	49.28265	0.33348	 	6.107908146E7	 	9.29458E-8	 	30151.111	33.8952	 
885.0	1.0	0.0	7.47105	7.31852	-6.47091	19.15274	25.53717	1.47778	0.67669	131.8268	131.79001	49.43677	0.33329	 	6.880324141E7	 	8.21566E-8	 	29981.896	33.843	 
880.0	1.0	0.0	7.47345	7.31617	-6.50091	19.13352	25.4684	1.47537	0.67779	132.21867	132.03128	49.5908	0.3331	 	7.758456965E7	 	7.25433E-8	 	29812.941	33.791	 
875.0	1.0	0.0	7.47584	7.31383	-6.53085	19.11433	25.39963	1.47295	0.67891	132.61017	132.27164	49.74473	0.33291	 	8.757854748E7	 	6.39864E-8	 	29644.246	33.739	 
870.0	1.0	0.0	7.47823	7.31149	-6.56074	19.09515	25.33085	1.47052	0.68003	133.00128	132.51106	49.89856	0.33272	 	9.896508904E7	 	5.63778E-8	 	29475.808	33.6876	 
865.0	1.0	0.0	7.48062	7.30916	-6.59057	19.07599	25.26208	1.46807	0.68116	133.39201	132.74956	50.05228	0.33253	 	1.119526244E8	 	4.96194E-8	 	29307.627	33.6362	 
860.0	1.0	0.0	7.48301	7.30683	-6.62035	19.05685	25.1933	1.46562	0.68231	133.78235	132.98714	50.20591	0.33234	 	1.267829057E8	 	4.36228E-8	 	29139.702	33.585	 
855.0	1.0	0.0	7.48539	7.3045	-6.65007	19.03773	25.12452	1.46314	0.68346	134.17231	133.22379	50.35943	0.33215	 	1.437366706E8	 	3.83077E-8	 	28972.032	33.534	 
850.0	1.0	0.0	7.48777	7.30218	-6.67973	19.01863	25.05573	1.46066	0.68462	134.56187	133.45953	50.51286	0.33196	 	1.631403259E8	 	3.36018E-8	 	28804.616	33.4832	 
845.0	1.0	0.0	7.49015	7.29986	-6.70934	18.99954	24.98695	1.45816	0.6858	134.95105	133.69434	50.66617	0.33177	 	1.853738443E8	 	2.944E-8	 	28637.453	33.4326	 
840.0	1.0	0.0	7.49252	7.29755	-6.73889	18.98048	24.91816	1.45564	0.68698	135.33982	133.92823	50.81939	0.33158	 	2.108801062E8	 	2.57635E-8	 	28470.541	33.3824	 
835.0	1.0	0.0	7.49489	7.29524	-6.76839	18.96143	24.84937	1.45312	0.68818	135.72821	134.1612	50.9725	0.33139	 	2.401759677E8	 	2.25193E-8	 	28303.879	33.3324	 
830.0	1.0	0.0	7.49726	7.29294	-6.79784	18.9424	24.78058	1.45058	0.68938	136.11619	134.39325	51.1255	0.3312	 	2.738653892E8	 	1.966E-8	 	28137.466	33.2826	 
825.0	1.0	0.0	7.49962	7.29064	-6.82723	18.9234	24.71179	1.44802	0.6906	136.50377	134.62439	51.27839	0.33101	 	3.126550296E8	 	1.71428E-8	 	27971.302	33.2328	 
820.0	1.0	0.0	7.50199	7.28834	-6.85656	18.90441	24.64299	1.44545	0.69182	136.89094	134.85461	51.43118	0.33082	 	3.57372797E8	 	1.49295E-8	 	27805.384	33.1836	 
815.0	1.0	0.0	7.50434	7.28605	-6.88584	18.88544	24.57419	1.44287	0.69306	137.27771	135.08391	51.58386	0.33063	 	4.08989944E8	 	1.29856E-8	 	27639.711	33.1346	 
810.0	1.0	0.0	7.5067	7.28377	-6.91507	18.86648	24.50539	1.44027	0.69431	137.66408	135.3123	51.73643	0.33044	 	4.686474244E8	 	1.12805E-8	 	27474.283	33.0856	 
805.0	1.0	0.0	7.50905	7.28148	-6.94424	18.84755	24.43659	1.43766	0.69557	138.05003	135.53978	51.88889	0.33025	 	5.376873768E8	 	9.78669E-9	 	27309.098	33.037	 
800.0	1.0	0.0	7.5114	7.27921	-6.97336	18.82864	24.36779	1.43503	0.69685	138.43557	135.76634	52.04123	0.33006	 	6.17690788E8	 	8.47961E-9	 	27144.154	32.9888	 
795.0	1.0	0.0	7.51375	7.27693	-7.00242	18.80974	24.29898	1.43239	0.69813	138.82069	135.992	52.19347	0.32987	 	7.105226154E8	 	7.33738E-9	 	26979.451	32.9406	 
790.0	1.0	0.0	7.5161	7.27466	-7.03142	18.79086	24.23017	1.42974	0.69943	139.2054	136.21674	52.34559	0.32968	 	8.183859241E8	 	6.34049E-9	 	26814.987	32.8928	 
785.0	1.0	0.0	7.51844	7.2724	-7.06038	18.772	24.16136	1.42706	0.70074	139.58969	136.44057	52.49759	0.32949	 	9.438869414E8	 	5.4716E-9	 	26650.76	32.8454	 
780.0	1.0	0.0	7.52078	7.27014	-7.08928	18.75317	24.09255	1.42438	0.70206	139.97357	136.66349	52.64949	0.3293	 	1.090113346E9	 	4.71526E-9	 	26486.769	32.7982	 
775.0	1.0	0.0	7.52311	7.26788	-7.11812	18.73434	24.02373	1.42168	0.70339	140.35701	136.88551	52.80126	0.32911	 	1.260728635E9	 	4.05778E-9	 	26323.012	32.7514	 
770.0	1.0	0.0	7.52544	7.26563	-7.14691	18.71554	23.95491	1.41896	0.70474	140.74003	137.10662	52.95292	0.32892	 	1.460086042E9	 	3.48702E-9	 	26159.489	32.7046	 
765.0	1.0	0.0	7.52777	7.26338	-7.17565	18.69676	23.88609	1.41623	0.7061	141.12263	137.32682	53.10447	0.32873	 	1.693366284E9	 	2.99224E-9	 	25996.196	32.6586	 
760.0	1.0	0.0	7.5301	7.26113	-7.20433	18.678	23.81727	1.41348	0.70747	141.5048	137.54612	53.25589	0.32854	 	1.966744391E9	 	2.56391E-9	 	25833.134	32.6124	 
755.0	1.0	0.0	7.53242	7.25889	-7.23296	18.65925	23.74844	1.41071	0.70886	141.88653	137.76452	53.4072	0.32835	 	2.287592075E9	 	2.19364E-9	 	25670.3	32.5668	 
750.0	1.0	0.0	7.53475	7.25666	-7.26154	18.64052	23.67962	1.40793	0.71026	142.26783	137.98201	53.55838	0.32816	 	2.664723632E9	 	1.87402E-9	 	25507.691	32.5218	 
745.0	1.0	0.0	7.53706	7.25442	-7.29006	18.62182	23.61079	1.40514	0.71167	142.6487	138.1986	53.70945	0.32797	 	3.108695249E9	 	1.59853E-9	 	25345.308	32.4766	 
740.0	1.0	0.0	7.53938	7.2522	-7.31852	18.60313	23.54195	1.40233	0.7131	143.02913	138.41429	53.86039	0.32778	 	3.63216991E9	 	1.36143E-9	 	25183.147	32.4322	 
735.0	1.0	0.0	7.54169	7.24997	-7.34694	18.58446	23.47312	1.3995	0.71454	143.40912	138.62908	54.01121	0.32759	 	4.250363075E9	 	1.15767E-9	 	25021.207	32.388	 
730.0	1.0	0.0	7.544	7.24775	-7.3753	18.56581	23.40428	1.39665	0.716	143.78867	138.84297	54.16191	0.3274	 	4.981587958E9	 	9.82844E-10	 	24859.485	32.3444	 
725.0	1.0	0.0	7.54631	7.24554	-7.40361	18.54717	23.33544	1.39379	0.71747	144.16777	139.05596	54.31249	0.32721	 	5.847923841E9	 	8.33069E-10	 	24697.981	32.3008	 
720.0	1.0	0.0	7.54861	7.24333	-7.43186	18.52856	23.2666	1.39091	0.71895	144.54643	139.26806	54.46294	0.32702	 	6.876036676E9	 	7.04958E-10	 	24536.69	32.2582	 
715.0	1.0	0.0	7.55091	7.24112	-7.46006	18.50997	23.19776	1.38802	0.72045	144.92464	139.47926	54.61326	0.32683	 	8.098188519E9	 	5.95555E-10	 	24375.613	32.2154	 
710.0	1.0	0.0	7.55321	7.23892	-7.48821	18.49139	23.12891	1.3851	0.72197	145.3024	139.68956	54.76346	0.32664	 	9.553481543E9	 	5.02279E-10	 	24214.745	32.1736	 
705.0	1.0	0.0	7.5555	7.23672	-7.5163	18.47283	23.06006	1.38217	0.7235	145.67971	139.89897	54.91353	0.32645	 	1.12894E10	 	4.22884E-10	 	24054.085	32.132	 
700.0	1.0	0.0	7.55779	7.23453	-7.54435	18.45429	22.99121	1.37923	0.72504	146.05657	140.10749	55.06347	0.32626	 	1.3363699999999998E10	 	3.55419E-10	 	23893.63	32.091	 
695.0	1.0	0.0	7.56008	7.23234	-7.57234	18.43577	22.92235	1.37626	0.72661	146.43297	140.31512	55.21328	0.32607	 	1.5846699999999998E10	 	2.98188E-10	 	23733.377	32.0506	 
690.0	1.0	0.0	7.56237	7.23015	-7.60027	18.41727	22.8535	1.37328	0.72818	146.80892	140.52185	55.36297	0.32588	 	1.88245E10	 	2.49723E-10	 	23573.324	32.0106	 
685.0	1.0	0.0	7.56465	7.22797	-7.62815	18.39879	22.78464	1.37028	0.72978	147.1844	140.7277	55.51252	0.32569	 	2.24021E10	 	2.08753E-10	 	23413.468	31.9712	 
680.0	1.0	0.0	7.56693	7.22579	-7.65598	18.38033	22.71577	1.36726	0.73139	147.55942	140.93266	55.66194	0.3255	 	2.6708399999999996E10	 	1.74181E-10	 	23253.805	31.9326	 
675.0	1.0	0.0	7.56921	7.22362	-7.68376	18.36188	22.64691	1.36422	0.73302	147.93398	141.13673	55.81123	0.32531	 	3.1901699999999996E10	 	1.45061E-10	 	23094.333	31.8944	 
670.0	1.0	0.0	7.57148	7.22145	-7.71149	18.34346	22.57804	1.36117	0.73466	148.30807	141.33991	55.96039	0.32512	 	3.81768E10	 	1.20578E-10	 	22935.048	31.857	 
665.0	1.0	0.0	7.57375	7.21928	-7.73916	18.32505	22.50917	1.3581	0.73632	148.6817	141.54221	56.10941	0.32493	 	4.57738E10	 	1.00033E-10	 	22775.946	31.8204	 
660.0	1.0	0.0	7.57602	7.21712	-7.76678	18.30666	22.4403	1.355	0.73801	149.05485	141.74362	56.2583	0.32474	 	5.498969999999999E10	 	8.28241E-11	 	22617.024	31.7844	 
655.0	1.0	0.0	7.57829	7.21496	-7.79435	18.28829	22.37142	1.35189	0.7397	149.42754	141.94415	56.40705	0.32455	 	6.619199999999999E10	 	6.84384E-11	 	22458.277	31.7494	 
650.0	1.0	0.0	7.58055	7.21281	-7.82186	18.26994	22.30254	1.34876	0.74142	149.79975	142.14379	56.55567	0.32436	 	7.98367E10	 	5.6436E-11	 	22299.701	31.7152	 
645.0	1.0	0.0	7.58281	7.21066	-7.84933	18.25161	22.23366	1.34561	0.74316	150.17148	142.34256	56.70415	0.32417	 	9.649119999999998E10	 	4.64422E-11	 	22141.292	31.6818	 
640.0	1.0	0.0	7.58506	7.20852	-7.87674	18.2333	22.16478	1.34244	0.74491	150.54274	142.54044	56.85249	0.32398	 	1.16863E11	 	3.81376E-11	 	21983.045	31.6494	 
635.0	1.0	0.0	7.58732	7.20638	-7.9041	18.21501	22.09589	1.33926	0.74668	150.91352	142.73745	57.0007	0.32379	 	1.41834E11	 	3.1251E-11	 	21824.954	31.6182	 
630.0	1.0	0.0	7.58957	7.20424	-7.93141	18.19673	22.027	1.33605	0.74848	151.28382	142.93357	57.14876	0.3236	 	1.72511E11	 	2.55522E-11	 	21667.013	31.5882	 
625.0	1.0	0.0	7.59181	7.20211	-7.95866	18.17847	21.95811	1.33282	0.75029	151.65363	143.12882	57.29669	0.32341	 	2.10283E11	 	2.08465E-11	 	21509.217	31.5592	 
620.0	1.0	0.0	7.59406	7.19998	-7.98587	18.16024	21.88921	1.32957	0.75212	152.02296	143.32319	57.44447	0.32322	 	2.56893E11	 	1.69691E-11	 	21351.558	31.5318	 
615.0	1.0	0.0	7.5963	7.19785	-8.01302	18.14202	21.82031	1.3263	0.75398	152.39181	143.51669	57.59212	0.32303	 	3.14545E11	 	1.37813E-11	 	21194.029	31.5058	 
610.0	1.0	0.0	7.59854	7.19573	-8.04012	18.12382	21.75141	1.32301	0.75585	152.76016	143.70931	57.73962	0.32284	 	3.86019E11	 	1.11664E-11	 	21036.624	31.481	 
605.0	1.0	0.0	7.60077	7.19362	-8.06717	18.10564	21.68251	1.31971	0.75775	153.12803	143.90106	57.88698	0.32265	 	4.74842E11	 	9.02622E-12	 	20879.332	31.4584	 
600.0	1.0	0.0	7.60301	7.1915	-8.09416	18.08747	21.6136	1.31637	0.75966	153.4954	144.09193	58.03419	0.32246	 	5.85492E11	 	7.27871E-12	 	20722.144	31.4376	 
595.0	1.0	0.0	7.60524	7.1894	-8.12111	18.06933	21.54469	1.31302	0.7616	153.86227	144.28194	58.18126	0.32227	 	7.23672E11	 	5.85517E-12	 	20565.051	31.4186	 
590.0	1.0	0.0	7.60746	7.18729	-8.148	18.05121	21.47578	1.30965	0.76356	154.22865	144.47107	58.32818	0.32208	 	8.96664E11	 	4.69833E-12	 	20408.041	31.402	 
585.0	1.0	0.0	7.60969	7.18519	-8.17485	18.0331	21.40686	1.30625	0.76555	154.59454	144.65934	58.47496	0.32189	 	1.11379E12	 	3.76051E-12	 	20251.102	31.3878	 
580.0	1.0	0.0	7.61191	7.18309	-8.20164	18.01501	21.33794	1.30284	0.76755	154.95992	144.84673	58.62159	0.3217	 	1.38702E12	 	3.00213E-12	 	20094.219	31.3766	 
575.0	1.0	0.0	7.61413	7.181	-8.22838	17.99694	21.26902	1.2994	0.76959	155.3248	145.03326	58.76807	0.32151	 	1.73175E12	 	2.39042E-12	 	19937.377	31.3684	 
570.0	1.0	0.0	7.61634	7.17891	-8.25507	17.9789	21.20009	1.29594	0.77164	155.68918	145.21893	58.91441	0.32132	 	2.16787E12	 	1.89827E-12	 	19780.56	31.3634	 
565.0	1.0	0.0	7.61855	7.17683	-8.28171	17.96086	21.13116	1.29246	0.77372	156.05305	145.40373	59.06059	0.32113	 	2.72111E12	 	1.50336E-12	 	19623.749	31.3622	 
560.0	1.0	0.0	7.62076	7.17475	-8.3083	17.94285	21.06223	1.28895	0.77582	156.41641	145.58766	59.20663	0.32094	 	3.42488E12	 	1.18731E-12	 	19466.921	31.3656	 
555.0	1.0	0.0	7.62297	7.17267	-8.33483	17.92486	20.9933	1.28542	0.77795	156.77927	145.77073	59.35251	0.32075	 	4.32266E12	 	9.3507E-13	 	19310.054	31.3734	 
550.0	1.0	0.0	7.62517	7.1706	-8.36132	17.90689	20.92436	1.28187	0.78011	157.14161	145.95294	59.49824	0.32056	 	5.47125E12	 	7.34309E-13	 	19153.121	31.3866	 
545.0	1.0	0.0	7.62737	7.16853	-8.38776	17.88893	20.85542	1.2783	0.78229	157.50344	146.13429	59.64382	0.32037	 	6.94503E12	 	5.7497E-13	 	18996.09	31.4062	 
540.0	1.0	0.0	7.62957	7.16647	-8.41414	17.87099	20.78647	1.2747	0.7845	157.86476	146.31478	59.78925	0.32018	 	8.84172E12	 	4.4887E-13	 	18837.777	31.6626	 
535.0	1.0	0.0	7.63176	7.16441	-8.44048	17.85308	20.71752	1.27108	0.78673	158.22556	146.49441	59.93452	0.31999	 	1.12901E13	 	3.49366E-13	 	18678.297	31.896	 
530.0	1.0	0.0	7.63396	7.16235	-8.46676	17.83518	20.64857	1.26743	0.789	158.58585	146.67318	60.07964	0.3198	 	1.44604E13	 	2.71083E-13	 	18519.378	31.7838	 
525.0	1.0	0.0	7.63614	7.1603	-8.49299	17.8173	20.57962	1.26376	0.79129	158.94561	146.8511	60.22461	0.31961	 	1.85786E13	 	2.09681E-13	 	18361.005	31.6746	 
520.0	1.0	0.0	7.63833	7.15825	-8.51918	17.79943	20.51066	1.26007	0.79361	159.30485	147.02816	60.36942	0.31942	 	2.39451E13	 	1.61668E-13	 	18203.163	31.5684	 
515.0	1.0	0.0	7.64051	7.1562	-8.54531	17.78159	20.4417	1.25635	0.79596	159.66357	147.20437	60.51407	0.31923	 	3.09614E13	 	1.24244E-13	 	18045.838	31.465	 
510.0	1.0	0.0	7.64269	7.15416	-8.57139	17.76377	20.37273	1.2526	0.79834	160.02176	147.37972	60.65856	0.31904	 	4.01653E13	 	9.51659E-14	 	17889.019	31.3638	 
505.0	1.0	0.0	7.64487	7.15212	-8.59743	17.74596	20.30376	1.24883	0.80075	160.37943	147.55422	60.8029	0.31885	 	5.22798E13	 	7.26468E-14	 	17732.692	31.2654	 
500.0	1.0	0.0	7.64704	7.15009	-8.62341	17.72818	20.23479	1.24504	0.80319	160.73656	147.72787	60.94707	0.31866	 	6.82808E13	 	5.52652E-14	 	17576.848	31.1688	 
495.0	1.0	0.0	7.64921	7.14806	-8.64934	17.71041	20.16581	1.24122	0.80566	161.09317	147.90067	61.09109	0.31847	 	8.94899E13	 	4.18947E-14	 	17421.475	31.0746	 
490.0	1.0	0.0	7.65138	7.14604	-8.67523	17.69266	20.09684	1.23737	0.80817	161.44925	148.07262	61.23495	0.31828	 	1.17704E14	 	3.16451E-14	 	17266.563	30.9824	 
485.0	1.0	0.0	7.65355	7.14402	-8.70106	17.67493	20.02785	1.2335	0.8107	161.80479	148.24372	61.37865	0.31809	 	1.55373E14	 	2.38158E-14	 	17112.103	30.892	 
480.0	1.0	0.0	7.65571	7.142	-8.72684	17.65722	19.95887	1.2296	0.81327	162.15979	148.41398	61.52218	0.3179	 	2.05857E14	 	1.78568E-14	 	16958.085	30.8036	 
475.0	1.0	0.0	7.65787	7.13998	-8.75258	17.63953	19.88988	1.22567	0.81588	162.51426	148.58339	61.66555	0.31771	 	2.7377099999999997E14	 	1.33379E-14	 	16804.503	30.7164	 
470.0	1.0	0.0	7.66002	7.13797	-8.77826	17.62185	19.82088	1.22172	0.81852	162.86819	148.75196	61.80876	0.31752	 	3.65491E14	 	9.924E-15	 	16651.346	30.6314	 
465.0	1.0	0.0	7.66218	7.13597	-8.8039	17.6042	19.75188	1.21774	0.82119	163.22158	148.91968	61.95181	0.31733	 	4.89854E14	 	7.35469E-15	 	16498.609	30.5474	 
460.0	1.0	0.0	7.66433	7.13397	-8.82948	17.58656	19.68288	1.21373	0.82391	163.57443	149.08656	62.09469	0.31714	 	6.59163E14	 	5.42859E-15	 	16346.283	30.4652	 
455.0	1.0	0.0	7.66648	7.13197	-8.85502	17.56895	19.61388	1.20969	0.82666	163.92673	149.2526	62.2374	0.31695	 	8.90615E14	 	3.99041E-15	 	16194.362	30.3842	 
450.0	1.0	0.0	7.66862	7.12997	-8.88051	17.55135	19.54487	1.20563	0.82944	164.27849	149.4178	62.37995	0.31676	 	1.20836E15	 	2.92092E-15	 	16042.841	30.3042	 
445.0	1.0	0.0	7.67076	7.12798	-8.90595	17.53377	19.47586	1.20153	0.83227	164.6297	149.58216	62.52234	0.31657	 	1.64644E15	 	2.1289E-15	 	15891.711	30.226	 
440.0	1.0	0.0	7.6729	7.126	-8.93133	17.51621	19.40684	1.19741	0.83513	164.98037	149.74568	62.66455	0.31638	 	2.25311E15	 	1.54484E-15	 	15740.969	30.1484	 
435.0	1.0	0.0	7.67504	7.12401	-8.95667	17.49867	19.33782	1.19326	0.83804	165.33048	149.90837	62.8066	0.31619	 	3.09702E15	 	1.11601E-15	 	15590.609	30.072	 
430.0	1.0	0.0	7.67717	7.12203	-8.98197	17.48114	19.26879	1.18908	0.84099	165.68004	150.07022	62.94848	0.316	 	4.27631E15	 	8.02537E-16	 	15440.625	29.9968	 
425.0	1.0	0.0	7.6793	7.12006	-9.00721	17.46364	19.19976	1.18487	0.84397	166.02905	150.23124	63.09019	0.31581	 	5.93203E15	 	5.74423E-16	 	15291.012	29.9226	 
420.0	1.0	0.0	7.68142	7.11809	-9.0324	17.44615	19.13073	1.18063	0.84701	166.37751	150.39143	63.23173	0.31562	 	8.26778E15	 	4.0919E-16	 	15141.767	29.849	 
415.0	1.0	0.0	7.68355	7.11612	-9.05755	17.42869	19.0617	1.17636	0.85008	166.72541	150.55078	63.3731	0.31543	 	1.1579E16	 	2.90068E-16	 	14992.884	29.7766	 
410.0	1.0	0.0	7.68567	7.11416	-9.08264	17.41124	18.99265	1.17206	0.8532	167.07275	150.7093	63.5143	0.31524	 	1.62964E16	 	2.04602E-16	 	14844.36	29.7048	 
405.0	1.0	0.0	7.68779	7.1122	-9.10769	17.39381	18.92361	1.16772	0.85637	167.41953	150.867	63.65532	0.31505	 	2.30518E16	 	1.43584E-16	 	14696.191	29.6338	 
400.0	1.0	0.0	7.6899	7.11024	-9.13269	17.3764	18.85456	1.16336	0.85958	167.76575	151.02386	63.79618	0.31486	 	3.2776E16	 	1.0024E-16	 	14548.373	29.5636	 
395.0	1.0	0.0	7.69201	7.10829	-9.15764	17.35901	18.78551	1.15896	0.86284	168.11141	151.1799	63.93686	0.31467	 	4.68483E16	 	6.96092E-17	 	14400.901	29.4944	 
390.0	1.0	0.0	7.69412	7.10634	-9.18254	17.34163	18.71645	1.15453	0.86615	168.4565	151.33512	64.07737	0.31448	 	6.7324400000000008E16	 	4.80757E-17	 	14253.775	29.4252	 
385.0	1.0	0.0	7.69623	7.1044	-9.2074	17.32428	18.64739	1.15007	0.86951	168.80103	151.48951	64.2177	0.31429	 	9.72847E16	 	3.30192E-17	 	14106.988	29.3574	 
380.0	1.0	0.0	7.69833	7.10245	-9.2322	17.30695	18.57832	1.14558	0.87292	169.145	151.64307	64.35786	0.3141	 	1.41372E17	 	2.25494E-17	 	13960.54	29.2896	 
375.0	1.0	0.0	7.70043	7.10052	-9.25696	17.28963	18.50925	1.14105	0.87639	169.4884	151.79582	64.49784	0.31391	 	2.06628E17	 	1.53099E-17	 	13814.427	29.2226	 
370.0	1.0	0.0	7.70253	7.09858	-9.28167	17.27233	18.44018	1.13649	0.8799	169.83122	151.94774	64.63765	0.31372	 	3.03793E17	 	1.03329E-17	 	13668.646	29.1562	 
365.0	1.0	0.0	7.70463	7.09665	-9.30633	17.25505	18.3711	1.13189	0.88348	170.17348	152.09885	64.77728	0.31353	 	4.49355E17	 	6.93138E-18	 	13523.195	29.0902	 
360.0	1.0	0.0	7.70672	7.09473	-9.33094	17.23779	18.30201	1.12726	0.8871	170.51517	152.24914	64.91673	0.31334	 	6.68786E17	 	4.62068E-18	 	13378.071	29.0248	 
355.0	1.0	0.0	7.70881	7.09281	-9.35551	17.22055	18.23292	1.1226	0.89079	170.85628	152.39861	65.05601	0.31315	 	1.00169E18	 	3.06066E-18	 	13233.272	28.9598	 
350.0	1.0	0.0	7.71089	7.09089	-9.38003	17.20333	18.16383	1.1179	0.89453	171.19682	152.54726	65.1951	0.31296	 	1.51007E18	 	2.0141E-18	 	13088.796	28.8952	 
345.0	1.0	0.0	7.71297	7.08897	-9.4045	17.18613	18.09473	1.11316	0.89834	171.53678	152.69511	65.33402	0.31277	 	2.29164E18	 	1.31654E-18	 	12944.64	28.8312	 
340.0	1.0	0.0	7.71505	7.08706	-9.42892	17.16894	18.02563	1.10839	0.90221	171.87617	152.84214	65.47276	0.31258	 	3.50145E18	 	8.54684E-19	 	12800.803	28.7674	 
335.0	1.0	0.0	7.71713	7.08515	-9.4533	17.15178	17.95652	1.10359	0.90614	172.21498	152.98836	65.61132	0.31239	 	5.38738E18	 	5.50959E-19	 	12657.283	28.704	 
330.0	1.0	0.0	7.7192	7.08325	-9.47763	17.13463	17.88741	1.09874	0.91013	172.55321	153.13377	65.7497	0.3122	 	8.34855E18	 	3.52615E-19	 	12514.078	28.641	 
325.0	1.0	0.0	7.72128	7.08135	-9.50191	17.1175	17.81829	1.09386	0.91419	172.89086	153.27838	65.8879	0.31201	 	1.30324E19	 	2.24013E-19	 	12371.187	28.5782	 
320.0	1.0	0.0	7.72334	7.07945	-9.52614	17.10039	17.74917	1.08894	0.91832	173.22793	153.42217	66.02591	0.31182	 	2.04974E19	 	1.41238E-19	 	12228.608	28.5158	 
315.0	1.0	0.0	7.72541	7.07756	-9.55033	17.0833	17.68005	1.08398	0.92252	173.56442	153.56517	66.16375	0.31163	 	3.24877E19	 	8.83601E-20	 	12086.338	28.454	 
310.0	1.0	0.0	7.72747	7.07567	-9.57447	17.06623	17.61091	1.07899	0.9268	173.90033	153.70736	66.3014	0.31144	 	5.19001E19	 	5.48402E-20	 	11944.379	28.3918	 
305.0	1.0	0.0	7.72953	7.07379	-9.59856	17.04918	17.54178	1.07395	0.93114	174.23565	153.84875	66.43887	0.31125	 	8.35866E19	 	3.37591E-20	 	11802.726	28.3306	 
300.0	1.0	0.0	7.73159	7.07191	-9.6226	17.03214	17.47264	1.06888	0.93556	174.57039	153.98934	66.57615	0.31106	 	1.3574299999999998E20	 	2.06081E-20	 	11661.381	28.269	 
295.0	1.0	0.0	7.73364	7.07003	-9.6466	17.01513	17.40349	1.06376	0.94006	174.90454	154.12913	66.71326	0.31087	 	2.2233299999999997E20	 	1.24723E-20	 	11520.341	28.208	 
290.0	1.0	0.0	7.73569	7.06815	-9.67055	16.99813	17.33434	1.05861	0.94464	175.23811	154.26812	66.85018	0.31068	 	3.67364E20	 	7.48194E-21	 	11379.605	28.1472	 
285.0	1.0	0.0	7.73774	7.06628	-9.69446	16.98115	17.26518	1.05341	0.9493	175.57109	154.40632	66.98691	0.31049	 	6.124859999999999E20	 	4.44776E-21	 	11239.174	28.0862	 
280.0	1.0	0.0	7.73978	7.06442	-9.71832	16.96419	17.19602	1.04817	0.95404	175.90348	154.54373	67.12346	0.3103	 	1.0306500000000001E21	 	2.61951E-21	 	11099.044	28.026	 
275.0	1.0	0.0	7.74183	7.06255	-9.74213	16.94725	17.12685	1.04289	0.95887	176.23528	154.68035	67.25982	0.31011	 	1.75084E21	 	1.52805E-21	 	10959.217	27.9654	 
270.0	1.0	0.0	7.74386	7.06069	-9.76589	16.93033	17.05768	1.03757	0.96379	176.56649	154.81618	67.396	0.30992	 	3.00346E21	 	8.82642E-22	 	10819.692	27.905	 
265.0	1.0	0.0	7.7459	7.05884	-9.78961	16.91343	16.9885	1.03221	0.9688	176.89712	154.95122	67.532	0.30973	 	5.20417E21	 	5.04706E-22	 	10680.467	27.845	 
260.0	1.0	0.0	7.74793	7.05699	-9.81328	16.89654	16.91932	1.0268	0.9739	177.22715	155.08547	67.66781	0.30954	 	9.11087E21	 	2.85612E-22	 	10541.542	27.785	 
255.0	1.0	0.0	7.74996	7.05514	-9.83691	16.87968	16.85013	1.02134	0.9791	177.5566	155.21894	67.80343	0.30935	 	1.6120299999999998E22	 	1.59908E-22	 	10402.918	27.7248	 
250.0	1.0	0.0	7.75199	7.05329	-9.86049	16.86283	16.78093	1.01585	0.9844	177.88545	155.35163	67.93886	0.30916	 	2.88352E22	 	8.85503E-23	 	10264.592	27.6652	 
245.0	1.0	0.0	7.75402	7.05145	-9.88402	16.84601	16.71173	1.0103	0.9898	178.21371	155.48354	68.07411	0.30897	 	5.216119999999999E22	 	4.84836E-23	 	10126.567	27.605	 
240.0	1.0	0.0	7.75604	7.04961	-9.90751	16.8292	16.64253	1.00471	0.99531	178.54138	155.61468	68.20918	0.30878	 	9.545269999999999E22	 	2.62387E-23	 	9988.84	27.5454	 
235.0	1.0	0.0	7.75806	7.04778	-9.93095	16.81241	16.57332	0.99908	1.00092	178.86846	155.74504	68.34405	0.30859	 	1.76764E23	 	1.40309E-23	 	9851.413	27.4854	 
230.0	1.0	0.0	7.76007	7.04595	-9.95434	16.79564	16.5041	0.9934	1.00665	179.19495	155.87462	68.47874	0.3084	 	3.31374E23	 	7.4108E-24	 	9714.284	27.4258	 
225.0	1.0	0.0	7.76208	7.04412	-9.97769	16.77889	16.43488	0.98767	1.01248	179.52085	156.00344	68.61324	0.30821	 	6.29104E23	 	3.86477E-24	 	9577.455	27.3658	 
220.0	1.0	0.0	7.76409	7.0423	-10.001	16.76215	16.36565	0.98189	1.01844	179.84616	156.13149	68.74756	0.30802	 	1.20996E24	 	1.98927E-24	 	9440.926	27.3058	 
215.0	1.0	0.0	7.7661	7.04048	-10.02426	16.74544	16.29641	0.97607	1.02452	180.17087	156.25877	68.88169	0.30783	 	2.35852E24	 	1.01018E-24	 	9304.696	27.246	 
210.0	1.0	0.0	7.76811	7.03866	-10.04747	16.72874	16.22717	0.97019	1.03073	180.495	156.38529	69.01563	0.30764	 	4.6613100000000004E24	 	5.05895E-25	 	9168.767	27.1858	 
205.0	1.0	0.0	7.77011	7.03685	-10.07063	16.71206	16.15792	0.96426	1.03706	180.81854	156.51105	69.14939	0.30745	 	9.344660000000001E24	 	2.49739E-25	 	9033.139	27.1256	 
200.0	1.0	0.0	7.7721	7.03504	-10.09376	16.69541	16.08867	0.95829	1.04353	181.14148	156.63606	69.28295	0.30726	 	1.9010900000000002E25	 	1.21474E-25	 	8897.812	27.0654	 
195.0	1.0	0.0	7.7741	7.03323	-10.11683	16.67877	16.01941	0.95226	1.05013	181.46384	156.76031	69.41634	0.30707	 	3.92674E25	 	5.81889E-26	 	8762.787	27.005	 
190.0	1.0	0.0	7.77609	7.03143	-10.13986	16.66215	15.95014	0.94618	1.05688	181.78561	156.8838	69.54953	0.30688	 	8.23877E25	 	2.74376E-26	 	8628.066	26.9442	 
185.0	1.0	0.0	7.77808	7.02963	-10.16285	16.64554	15.88087	0.94005	1.06377	182.1068	157.00655	69.68254	0.30669	 	1.75678E26	 	1.27285E-26	 	8493.648	26.8836	 
180.0	1.0	0.0	7.78007	7.02784	-10.18579	16.62896	15.81159	0.93387	1.07082	182.42739	157.12856	69.81537	0.3065	 	3.80916E26	 	5.8063E-27	 	8359.536	26.8224	 
175.0	1.0	0.0	7.78205	7.02605	-10.20868	16.6124	15.74231	0.92763	1.07802	182.74741	157.24982	69.94801	0.30631	 	8.403140000000001E26	 	2.60297E-27	 	8225.731	26.761	 
170.0	1.0	0.0	7.78403	7.02426	-10.23153	16.59585	15.67301	0.92133	1.08539	183.06684	157.37035	70.08047	0.30612	 	1.88716E27	 	1.14612E-27	 	8092.233	26.6996	 
165.0	1.0	0.0	7.78601	7.02247	-10.25434	16.57933	15.60372	0.91498	1.09292	183.38569	157.49014	70.21274	0.30593	 	4.31711E27	 	4.95355E-28	 	7959.045	26.6376	 
160.0	1.0	0.0	7.78799	7.02069	-10.2771	16.56282	15.53441	0.90858	1.10062	183.70396	157.60919	70.34483	0.30574	 	1.0066400000000001E28	 	2.10014E-28	 	7826.168	26.5754	 
155.0	1.0	0.0	7.78996	7.01891	-10.29982	16.54633	15.4651	0.90211	1.10851	184.02165	157.72753	70.47673	0.30555	 	2.3941200000000003E28	 	8.72844E-29	 	7693.605	26.5126	 
150.0	1.0	0.0	7.79193	7.01714	-10.32249	16.52986	15.39578	0.89559	1.11658	184.33877	157.84514	70.60846	0.30536	 	5.81177E28	 	3.55363E-29	 	7561.356	26.4498	 
145.0	1.0	0.0	7.79389	7.01537	-10.34511	16.51341	15.32645	0.88901	1.12484	184.65532	157.96202	70.74	0.30517	 	1.44106E29	 	1.41624E-29	 	7429.424	26.3864	 
140.0	1.0	0.0	7.79586	7.0136	-10.36769	16.49697	15.25712	0.88237	1.13331	184.9713	158.0782	70.87136	0.30498	 	3.6526E29	 	5.52068E-30	 	7297.812	26.3224	 
135.0	1.0	0.0	7.79782	7.01184	-10.39023	16.48056	15.18778	0.87568	1.14198	185.2867	158.19366	71.00255	0.30479	 	9.471470000000001E29	 	2.10324E-30	 	7166.523	26.2578	 
130.0	1.0	0.0	7.79978	7.01008	-10.41272	16.46417	15.11843	0.86892	1.15086	185.60155	158.30843	71.13355	0.3046	 	2.5147699999999998E30	 	7.82448E-31	 	7035.558	26.193	 
125.0	1.0	0.0	7.80173	7.00832	-10.43517	16.44779	15.04908	0.86209	1.15997	185.91584	158.42248	71.26438	0.30441	 	6.84273E30	 	2.83991E-31	 	6904.922	26.1272	 
120.0	1.0	0.0	7.80368	7.00657	-10.45758	16.43143	14.97971	0.85521	1.1693	186.22956	158.53585	71.39503	0.30422	 	1.90993E31	 	1.00468E-31	 	6774.616	26.0612	 
115.0	1.0	0.0	7.80563	7.00482	-10.47994	16.41509	14.91034	0.84826	1.17888	186.54274	158.64853	71.52552	0.30403	 	5.47385E31	 	3.46094E-32	 	6644.646	25.994	 
110.0	1.0	0.0	7.80758	7.00307	-10.50225	16.39877	14.84097	0.84125	1.18871	186.85537	158.76052	71.65582	0.30384	 	1.61251E32	 	1.15972E-32	 	6515.014	25.9264	 
105.0	1.0	0.0	7.80952	7.00133	-10.52452	16.38247	14.77158	0.83417	1.1988	187.16745	158.87183	71.78596	0.30365	 	4.88786E32	 	3.776E-33	 	6385.724	25.858	 
100.0	1.0	0.0	7.81146	6.99959	-10.54675	16.36619	14.70219	0.82703	1.20915	187.479	158.98248	71.91593	0.30346	 	1.52631E33	 	1.19324E-33	 	6256.781	25.7886	 
95.0	1.0	0.0	7.8134	6.99786	-10.56894	16.34993	14.63279	0.81981	1.21979	187.79001	159.09246	72.04573	0.30327	 	4.91585E33	 	3.65522E-34	 	6128.19	25.7182	 
90.0	1.0	0.0	7.81534	6.99612	-10.59108	16.33368	14.56338	0.81253	1.23072	188.1005	159.20178	72.17537	0.30308	 	1.63509E34	 	1.084E-34	 	5999.954	25.6472	 
85.0	1.0	0.0	7.81727	6.9944	-10.61317	16.31746	14.49397	0.80518	1.24195	188.41047	159.31045	72.30485	0.30289	 	5.624180000000001E34	 	3.10808E-35	 	5872.081	25.5746	 
80.0	1.0	0.0	7.8192	6.99267	-10.63522	16.30125	14.42454	0.79776	1.2535	188.71993	159.41848	72.43417	0.3027	 	2.00341E35	 	8.60353E-36	 	5744.575	25.5012	 
75.0	1.0	0.0	7.82112	6.99095	-10.65723	16.28506	14.35511	0.79027	1.26538	189.02888	159.52587	72.56333	0.30251	 	7.401599999999999E35	 	2.29577E-36	 	5617.442	25.4266	 
70.0	1.0	0.0	7.82305	6.98923	-10.6792	16.26889	14.28567	0.78271	1.27761	189.33733	159.63265	72.69234	0.30232	 	2.8406799999999995E36	 	5.89589E-37	 	5490.689	25.3506	 
65.0	1.0	0.0	7.82497	6.98751	-10.70112	16.25274	14.21622	0.77507	1.2902	189.6453	159.7388	72.8212	0.30213	 	1.13446E37	 	1.45481E-37	 	5364.322	25.2734	 
60.0	1.0	0.0	7.82688	6.9858	-10.723	16.23661	14.14676	0.76736	1.30317	189.95279	159.84435	72.94991	0.30194	 	4.72293E37	 	3.44283E-38	 	5238.35	25.1944	 
55.0	1.0	0.0	7.8288	6.98409	-10.74484	16.2205	14.07729	0.75958	1.31652	190.25981	159.9493	73.07848	0.30175	 	2.0535599999999998E38	 	7.79922E-39	 	5112.781	25.1138	 
50.0	1.0	0.0	7.83071	6.98239	-10.76663	16.20441	14.00782	0.75171	1.3303	190.56637	160.05367	73.20691	0.30156	 	9.344519999999999E38	 	1.68785E-39	 	4987.622	25.0318	 
45.0	1.0	0.0	7.83262	6.98069	-10.78838	16.18833	13.93834	0.74377	1.3445	190.87249	160.15747	73.33521	0.30137	 	4.4595300000000006E39	 	3.482E-40	 	4862.883	24.9478	 
40.0	1.0	0.0	7.83453	6.97899	-10.81008	16.17227	13.86884	0.73575	1.35916	191.17818	160.26071	73.46338	0.30118	 	2.23716E40	 	6.83192E-41	 	4738.574	24.8618	 
35.0	1.0	0.0	7.83643	6.97729	-10.83175	16.15624	13.79934	0.72765	1.37429	191.48344	160.3634	73.59143	0.30099	 	1.1825900000000001E41	 	1.27179E-41	 	4614.706	24.7736	 
30.0	1.0	0.0	7.83833	6.9756	-10.85337	16.14022	13.72983	0.71947	1.38992	191.78831	160.46555	73.71936	0.3008	 	6.60424E41	 	2.24038E-42	 	4491.289	24.6834	 
25.0	1.0	0.0	7.84023	6.97391	-10.87495	 	13.66031	0.7112	1.40607	192.09279	160.56719	73.84718	0.30061	 	3.90721E42	 	3.72438E-43	 	4368.336	 	 
