T (C)	Fraction solid (wt)-TOTAL	Fraction liquid (wt)-LIQUID	Density (g/(cm)^3)-TOTAL	Molar volume (cm^3)-TOTAL	Volume change (%)-  	Average expansion coeff. (10e-6 1/K)-  	Thermal conductivity (W/(m*K))-TOTAL	Electrical resistivity (10e-6 Ohm*m)-TOTAL	Electrical conductivity (10e6 1/(Ohm*m))-TOTAL	Young's modulus (GPa)-TOTAL	Bulk modulus (GPa)-TOTAL	Shear modulus(GPa)-TOTAL	Poisson's ratio-TOTAL	Liquid viscosity (mPa s)-  	Total viscosity (mPa s)-  	Liquid diffusivity (10e-9 (m^2)/s)-  	Total diffusivity (10e-9 (m^2)/s)-  	Surface Tension (mN/m)-  	Enthalpy (J/mole)-TOTAL	Specific heat (J/(mole K))-TOTAL	Latent heat (J/mole)-TOTAL
1500.0	0.0	1.0	6.85621	7.65374	0.0	30.33712	33.00931	1.75036	0.57131	0.0	98.06139	0.0	0.49976	5.64826	5.64826	1.53221	1.53221	1773.24448	64865.212	 	0.0
1495.0	0.0	1.0	6.86007	7.64943	-0.0562455	30.29565	32.9358	1.74932	0.57165	0.0	98.24094	0.0	0.49976	5.69458	5.69458	1.51546	1.51546	1775.28458	64647.953	43.4518	0.0
1490.0	0.0	1.0	6.86392	7.64514	-0.11233	30.25429	32.86228	1.74827	0.57199	0.0	98.42049	0.0	0.49976	5.74154	5.74154	1.49881	1.49881	1777.32257	64431.251	43.3404	0.0
1485.0	0.0	1.0	6.86776	7.64086	-0.16827	30.21306	32.78877	1.74722	0.57234	0.0	98.60004	0.0	0.49976	5.78916	5.78916	1.48227	1.48227	1779.35845	64215.103	43.2296	0.0
1480.0	0.0	1.0	6.8716	7.63659	-0.22405	30.17195	32.71526	1.74617	0.57268	0.0	98.77959	0.0	0.49976	5.83745	5.83745	1.46583	1.46583	1781.39218	63999.505	43.1196	0.0
1475.0	0.0	1.0	6.87544	7.63233	-0.27967	30.13096	32.64175	1.74511	0.57303	0.0	98.95915	0.0	0.49976	5.88642	5.88642	1.44949	1.44949	1783.42373	63784.453	43.0104	0.0
1470.0	0.0	1.0	6.87926	7.62809	-0.33513	30.0901	32.56824	1.74405	0.57338	0.0	99.1387	0.0	0.49976	5.93609	5.93609	1.43325	1.43325	1785.45308	63569.943	42.902	0.0
1465.0	0.0	1.0	6.88308	7.62386	-0.39044	30.04936	32.49473	1.74298	0.57373	0.0	99.31825	0.0	0.49976	5.98646	5.98646	1.41711	1.41711	1787.48018	63355.971	42.7944	0.0
1460.0	0.0	1.0	6.8869	7.61963	-0.44559	30.00875	32.42121	1.74191	0.57408	0.0	99.4978	0.0	0.49976	6.03756	6.03756	1.40107	1.40107	1789.50501	63142.535	42.6872	0.0
1455.0	0.0	1.0	6.8907	7.61542	-0.50059	29.96827	32.3477	1.74083	0.57444	0.0	99.67735	0.0	0.49976	6.08939	6.08939	1.38514	1.38514	1791.52754	62929.629	42.5812	0.0
1450.0	0.0	1.0	6.8945	7.61123	-0.55543	29.92792	32.27419	1.73974	0.5748	0.0	99.85691	0.0	0.49976	6.14198	6.14198	1.36931	1.36931	1793.54773	62717.253	42.4752	0.0
1445.0	0.0	1.0	6.8983	7.60704	-0.61011	29.8877	32.20068	1.73866	0.57516	0.0	100.03646	0.0	0.49976	6.19532	6.19532	1.35358	1.35358	1795.56555	62505.403	42.37	0.0
1440.0	0.0	1.0	6.90208	7.60287	-0.66464	29.84762	32.12717	1.73756	0.57552	0.0	100.21601	0.0	0.49976	6.24945	6.24945	1.33795	1.33795	1797.58096	62294.078	42.265	0.0
1435.0	0.0	1.0	6.90586	7.59871	-0.71901	29.80766	32.05366	1.73647	0.57588	0.0	100.39556	0.0	0.49976	6.30437	6.30437	1.32242	1.32242	1799.59394	62083.273	42.161	0.0
1430.0	0.0	1.0	6.90964	7.59456	-0.77323	29.76785	31.98014	1.73536	0.57625	0.0	100.57512	0.0	0.49976	6.3601	6.3601	1.307	1.307	1801.60444	61872.984	42.0578	0.0
1425.0	0.0	1.0	6.9134	7.59042	-0.82729	29.72817	31.90663	1.73425	0.57662	0.0	100.75467	0.0	0.49976	6.41665	6.41665	1.29168	1.29168	1803.61243	61663.209	41.955	0.0
1420.0	0.0	1.0	6.91716	7.58629	-0.88119	29.68863	31.83312	1.73314	0.57699	0.0	100.93422	0.0	0.49976	6.47405	6.47405	1.27646	1.27646	1805.61787	61453.944	41.853	0.0
1415.0	0.0	1.0	6.92092	7.58218	-0.93494	29.64923	31.75961	1.73202	0.57736	0.0	101.11377	0.0	0.49976	6.5323	6.5323	1.26134	1.26134	1807.62073	61245.185	41.7518	0.0
1410.0	0.0	1.0	6.92466	7.57808	-0.98853	29.60997	31.6861	1.7309	0.57773	0.0	101.29332	0.0	0.49976	6.59143	6.59143	1.24632	1.24632	1809.62097	61036.929	41.6512	0.0
1405.0	0.0	1.0	6.9284	7.57399	-1.04197	29.57086	31.61258	1.72977	0.57811	0.0	101.47288	0.0	0.49976	6.65145	6.65145	1.2314	1.2314	1811.61856	60829.171	41.5516	0.0
1400.0	0.0	1.0	6.93213	7.56991	-1.09525	29.53188	31.53907	1.72864	0.57849	0.0	101.65243	0.0	0.49976	6.71239	6.71239	1.21659	1.21659	1813.61344	60621.908	41.4526	0.0
1395.0	0.0	1.0	6.93586	7.56585	-1.14837	29.49306	31.46556	1.7275	0.57887	0.0	101.83198	0.0	0.49976	6.77425	6.77425	1.20188	1.20188	1815.60559	60415.137	41.3542	0.0
1390.0	0.0	1.0	6.93958	7.56179	-1.20134	29.45438	31.39205	1.72635	0.57926	0.0	102.01153	0.0	0.49976	6.83705	6.83705	1.18727	1.18727	1817.59496	60208.855	41.2564	0.0
1385.0	0.0	1.0	6.94329	7.55775	-1.25415	29.41586	31.31854	1.7252	0.57964	0.0	102.19108	0.0	0.49976	6.90083	6.90083	1.17276	1.17276	1819.58152	60003.059	41.1592	0.0
1381.29	0.0	1.0	6.94604	7.55476	-1.29321	29.38738	31.26403	1.72435	0.57993	0.0	102.32423	0.0	0.49976	6.94875	6.94875	1.16207	1.16207	1821.05278	59850.77	41.0739	0.0
1380.0	0.01216	0.98784	6.94874	7.55174	-1.33266	29.30533	31.27448	1.72242	0.58058	1.10181E-6	101.83178	3.67778E-7	0.49792	6.94974	7.05861	1.16099	1.14309	1821.12864	59686.1	127.422	111.642
1375.0	0.0568601	0.94314	6.95872	7.54095	-1.47364	29.01905	31.31163	1.71518	0.58303	5.33351E-4	100.04771	1.78837E-4	0.49117	6.9543	7.53148	1.15672	1.06808	1821.43804	59071.3	122.96	521.609
1374.71	0.0593101	0.94069	6.95926	7.54033	-1.48179	29.00239	31.31344	1.71478	0.58317	6.32075E-4	99.95034	2.11993E-4	0.49079	6.95458	7.56565	1.15648	1.06307	1821.45687	59037.106	 	544.083
1374.71	0.0593101	0.94069	6.95926	7.54033	-1.48179	29.00239	31.31344	1.71478	0.58317	6.32075E-4	99.95034	2.11993E-4	0.49079	6.95458	7.56565	1.15648	1.06307	1821.45687	59037.106	 	544.083
1370.0	0.12548	0.87452	6.97373	7.5247	-1.68599	28.53	31.39771	1.70528	0.58641	0.00237157	99.27815	8.00228E-4	0.48181	6.94586	9.90748	1.15462	0.80947	1821.39476	58143.598	185.54	1244.953
1365.0	0.18887	0.81113	6.98786	7.50971	-1.88175	28.08413	31.4732	1.69602	0.58962	0.0218022	98.83746	0.0074	0.47312	6.93633	18.91807	1.15269	0.42263	1821.3771	57272.269	174.266	1912.398
1360.0	0.24611	0.75389	7.00091	7.49607	-2.06003	27.6844	31.53556	1.6875	0.59259	0.0909516	98.51916	0.0310373	0.4652	6.92643	40.98567	1.15081	0.19448	1821.40901	56470.011	160.452	2511.241
1355.0	0.29795	0.70205	7.01304	7.4836	-2.22299	27.32523	31.58638	1.67962	0.59537	0.24244	98.28812	0.083145	0.45796	6.91595	82.56578	1.14902	0.0962456	1821.48857	55728.268	148.349	3050.039
1350.0	0.34503	0.65497	7.02428	7.47229	-2.3707	27.00687	31.62713	1.67231	0.59798	0.50202	98.12787	0.17295	0.45132	6.90546	149.53462	1.14724	0.052979	1821.60859	55039.779	137.698	3536.046
1345.0	0.38788	0.61212	7.03481	7.46187	-2.50681	26.71931	31.65855	1.6655	0.60042	0.88651	98.02717	0.3067	0.44523	6.89447	246.99285	1.14553	0.0319758	1821.7722	54398.405	128.275	3975.401
1340.0	0.42698	0.57302	7.04462	7.45238	-2.63087	26.46421	31.68179	1.65914	0.60272	1.40396	97.97824	0.48761	0.43962	6.88354	379.26755	1.1438	0.0207594	1821.97187	53798.861	119.909	4373.383
1335.0	0.46273	0.53727	7.05387	7.44352	-2.74665	26.23107	31.69717	1.65319	0.60489	2.05554	97.97317	0.71649	0.43444	6.87222	550.0674	1.14213	0.0142691	1822.21404	53236.646	112.443	4734.493
1330.0	0.49547	0.50453	7.06257	7.43541	-2.85254	26.02478	31.70605	1.64759	0.60695	2.83638	98.00843	0.99197	0.42967	6.86089	762.53881	1.14046	0.0102612	1822.48776	52707.835	105.762	5062.652
1325.0	0.52549	0.47451	7.07078	7.42783	-2.95166	25.83661	31.7084	1.64233	0.60889	3.73769	98.07694	1.31124	0.42525	6.84957	1019.38032	1.13878	0.00765188	1822.79953	52209.043	99.7584	5361.246
1320.0	0.55307	0.44693	7.07855	7.42087	-3.04249	25.67119	31.70544	1.63735	0.61074	4.7482	98.17735	1.67054	0.42115	6.8385	1323.19081	1.13706	0.00587653	1823.13881	51737.314	94.3458	5633.222
1315.0	0.57842	0.42158	7.08591	7.41437	-3.12741	25.5218	31.69717	1.63263	0.61251	5.85459	98.30402	2.06532	0.41736	6.82767	1676.16341	1.13529	0.00462447	1823.51042	51290.065	89.4498	5881.163
1310.0	0.60176	0.39824	7.09291	7.40833	-3.20642	25.38865	31.68422	1.62816	0.61419	7.04353	98.45471	2.49094	0.41383	6.81734	2080.69665	1.13343	0.00371364	1823.91055	50864.997	85.0136	6107.366
1305.0	0.62325	0.37675	7.09958	7.40267	-3.2803	25.26959	31.66694	1.6239	0.6158	8.30035	98.62638	2.94223	0.41055	6.80762	2538.82796	1.13146	0.0030339	1824.33866	50460.079	80.9836	6313.859
1300.0	0.64307	0.35693	7.10594	7.39737	-3.34963	25.16309	31.64572	1.61984	0.61734	9.61237	98.81668	3.41469	0.4075	6.79866	3053.10549	1.12936	0.00251487	1824.79458	50073.497	77.3164	6502.453
1295.0	0.66136	0.33864	7.11205	7.39234	-3.41535	25.06651	31.62089	1.61596	0.61883	10.96706	99.02308	3.90381	0.40466	6.79019	3626.01104	1.12718	0.00211079	1825.27986	49703.626	73.9742	6674.769
1290.0	0.67826	0.32174	7.11788	7.38765	-3.47652	24.98276	31.59272	1.61225	0.62025	12.35164	99.24483	4.40497	0.40201	6.78348	4260.14812	1.12469	0.00179086	1825.78573	49348.986	70.928	6832.289
1285.0	0.69388	0.30612	7.12349	7.38327	-3.5338	24.91005	31.56186	1.60866	0.62164	13.75768	99.47999	4.91507	0.39954	6.77778	4959.15498	1.12204	0.00153352	1826.31229	49008.236	68.15	6976.347
1280.0	0.70833	0.29167	7.12888	7.37909	-3.58849	24.84453	31.52811	1.60521	0.62297	15.17532	99.72606	5.43051	0.39723	6.77353	5726.14446	1.11914	0.00132385	1826.86502	48680.154	65.6164	7108.164
1276.79	0.7156	0.2844	7.1318	7.37629	-3.62506	24.79775	31.50528	1.60306	0.62381	15.93826	99.88675	5.70837	0.39604	6.77164	6204.75039	1.11714	0.00121921	1827.22858	48489.328	 	7173.277
1275.0	0.75044	0.24956	7.13914	7.36894	-3.72098	24.54317	31.49026	1.60197	0.62423	19.90984	100.32221	7.16288	0.38979	6.80069	7741.73855	1.11108	9.76026E-4	1825.95321	47931.523	149.726	7660.955
1270.0	0.82124	0.17876	7.15476	7.35342	-3.9238	24.02582	31.44412	1.59914	0.62534	30.75789	101.31284	11.1685	0.37699	6.88862	12001.32496	1.09336	6.27575E-4	1822.5873	46752.564	235.792	8644.495
1268.68	0.83412	0.16588	7.15783	7.35035	-3.96398	23.92924	31.43093	1.59844	0.62561	33.24838	101.52072	12.0935	0.37464	6.91253	13020.12169	1.08864	5.77972E-4	1821.72798	46523.275	 	8822.11
1265.0	0.87539	0.12461	7.16903	7.33922	-4.1094	23.55678	31.39274	1.59657	0.62634	42.73342	102.17024	15.62881	0.36714	7.00626	16661.78152	1.07152	4.50572E-4	1822.11221	45797.538	191.005	9404.524
1260.0	0.91123	0.0887666	7.17966	7.32864	-4.24757	23.22917	31.33931	1.59409	0.62732	53.7192	102.86881	19.74227	0.36051	7.1429	20965.72	1.0476	3.56912E-4	1822.35091	45104.336	138.64	9903.145
1255.0	0.93363	0.0663676	7.18727	7.32103	-4.34697	23.01806	31.28507	1.59165	0.62828	62.76841	103.43871	23.13999	0.35628	7.28817	24722.30298	1.02337	3.01692E-4	1822.35318	44604.023	100.063	10209.291
1250.0	0.94863	0.0513671	7.19324	7.31501	-4.42572	22.86894	31.23025	1.58922	0.62924	70.20244	103.9353	25.93642	0.35336	7.44085	28180.27451	0.99909	2.63806E-4	1822.17086	44209.068	78.991	10410.494
1245.0	0.95919	0.0408052	7.19823	7.30989	-4.49256	22.75554	31.17531	1.5868	0.6302	76.19406	104.38634	28.19438	0.35123	7.60002	31500.65294	0.97496	2.35224E-4	1821.84629	43876.834	66.4468	10549.384
1240.0	0.96692	0.0330812	7.2026	7.30536	-4.55177	22.66494	31.12023	1.58437	0.63117	80.94686	104.80736	29.98907	0.34961	7.7652	34790.18883	0.95108	2.12281E-4	1821.39538	43584.409	58.485	10648.879
1235.0	0.97278	0.0272185	7.20658	7.3012	-4.60607	22.58892	31.06506	1.58194	0.63214	84.73066	105.20766	31.42088	0.34832	7.93625	38131.12049	0.9275	1.93042E-4	1820.84703	43318.373	53.2072	10722.395
1230.0	0.97737	0.0226342	7.2103	7.2973	-4.65704	22.52274	31.00988	1.5795	0.63311	87.7802	105.59314	32.57733	0.34726	8.1124	41582.63498	0.90436	1.76432E-4	1820.21756	43070.661	49.5424	10777.997
1225.0	0.98103	0.018971	7.21383	7.29358	-4.70562	22.46353	30.95469	1.57705	0.63409	90.27648	105.96741	33.526	0.34637	8.29433	45189.54344	0.88158	1.6181E-4	1819.51573	42836.173	46.8976	10820.781
1220.0	0.98401	0.0159898	7.21723	7.29	-4.75249	22.40922	30.89951	1.5746	0.63508	92.36081	106.33306	34.31972	0.34559	8.48104	48990.76411	0.85929	1.48756E-4	1818.75833	42611.512	44.9322	10854.143
1215.0	0.98648	0.0135241	7.22053	7.28651	-4.798	22.35877	30.84435	1.57213	0.63608	94.1355	106.69183	34.99681	0.34492	8.67347	53021.13917	0.83742	1.36989E-4	1817.94547	42394.338	43.4348	10880.421
1210.0	0.98854	0.0114569	7.22376	7.2831	-4.84252	22.31107	30.78921	1.56966	0.63708	95.67618	107.04498	35.58563	0.34431	8.87111	57314.15996	0.81601	1.26302E-4	1817.08965	42182.993	42.269	10901.271
1205.0	0.9903	0.00970427	7.22693	7.27976	-4.88625	22.26551	30.73408	1.56717	0.63809	97.03788	107.39348	36.10688	0.34376	9.07436	61903.15276	0.79504	1.16545E-4	1816.19145	41976.275	41.3436	10917.89
1200.0	0.9918	0.00820081	7.23005	7.27646	-4.92936	22.22153	30.67898	1.56467	0.63911	98.2608	107.73794	36.57567	0.34325	9.28244	66822.03143	0.77459	1.076E-4	1815.26604	41773.295	40.596	10931.168
1195.0	0.9931	0.00690093	7.23314	7.2732	-4.97196	22.17885	30.62389	1.56217	0.64014	99.3749	108.07896	37.00329	0.34278	9.49615	72106.17974	0.75459	9.93767E-5	1814.31426	41573.383	39.9824	10941.773
1193.81	0.99338	0.00662013	7.23387	7.27243	-4.98197	22.16895	30.61082	1.56157	0.64038	99.62443	108.15937	37.09913	0.34268	9.54792	73416.68299	0.74989	9.7524E-5	1814.07748	41526.372	 	10943.93
1193.81	0.99338	0.00662013	7.23387	7.27243	-4.98197	22.16895	30.61082	1.56157	0.64038	99.62443	108.15937	37.09913	0.34268	9.54792	73416.68299	0.74989	9.7524E-5	1814.07748	41526.372	 	10943.93
1190.0	0.99439	0.0056123	7.23628	7.26991	-5.01496	22.13449	30.56837	1.55968	0.64116	100.49222	108.42224	37.43283	0.3423	9.70742	77840.5449	0.73565	9.17423E-5	1812.73464	41372.046	40.2674	10954.194
1185.0	0.99554	0.00445664	7.23941	7.26662	-5.05784	22.09013	30.51283	1.55717	0.64219	101.54364	108.7634	37.83754	0.34184	9.921	84025.84769	0.71735	8.46986E-5	1810.97812	41172.517	39.9058	10965.197
1180.0	0.99654	0.00345896	7.24252	7.26337	-5.10032	22.04669	30.45748	1.55466	0.64323	102.51528	109.10109	38.21191	0.3414	10.14031	90689.48611	0.69943	7.8206E-5	1809.20214	40975.682	39.367	10973.893
1175.0	0.99741	0.0025881	7.24561	7.26015	-5.14245	22.00404	30.40225	1.55212	0.64428	103.42246	109.43575	38.56176	0.341	10.36536	97878.80196	0.68189	7.22124E-5	1807.41729	40781.087	38.919	10980.735
1170.0	0.99818	0.00182226	7.24868	7.25695	-5.18431	21.96192	30.34712	1.54957	0.64534	104.27872	109.76772	38.89223	0.34061	10.59595	105646.5492	0.66475	6.66719E-5	1805.62478	40588.38	38.5414	10986.073
1165.0	0.99886	0.00114481	7.25173	7.25376	-5.2259	21.9203	30.29199	1.54701	0.64641	105.0926	110.09726	39.20657	0.34024	10.83238	114048.0546	0.64799	6.15465E-5	1803.83018	40397.288	38.2184	10990.177
1160.0	0.99946	5.41204E-4	7.25478	7.2506	-5.26724	21.87916	30.23699	1.54444	0.64748	105.87185	110.42464	39.50773	0.33989	11.07451	123144.5174	0.63162	5.6802E-5	1802.02974	40207.594	37.9388	10993.263
1155.0	1.0	0.0	7.25781	7.24745	-5.30838	21.83832	30.18208	1.54185	0.64857	106.62182	110.74995	39.79775	0.33955	 	133002.1433	 	5.24085E-5	 	40019.123	37.6942	10995.505
1150.0	1.0	0.0	7.26029	7.24497	-5.34071	21.82673	30.12529	1.53935	0.64963	107.07199	111.06463	39.97238	0.33932	 	143408.8109	 	4.84353E-5	 	39796.204	44.5838	 
1145.0	1.0	0.0	7.26277	7.2425	-5.373	21.81515	30.06851	1.53684	0.65069	107.52191	111.37818	40.14696	0.3391	 	154712.3787	 	4.47387E-5	 	39616.557	35.9294	 
1140.0	1.0	0.0	7.26524	7.24003	-5.40526	21.8036	30.01172	1.53432	0.65176	107.97157	111.69061	40.32151	0.33888	 	166997.0469	 	4.13015E-5	 	39437.135	35.8844	 
1135.0	1.0	0.0	7.26772	7.23757	-5.43748	21.79207	29.95493	1.53179	0.65283	108.42098	112.00193	40.49602	0.33866	 	180355.5532	 	3.81071E-5	 	39257.948	35.8374	 
1130.0	1.0	0.0	7.27019	7.2351	-5.46967	21.78055	29.89815	1.52925	0.65392	108.87013	112.31213	40.67049	0.33844	 	194890.1017	 	3.51399E-5	 	39079.004	35.7888	 
1125.0	1.0	0.0	7.27267	7.23264	-5.50181	21.76906	29.84136	1.5267	0.65501	109.31901	112.62121	40.84493	0.33822	 	210713.3994	 	3.23853E-5	 	38900.308	35.7392	 
1120.0	1.0	0.0	7.27514	7.23019	-5.53392	21.75759	29.78457	1.52414	0.65611	109.76763	112.92918	41.01931	0.338	 	227949.814	 	2.98295E-5	 	38721.861	35.6894	 
1115.0	1.0	0.0	7.27761	7.22773	-5.566	21.74615	29.72779	1.52157	0.65722	110.21598	113.23604	41.19366	0.33778	 	246736.6677	 	2.74593E-5	 	38543.664	35.6394	 
1110.0	1.0	0.0	7.28008	7.22528	-5.59804	21.73472	29.671	1.51899	0.65833	110.66406	113.5418	41.36796	0.33756	 	267225.6838	 	2.52626E-5	 	38365.715	35.5898	 
1105.0	1.0	0.0	7.28255	7.22283	-5.63004	21.72331	29.61421	1.5164	0.65946	111.11187	113.84645	41.54222	0.33734	 	289584.6066	 	2.32278E-5	 	38188.014	35.5402	 
1100.0	1.0	0.0	7.28502	7.22038	-5.662	21.71192	29.55742	1.5138	0.66059	111.55941	114.15	41.71644	0.33712	 	313999.0142	 	2.1344E-5	 	38010.56	35.4908	 
1095.0	1.0	0.0	7.28748	7.21794	-5.69393	21.70056	29.50063	1.51119	0.66173	112.00667	114.45245	41.89061	0.33689	 	340674.3512	 	1.96011E-5	 	37833.354	35.4412	 
1090.0	1.0	0.0	7.28995	7.2155	-5.72583	21.68921	29.44385	1.50857	0.66288	112.45366	114.75379	42.06473	0.33667	 	369838.2082	 	1.79895E-5	 	37656.394	35.392	 
1085.0	1.0	0.0	7.29241	7.21306	-5.75769	21.67789	29.38706	1.50595	0.66403	112.90036	115.05405	42.2388	0.33645	 	401742.8793	 	1.65001E-5	 	37479.679	35.343	 
1080.0	1.0	0.0	7.29487	7.21062	-5.78951	21.66659	29.33027	1.50331	0.6652	113.34678	115.35321	42.41283	0.33623	 	436668.2359	 	1.51245E-5	 	37303.21	35.2938	 
1075.0	1.0	0.0	7.29734	7.20819	-5.82129	21.65531	29.27348	1.50066	0.66637	113.79291	115.65127	42.5868	0.33601	 	474924.9556	 	1.38548E-5	 	37126.986	35.2448	 
1070.0	1.0	0.0	7.2998	7.20576	-5.85304	21.64405	29.21669	1.498	0.66756	114.23876	115.94825	42.76073	0.33579	 	516858.1541	 	1.26835E-5	 	36951.006	35.196	 
1065.0	1.0	0.0	7.30226	7.20333	-5.88476	21.63281	29.1599	1.49533	0.66875	114.68432	116.24414	42.93461	0.33557	 	562851.4747	 	1.16037E-5	 	36775.27	35.1472	 
1060.0	1.0	0.0	7.30472	7.20091	-5.91644	21.62159	29.10311	1.49265	0.66995	115.12959	116.53895	43.10843	0.33535	 	613331.6935	 	1.06089E-5	 	36599.777	35.0986	 
1055.0	1.0	0.0	7.30717	7.19849	-5.94808	21.61039	29.04633	1.48996	0.67116	115.57457	116.83268	43.2822	0.33513	 	668773.912	 	9.69292E-6	 	36424.526	35.0502	 
1050.0	1.0	0.0	7.30963	7.19607	-5.97969	21.59922	28.98954	1.48726	0.67238	116.01925	117.12532	43.45592	0.33491	 	729707.4158	 	8.85008E-6	 	36249.517	35.0018	 
1045.0	1.0	0.0	7.31209	7.19365	-6.01127	21.58806	28.93275	1.48454	0.67361	116.46363	117.41689	43.62959	0.33469	 	796722.2894	 	8.07504E-6	 	36074.75	34.9534	 
1040.0	1.0	0.0	7.31454	7.19124	-6.04281	21.57693	28.87596	1.48182	0.67485	116.90772	117.70738	43.8032	0.33447	 	870476.8912	 	7.36281E-6	 	35900.223	34.9054	 
1035.0	1.0	0.0	7.31699	7.18883	-6.07431	21.56581	28.81917	1.47909	0.67609	117.3515	117.9968	43.97675	0.33424	 	951706.3074	 	6.70875E-6	 	35725.936	34.8574	 
1030.0	1.0	0.0	7.31945	7.18642	-6.10578	21.55472	28.76238	1.47634	0.67735	117.79498	118.28515	44.15025	0.33402	 	1041231.921	 	6.10849E-6	 	35551.889	34.8094	 
1025.0	1.0	0.0	7.3219	7.18401	-6.13721	21.54365	28.70559	1.47359	0.67862	118.23816	118.57243	44.32369	0.3338	 	1139972.248	 	5.55798E-6	 	35378.081	34.7616	 
1020.0	1.0	0.0	7.32435	7.18161	-6.16861	21.5326	28.64881	1.47082	0.67989	118.68103	118.85865	44.49707	0.33358	 	1248955.231	 	5.05346E-6	 	35204.511	34.714	 
1015.0	1.0	0.0	7.3268	7.17921	-6.19998	21.52157	28.59202	1.46804	0.68118	119.12359	119.1438	44.6704	0.33336	 	1369332.176	 	4.59139E-6	 	35031.178	34.6666	 
1010.0	1.0	0.0	7.32924	7.17681	-6.23131	21.51056	28.53523	1.46526	0.68247	119.56584	119.42789	44.84367	0.33314	 	1502393.592	 	4.16851E-6	 	34858.082	34.6192	 
1005.0	1.0	0.0	7.33169	7.17442	-6.2626	21.49957	28.47844	1.46246	0.68378	120.00778	119.71092	45.01687	0.33292	 	1649587.184	 	3.78175E-6	 	34685.223	34.5718	 
1000.0	1.0	0.0	7.33414	7.17202	-6.29386	21.4886	28.42166	1.45965	0.6851	120.44941	119.9929	45.19002	0.3327	 	1812538.327	 	3.4283E-6	 	34512.599	34.5248	 
995.0	1.0	0.0	7.33658	7.16963	-6.32509	21.47766	28.36487	1.45683	0.68642	120.89072	120.27382	45.3631	0.33248	 	1993073.378	 	3.10552E-6	 	34340.211	34.4776	 
990.0	1.0	0.0	7.33903	7.16725	-6.35628	21.46673	28.30809	1.45399	0.68776	121.33171	120.55369	45.53613	0.33226	 	2193246.238	 	2.81096E-6	 	34168.056	34.431	 
985.0	1.0	0.0	7.34147	7.16486	-6.38744	21.45583	28.25131	1.45115	0.68911	121.77238	120.83251	45.70909	0.33204	 	2415368.65	 	2.54235E-6	 	33996.135	34.3842	 
980.0	1.0	0.0	7.34391	7.16248	-6.41856	21.44494	28.19452	1.44829	0.69047	122.21273	121.11029	45.88198	0.33182	 	2662044.792	 	2.2976E-6	 	33824.446	34.3378	 
975.0	1.0	0.0	7.34635	7.1601	-6.44965	21.43408	28.13774	1.44542	0.69184	122.65276	121.38702	46.05481	0.3316	 	2936210.799	 	2.07475E-6	 	33652.99	34.2912	 
970.0	1.0	0.0	7.34879	7.15772	-6.48071	21.42324	28.08096	1.44254	0.69322	123.09246	121.66271	46.22758	0.33137	 	3241179.973	 	1.87201E-6	 	33481.764	34.2452	 
965.0	1.0	0.0	7.35123	7.15535	-6.51173	21.41242	28.02419	1.43965	0.69461	123.53184	121.93736	46.40028	0.33115	 	3580694.53	 	1.68769E-6	 	33310.77	34.1988	 
960.0	1.0	0.0	7.35367	7.15298	-6.54272	21.40162	27.96741	1.43675	0.69602	123.97089	122.21097	46.57292	0.33093	 	3958984.91	 	1.52026E-6	 	33140.004	34.1532	 
955.0	1.0	0.0	7.3561	7.15061	-6.57367	21.39084	27.91064	1.43384	0.69743	124.40961	122.48354	46.74549	0.33071	 	4380837.79	 	1.3683E-6	 	32969.468	34.1072	 
950.0	1.0	0.0	7.35854	7.14824	-6.60459	21.38008	27.85386	1.43091	0.69886	124.84799	122.75509	46.91799	0.33049	 	4851674.183	 	1.23048E-6	 	32799.16	34.0616	 
945.0	1.0	0.0	7.36097	7.14588	-6.63548	21.36935	27.79709	1.42797	0.70029	125.28604	123.0256	47.09042	0.33027	 	5377639.175	 	1.10559E-6	 	32629.078	34.0164	 
940.0	1.0	0.0	7.36341	7.14351	-6.66633	21.35863	27.74033	1.42502	0.70175	125.72376	123.29509	47.26278	0.33005	 	5965705.173	 	9.9252E-7	 	32459.223	33.971	 
935.0	1.0	0.0	7.36584	7.14116	-6.69715	21.34794	27.68356	1.42206	0.70321	126.16114	123.56354	47.43508	0.32983	 	6623790.781	 	8.90227E-7	 	32289.593	33.926	 
930.0	1.0	0.0	7.36827	7.1388	-6.72794	21.33726	27.6268	1.41908	0.70468	126.59818	123.83098	47.6073	0.32961	 	7360897.834	 	7.97766E-7	 	32120.188	33.881	 
925.0	1.0	0.0	7.3707	7.13645	-6.75869	21.32661	27.57004	1.41609	0.70617	127.03488	124.0974	47.77945	0.32939	 	8187269.512	 	7.14264E-7	 	31951.006	33.8364	 
920.0	1.0	0.0	7.37313	7.13409	-6.78941	21.31598	27.51329	1.41309	0.70767	127.47124	124.36279	47.95153	0.32917	 	9114572.975	 	6.38918E-7	 	31782.047	33.7918	 
915.0	1.0	0.0	7.37556	7.13175	-6.8201	21.30537	27.45653	1.41008	0.70918	127.90725	124.62717	48.12354	0.32895	 	1.015611053E7	 	5.70993E-7	 	31613.309	33.7476	 
910.0	1.0	0.0	7.37798	7.1294	-6.85076	21.29478	27.39979	1.40705	0.71071	128.34292	124.89054	48.29547	0.32873	 	1.132706407E7	 	5.09811E-7	 	31444.792	33.7034	 
905.0	1.0	0.0	7.38041	7.12706	-6.88138	21.28421	27.34304	1.40401	0.71224	128.77824	125.15289	48.46734	0.32851	 	1.26447783E7	 	4.54754E-7	 	31276.494	33.6596	 
900.0	1.0	0.0	7.38284	7.12471	-6.91197	21.27366	27.2863	1.40096	0.71379	129.21321	125.41424	48.63912	0.32828	 	1.41290893E7	 	4.05253E-7	 	31108.414	33.616	 
895.0	1.0	0.0	7.38526	7.12238	-6.94252	21.26313	27.22957	1.3979	0.71536	129.64783	125.67458	48.81083	0.32806	 	1.580270603E7	 	3.60789E-7	 	30940.551	33.5726	 
890.0	1.0	0.0	7.38768	7.12004	-6.97305	21.25263	27.17284	1.39482	0.71694	130.0821	125.93391	48.98247	0.32784	 	1.769165397E7	 	3.20888E-7	 	30772.905	33.5292	 
885.0	1.0	0.0	7.39011	7.11771	-7.00354	21.24214	27.11612	1.39173	0.71853	130.51602	126.19224	49.15403	0.32762	 	1.98257913E7	 	2.85116E-7	 	30605.473	33.4864	 
880.0	1.0	0.0	7.39253	7.11537	-7.034	21.23168	27.0594	1.38863	0.72014	130.94958	126.44957	49.32551	0.3274	 	2.223941053E7	 	2.53075E-7	 	30438.254	33.4438	 
875.0	1.0	0.0	7.39495	7.11305	-7.06442	21.22124	27.00269	1.38551	0.72176	131.38278	126.70591	49.49692	0.32718	 	2.497194023E7	 	2.24405E-7	 	30271.248	33.4012	 
870.0	1.0	0.0	7.39737	7.11072	-7.09482	21.21081	26.94598	1.38238	0.72339	131.81562	126.96124	49.66824	0.32696	 	2.806876462E7	 	1.98777E-7	 	30104.452	33.3592	 
865.0	1.0	0.0	7.39978	7.1084	-7.12518	21.20041	26.88928	1.37923	0.72504	132.24811	127.21559	49.83949	0.32674	 	3.158218196E7	 	1.75891E-7	 	29937.866	33.3172	 
860.0	1.0	0.0	7.4022	7.10607	-7.15551	21.19003	26.83259	1.37608	0.7267	132.68023	127.46894	50.01066	0.32652	 	3.557252652E7	 	1.55475E-7	 	29771.488	33.2756	 
855.0	1.0	0.0	7.40462	7.10376	-7.1858	21.17967	26.77591	1.3729	0.72838	133.11199	127.7213	50.18174	0.3263	 	4.010948372E7	 	1.3728E-7	 	29605.316	33.2344	 
850.0	1.0	0.0	7.40703	7.10144	-7.21607	21.16933	26.71923	1.36972	0.73008	133.54338	127.97268	50.35275	0.32608	 	4.527363346E7	 	1.21082E-7	 	29439.348	33.1936	 
845.0	1.0	0.0	7.40945	7.09913	-7.2463	21.15902	26.66257	1.36652	0.73179	133.97441	128.22307	50.52368	0.32586	 	5.115826368E7	 	1.06677E-7	 	29273.584	33.1528	 
840.0	1.0	0.0	7.41186	7.09681	-7.2765	21.14872	26.60591	1.36331	0.73351	134.40506	128.47248	50.69452	0.32564	 	5.787150407E7	 	9.38805E-8	 	29108.021	33.1126	 
835.0	1.0	0.0	7.41427	7.0945	-7.30667	21.13844	26.54926	1.36008	0.73525	134.83535	128.72091	50.86528	0.32542	 	6.553883947E7	 	8.25252E-8	 	28942.657	33.0728	 
830.0	1.0	0.0	7.41669	7.0922	-7.33681	21.12819	26.49262	1.35684	0.73701	135.26527	128.96837	51.03595	0.3252	 	7.430607475E7	 	7.24598E-8	 	28777.49	33.0334	 
825.0	1.0	0.0	7.4191	7.08989	-7.36692	21.11796	26.43598	1.35358	0.73878	135.69481	129.21484	51.20655	0.32498	 	8.434283647E7	 	6.35477E-8	 	28612.519	32.9942	 
820.0	1.0	0.0	7.42151	7.08759	-7.39699	21.10774	26.37936	1.35031	0.74057	136.12397	129.46034	51.37705	0.32475	 	9.584671413E7	 	5.56659E-8	 	28447.741	32.9556	 
815.0	1.0	0.0	7.42391	7.08529	-7.42704	21.09755	26.32275	1.34702	0.74238	136.55276	129.70487	51.54747	0.32453	 	1.090481646E8	 	4.87032E-8	 	28283.154	32.9174	 
810.0	1.0	0.0	7.42632	7.083	-7.45705	21.08738	26.26615	1.34372	0.7442	136.98117	129.94843	51.71781	0.32431	 	1.242163277E8	 	4.25595E-8	 	28118.756	32.8796	 
805.0	1.0	0.0	7.42873	7.0807	-7.48703	21.07723	26.20956	1.34041	0.74604	137.4092	130.19103	51.88805	0.32409	 	1.416659331E8	 	3.7145E-8	 	27954.543	32.8426	 
800.0	1.0	0.0	7.43113	7.07841	-7.51698	21.0671	26.15297	1.33708	0.7479	137.83685	130.43265	52.05821	0.32387	 	1.61765512E8	 	3.23788E-8	 	27790.513	32.806	 
795.0	1.0	0.0	7.43354	7.07612	-7.5469	21.05699	26.0964	1.33373	0.74977	138.26412	130.67332	52.22829	0.32365	 	1.849471781E8	 	2.81885E-8	 	27626.664	32.7698	 
790.0	1.0	0.0	7.43594	7.07383	-7.57679	21.04691	26.03984	1.33037	0.75167	138.691	130.91302	52.39827	0.32343	 	2.1171829E8	 	2.45088E-8	 	27462.991	32.7346	 
785.0	1.0	0.0	7.43835	7.07155	-7.60665	21.03684	25.98329	1.327	0.75358	139.11749	131.15176	52.56816	0.32321	 	2.426753804E8	 	2.12818E-8	 	27299.492	32.6998	 
780.0	1.0	0.0	7.44075	7.06926	-7.63647	21.02679	25.92676	1.32361	0.75551	139.54359	131.38955	52.73796	0.32299	 	2.785208157E8	 	1.84552E-8	 	27136.164	32.6656	 
775.0	1.0	0.0	7.44315	7.06698	-7.66627	21.01677	25.87023	1.3202	0.75746	139.96931	131.62638	52.90767	0.32277	 	3.200827518E8	 	1.59826E-8	 	26973.002	32.6324	 
770.0	1.0	0.0	7.44555	7.0647	-7.69604	21.00677	25.81371	1.31678	0.75943	140.39463	131.86226	53.07729	0.32255	 	3.683390727E8	 	1.38225E-8	 	26810.003	32.5998	 
765.0	1.0	0.0	7.44795	7.06243	-7.72577	20.99678	25.7572	1.31335	0.76141	140.81956	132.09718	53.24682	0.32233	 	4.244461541E8	 	1.19378E-8	 	26647.161	32.5684	 
760.0	1.0	0.0	7.45035	7.06015	-7.75547	20.98682	25.70071	1.30989	0.76342	141.24409	132.33116	53.41625	0.32211	 	4.897734741E8	 	1.02957E-8	 	26484.472	32.5378	 
755.0	1.0	0.0	7.45274	7.05788	-7.78515	20.97688	25.64422	1.30643	0.76545	141.66823	132.56419	53.58559	0.32189	 	5.659453298E8	 	8.86684E-9	 	26321.932	32.508	 
750.0	1.0	0.0	7.45514	7.05561	-7.81479	20.96696	25.58775	1.30294	0.76749	142.09197	132.79628	53.75484	0.32167	 	6.548911945E8	 	7.6253E-9	 	26159.534	32.4796	 
745.0	1.0	0.0	7.45754	7.05335	-7.8444	20.95706	25.53128	1.29944	0.76956	142.51531	133.02742	53.92399	0.32145	 	7.589066075E8	 	6.54802E-9	 	25997.273	32.4522	 
740.0	1.0	0.0	7.45993	7.05108	-7.87399	20.94719	25.47483	1.29593	0.77165	142.93825	133.25763	54.09305	0.32123	 	8.807269188E8	 	5.6146E-9	 	25835.141	32.4264	 
735.0	1.0	0.0	7.46233	7.04882	-7.90354	20.93733	25.41838	1.29239	0.77376	143.36078	133.48689	54.26201	0.32101	 	1.02361675E9	 	4.807E-9	 	25673.133	32.4016	 
730.0	1.0	0.0	7.46472	7.04656	-7.93306	20.92749	25.36194	1.28885	0.77589	143.78291	133.71522	54.43087	0.32078	 	1.19147871E9	 	4.10929E-9	 	25511.239	32.3788	 
725.0	1.0	0.0	7.46711	7.04431	-7.96256	20.91768	25.30551	1.28528	0.77804	144.20464	133.94261	54.59963	0.32056	 	1.388985723E9	 	3.5074E-9	 	25349.452	32.3574	 
720.0	1.0	0.0	7.4695	7.04205	-7.99202	20.90789	25.24909	1.2817	0.78021	144.62596	134.16907	54.7683	0.32034	 	1.6217424E9	 	2.98896E-9	 	25187.762	32.338	 
715.0	1.0	0.0	7.47189	7.0398	-8.02145	20.89811	25.19267	1.2781	0.78241	145.04687	134.3946	54.93687	0.32012	 	1.896482146E9	 	2.54308E-9	 	25026.158	32.3208	 
710.0	1.0	0.0	7.47428	7.03755	-8.05086	20.88836	25.13626	1.27449	0.78463	145.46737	134.6192	55.10534	0.3199	 	2.221308375E9	 	2.16022E-9	 	24864.63	32.3056	 
705.0	1.0	0.0	7.47667	7.0353	-8.08023	20.87863	25.07985	1.27086	0.78687	145.88745	134.84287	55.27371	0.31968	 	2.605990221E9	 	1.83197E-9	 	24703.165	32.293	 
700.0	1.0	0.0	7.47906	7.03305	-8.10958	20.86892	25.02345	1.26721	0.78913	146.30713	135.06562	55.44198	0.31946	 	3.062325727E9	 	1.55101E-9	 	24541.749	32.2832	 
695.0	1.0	0.0	7.48144	7.03081	-8.13889	20.85923	24.96706	1.26355	0.79142	146.72638	135.28745	55.61014	0.31924	 	3.604588752E9	 	1.31091E-9	 	24380.367	32.2764	 
690.0	1.0	0.0	7.48383	7.02857	-8.16818	20.84956	24.91066	1.25987	0.79373	147.14522	135.50836	55.77821	0.31902	 	4.250079926E9	 	1.10607E-9	 	24218.691	32.3352	 
685.0	1.0	0.0	7.48621	7.02633	-8.19744	20.83991	24.85427	1.25618	0.79607	147.56365	135.72834	55.94617	0.3188	 	5.019807186E9	 	9.31608E-10	 	24055.617	32.6148	 
680.0	1.0	0.0	7.4886	7.02409	-8.22666	20.83029	24.79788	1.25246	0.79843	147.98165	135.94742	56.11403	0.31858	 	5.939328017E9	 	7.83268E-10	 	23892.972	32.529	 
675.0	1.0	0.0	7.49098	7.02186	-8.25586	20.82068	24.74149	1.24873	0.80081	148.39923	136.16557	56.28178	0.31836	 	7.039793878E9	 	6.57361E-10	 	23730.747	32.445	 
670.0	1.0	0.0	7.49336	7.01962	-8.28503	20.8111	24.68509	1.24498	0.80322	148.81639	136.38282	56.44944	0.31814	 	8.359247952E9	 	5.50681E-10	 	23568.936	32.3622	 
665.0	1.0	0.0	7.49575	7.01739	-8.31417	20.80154	24.6287	1.24122	0.80566	149.23313	136.59915	56.61698	0.31792	 	9.944240978E9	 	4.60455E-10	 	23407.531	32.281	 
660.0	1.0	0.0	7.49813	7.01517	-8.34328	20.79199	24.5723	1.23744	0.80812	149.64944	136.81457	56.78442	0.3177	 	1.1851799999999998E10	 	3.84284E-10	 	23246.525	32.2012	 
655.0	1.0	0.0	7.50051	7.01294	-8.37237	20.78247	24.5159	1.23364	0.81061	150.06532	137.02909	56.95176	0.31748	 	1.4152199999999998E10	 	3.20097E-10	 	23085.913	32.1224	 
650.0	1.0	0.0	7.50289	7.01072	-8.40142	20.77297	24.45949	1.22982	0.81313	150.48077	137.2427	57.11898	0.31726	 	1.6931599999999998E10	 	2.6611E-10	 	22925.688	32.045	 
645.0	1.0	0.0	7.50526	7.00849	-8.43045	20.76349	24.40307	1.22599	0.81567	150.8958	137.45541	57.2861	0.31704	 	2.02965E10	 	2.2079E-10	 	22765.844	31.9688	 
640.0	1.0	0.0	7.50764	7.00627	-8.45945	20.75403	24.34665	1.22214	0.81824	151.31039	137.66722	57.45311	0.31682	 	2.4378599999999996E10	 	1.82818E-10	 	22606.376	31.8936	 
635.0	1.0	0.0	7.51002	7.00406	-8.48842	20.7446	24.29022	1.21827	0.82084	151.72455	137.87812	57.62002	0.3166	 	2.9340999999999996E10	 	1.51067E-10	 	22447.279	31.8194	 
630.0	1.0	0.0	7.51239	7.00184	-8.51736	20.73518	24.23377	1.21439	0.82346	152.13827	138.08814	57.78681	0.31638	 	3.53863E10	 	1.2457E-10	 	22288.547	31.7464	 
625.0	1.0	0.0	7.51477	6.99963	-8.54627	20.72578	24.17732	1.21048	0.82612	152.55156	138.29725	57.95349	0.31615	 	4.27663E10	 	1.02502E-10	 	22130.177	31.674	 
620.0	1.0	0.0	7.51714	6.99742	-8.57515	20.71641	24.12085	1.20656	0.8288	152.96441	138.50547	58.12006	0.31593	 	5.179539999999999E10	 	8.41627E-11	 	21972.162	31.603	 
615.0	1.0	0.0	7.51952	6.99521	-8.60401	20.70705	24.06437	1.20262	0.83152	153.37682	138.7128	58.28653	0.31571	 	6.286659999999999E10	 	6.8953E-11	 	21814.5	31.5324	 
610.0	1.0	0.0	7.52189	6.993	-8.63284	20.69772	24.00787	1.19867	0.83426	153.78879	138.91924	58.45288	0.31549	 	7.64721E10	 	5.63661E-11	 	21657.186	31.4628	 
605.0	1.0	0.0	7.52426	6.9908	-8.66164	20.68841	23.95136	1.19469	0.83704	154.20032	139.1248	58.61911	0.31527	 	9.32302E10	 	4.59726E-11	 	21500.216	31.394	 
600.0	1.0	0.0	7.52663	6.9886	-8.69041	20.67912	23.89483	1.1907	0.83984	154.6114	139.32946	58.78524	0.31505	 	1.13919E11	 	3.74091E-11	 	21343.587	31.3258	 
595.0	1.0	0.0	7.529	6.9864	-8.71916	20.66985	23.83828	1.18669	0.84268	155.02204	139.53325	58.95125	0.31483	 	1.39522E11	 	3.03695E-11	 	21187.294	31.2586	 
590.0	1.0	0.0	7.53137	6.9842	-8.74787	20.6606	23.78171	1.18266	0.84555	155.43223	139.73615	59.11714	0.31461	 	1.71282E11	 	2.45958E-11	 	21031.335	31.1918	 
585.0	1.0	0.0	7.53374	6.982	-8.77656	20.65137	23.72513	1.17862	0.84845	155.84198	139.93817	59.28292	0.31439	 	2.10775E11	 	1.98715E-11	 	20875.707	31.1256	 
580.0	1.0	0.0	7.53611	6.97981	-8.80523	20.64216	23.66852	1.17455	0.85139	156.25128	140.13931	59.44859	0.31417	 	2.60006E11	 	1.6015E-11	 	20720.406	31.0602	 
575.0	1.0	0.0	7.53848	6.97762	-8.83386	20.63298	23.61189	1.17047	0.85436	156.66012	140.33957	59.61414	0.31395	 	3.21534E11	 	1.28746E-11	 	20565.429	30.9954	 
570.0	1.0	0.0	7.54084	6.97543	-8.86247	20.62381	23.55524	1.16637	0.85736	157.06851	140.53896	59.77957	0.31373	 	3.98625E11	 	1.03235E-11	 	20410.774	30.931	 
565.0	1.0	0.0	7.54321	6.97324	-8.89105	20.61467	23.49856	1.16225	0.8604	157.47645	140.73748	59.94488	0.31351	 	4.95471E11	 	8.25639E-12	 	20256.438	30.8672	 
560.0	1.0	0.0	7.54557	6.97106	-8.9196	20.60554	23.44186	1.15811	0.86348	157.88394	140.93512	60.11008	0.31329	 	6.17458E11	 	6.58571E-12	 	20102.418	30.804	 
555.0	1.0	0.0	7.54794	6.96887	-8.94813	20.59644	23.38514	1.15395	0.86659	158.29097	141.1319	60.27516	0.31307	 	7.7153E11	 	5.23893E-12	 	19948.713	30.741	 
550.0	1.0	0.0	7.5503	6.96669	-8.97663	20.58736	23.3284	1.14977	0.86974	158.69754	141.32781	60.44012	0.31285	 	9.66664E11	 	4.15614E-12	 	19795.32	30.6786	 
545.0	1.0	0.0	7.55266	6.96451	-9.0051	20.5783	23.27162	1.14558	0.87292	159.10365	141.52285	60.60496	0.31263	 	1.2145E12	 	3.28793E-12	 	19642.236	30.6168	 
540.0	1.0	0.0	7.55502	6.96233	-9.03355	20.56926	23.21483	1.14136	0.87615	159.5093	141.71703	60.76967	0.31241	 	1.53017E12	 	2.59369E-12	 	19489.459	30.5554	 
535.0	1.0	0.0	7.55738	6.96016	-9.06197	20.56024	23.15801	1.13713	0.87941	159.91448	141.91034	60.93427	0.31219	 	1.93341E12	 	2.04011E-12	 	19336.989	30.494	 
530.0	1.0	0.0	7.55975	6.95799	-9.09036	20.55124	23.10116	1.13287	0.88271	160.31921	142.1028	61.09875	0.31197	 	2.45006E12	 	1.59995E-12	 	19184.822	30.4334	 
525.0	1.0	0.0	7.5621	6.95582	-9.11872	20.54227	23.04429	1.1286	0.88606	160.72347	142.2944	61.2631	0.31175	 	3.11401E12	 	1.25098E-12	 	19032.957	30.373	 
520.0	1.0	0.0	7.56446	6.95365	-9.14706	20.53331	22.98739	1.1243	0.88944	161.12726	142.48514	61.42733	0.31153	 	3.96988E12	 	9.75135E-13	 	18881.391	30.3132	 
515.0	1.0	0.0	7.56682	6.95148	-9.17537	20.52438	22.93047	1.11999	0.89287	161.53058	142.67502	61.59144	0.31131	 	5.07662E12	 	7.57741E-13	 	18730.125	30.2532	 
510.0	1.0	0.0	7.56918	6.94931	-9.20366	20.51546	22.87353	1.11565	0.89634	161.93344	142.86405	61.75542	0.31109	 	6.51235E12	 	5.8694E-13	 	18579.155	30.194	 
505.0	1.0	0.0	7.57154	6.94715	-9.23192	20.50657	22.81656	1.1113	0.89985	162.33582	143.05223	61.91928	0.31087	 	8.38093E12	 	4.53166E-13	 	18428.481	30.1348	 
500.0	1.0	0.0	7.57389	6.94499	-9.26016	20.4977	22.75956	1.10692	0.9034	162.73774	143.23956	62.08302	0.31065	 	1.0821E13	 	3.48726E-13	 	18278.101	30.076	 
495.0	1.0	0.0	7.57625	6.94283	-9.28836	20.48885	22.70255	1.10253	0.90701	163.13917	143.42604	62.24662	0.31043	 	1.4018E13	 	2.67453E-13	 	18128.014	30.0174	 
490.0	1.0	0.0	7.5786	6.94067	-9.31654	20.48002	22.64551	1.09811	0.91066	163.54014	143.61168	62.4101	0.31021	 	1.82214E13	 	2.04416E-13	 	17978.218	29.9592	 
485.0	1.0	0.0	7.58095	6.93852	-9.3447	20.47121	22.58845	1.09367	0.91435	163.94063	143.79647	62.57346	0.30999	 	2.37673E13	 	1.5569E-13	 	17828.712	29.9012	 
480.0	1.0	0.0	7.58331	6.93637	-9.37283	20.46242	22.53137	1.08921	0.9181	164.34064	143.98042	62.73669	0.30977	 	3.11109E13	 	1.18156E-13	 	17679.495	29.8434	 
475.0	1.0	0.0	7.58566	6.93422	-9.40094	20.45365	22.47426	1.08473	0.92189	164.74017	144.16352	62.89978	0.30954	 	4.08705E13	 	8.93439E-14	 	17530.565	29.786	 
470.0	1.0	0.0	7.58801	6.93207	-9.42901	20.44491	22.41714	1.08022	0.92573	165.13922	144.34579	63.06275	0.30932	 	5.38895E13	 	6.73068E-14	 	17381.923	29.7284	 
465.0	1.0	0.0	7.59036	6.92992	-9.45707	20.43618	22.36	1.0757	0.92963	165.53779	144.52722	63.22559	0.3091	 	7.13226E13	 	5.05131E-14	 	17233.567	29.6712	 
460.0	1.0	0.0	7.59271	6.92777	-9.4851	20.42748	22.30284	1.07115	0.93358	165.93587	144.70781	63.3883	0.30888	 	9.4757E13	 	3.77631E-14	 	17085.495	29.6144	 
455.0	1.0	0.0	7.59506	6.92563	-9.5131	20.41879	22.24566	1.06658	0.93758	166.33347	144.88757	63.55088	0.30866	 	1.2638399999999998E14	 	2.812E-14	 	16937.707	29.5576	 
450.0	1.0	0.0	7.59741	6.92349	-9.54107	20.41013	22.18847	1.06199	0.94163	166.73059	145.0665	63.71333	0.30844	 	1.69241E14	 	2.0855E-14	 	16790.203	29.5008	 
445.0	1.0	0.0	7.59976	6.92135	-9.56903	20.40149	22.13126	1.05737	0.94574	167.12722	145.2446	63.87565	0.30822	 	2.27554E14	 	1.54034E-14	 	16642.98	29.4446	 
440.0	1.0	0.0	7.60211	6.91921	-9.59695	20.39287	22.07404	1.05273	0.94991	167.52336	145.42186	64.03783	0.308	 	3.07233E14	 	1.13292E-14	 	16496.04	29.388	 
435.0	1.0	0.0	7.60445	6.91708	-9.62485	20.38427	22.01681	1.04807	0.95414	167.91901	145.5983	64.19989	0.30778	 	4.16577E14	 	8.29692E-15	 	16349.38	29.332	 
430.0	1.0	0.0	7.6068	6.91494	-9.65273	20.37569	21.95956	1.04338	0.95842	168.31417	145.77392	64.3618	0.30756	 	5.67289E14	 	6.04965E-15	 	16203.0	29.276	 
425.0	1.0	0.0	7.60915	6.91281	-9.68058	20.36713	21.90231	1.03867	0.96277	168.70884	145.94871	64.52359	0.30734	 	7.75954E14	 	4.39136E-15	 	16056.9	29.22	 
420.0	1.0	0.0	7.61149	6.91068	-9.70841	20.35859	21.84504	1.03393	0.96718	169.10301	146.12268	64.68524	0.30712	 	1.06618E15	 	3.17309E-15	 	15911.079	29.1642	 
415.0	1.0	0.0	7.61384	6.90855	-9.73621	20.35008	21.78777	1.02917	0.97165	169.49669	146.29583	64.84675	0.3069	 	1.47175E15	 	2.2821E-15	 	15765.536	29.1086	 
410.0	1.0	0.0	7.61618	6.90643	-9.76399	20.34158	21.73049	1.02439	0.97619	169.88987	146.46815	65.00813	0.30668	 	2.04121E15	 	1.63348E-15	 	15620.272	29.0528	 
405.0	1.0	0.0	7.61852	6.9043	-9.79174	20.33311	21.6732	1.01958	0.9808	170.28255	146.63967	65.16938	0.30646	 	2.84471E15	 	1.16352E-15	 	15475.285	28.9974	 
400.0	1.0	0.0	7.62087	6.90218	-9.81947	20.32466	21.61591	1.01474	0.98547	170.67474	146.81036	65.33048	0.30624	 	3.98411E15	 	8.24645E-16	 	15330.575	28.942	 
395.0	1.0	0.0	7.62321	6.90006	-9.84717	20.31622	21.55862	1.00988	0.99021	171.06643	146.98025	65.49145	0.30602	 	5.6081E15	 	5.81494E-16	 	15186.142	28.8866	 
390.0	1.0	0.0	7.62555	6.89794	-9.87485	20.30781	21.50132	1.005	0.99503	171.45761	147.14932	65.65228	0.3058	 	7.93487E15	 	4.07904E-16	 	15041.985	28.8314	 
385.0	1.0	0.0	7.62789	6.89583	-9.90251	20.29942	21.44402	1.00008	0.99992	171.8483	147.31758	65.81297	0.30558	 	1.12864E16	 	2.84613E-16	 	14898.104	28.7762	 
380.0	1.0	0.0	7.63023	6.89371	-9.93014	20.29105	21.38672	0.99515	1.00488	172.23848	147.48503	65.97353	0.30536	 	1.61405E16	 	1.97507E-16	 	14754.5	28.7208	 
375.0	1.0	0.0	7.63257	6.8916	-9.95775	20.28271	21.32942	0.99018	1.00992	172.62815	147.65168	66.13394	0.30514	 	2.321E16	 	1.36297E-16	 	14611.171	28.6658	 
370.0	1.0	0.0	7.63491	6.88949	-9.98533	20.27438	21.27212	0.98519	1.01503	173.01732	147.81752	66.29422	0.30492	 	3.3565100000000004E16	 	9.35213E-17	 	14468.117	28.6108	 
365.0	1.0	0.0	7.63725	6.88738	-10.01289	20.26607	21.21482	0.98017	1.02023	173.40598	147.98256	66.45435	0.3047	 	4.88218E16	 	6.37964E-17	 	14325.339	28.5556	 
360.0	1.0	0.0	7.63958	6.88527	-10.04042	20.25779	21.15753	0.97512	1.02551	173.79414	148.1468	66.61434	0.30448	 	7.1434900000000008E16	 	4.32597E-17	 	14182.836	28.5006	 
355.0	1.0	0.0	7.64192	6.88316	-10.06794	20.24952	21.10023	0.97005	1.03088	174.18178	148.31024	66.7742	0.30426	 	1.05157E17	 	2.91548E-17	 	14040.609	28.4454	 
350.0	1.0	0.0	7.64426	6.88106	-10.09542	20.24128	21.04295	0.96495	1.03633	174.56892	148.47288	66.93391	0.30404	 	1.55763E17	 	1.9526E-17	 	13898.657	28.3904	 
345.0	1.0	0.0	7.64659	6.87896	-10.12289	20.23306	20.98566	0.95982	1.04186	174.95554	148.63473	67.09347	0.30382	 	2.32195E17	 	1.29936E-17	 	13756.98	28.3354	 
340.0	1.0	0.0	7.64893	6.87686	-10.15033	20.22485	20.92839	0.95466	1.04749	175.34165	148.79578	67.2529	0.3036	 	3.48393E17	 	8.58983E-18	 	13615.578	28.2804	 
335.0	1.0	0.0	7.65126	6.87476	-10.17775	20.21667	20.87111	0.94947	1.05322	175.72725	148.95604	67.41218	0.30338	 	5.2624E17	 	5.64044E-18	 	13474.452	28.2252	 
330.0	1.0	0.0	7.6536	6.87266	-10.20514	20.20851	20.81385	0.94426	1.05903	176.11233	149.11551	67.57132	0.30316	 	8.00332E17	 	3.67825E-18	 	13333.602	28.17	 
325.0	1.0	0.0	7.65593	6.87057	-10.23251	20.20038	20.75659	0.93901	1.06495	176.4969	149.27419	67.73031	0.30294	 	1.22575E18	 	2.38174E-18	 	13193.028	28.1148	 
320.0	1.0	0.0	7.65826	6.86848	-10.25986	20.19226	20.69934	0.93374	1.07096	176.88095	149.43208	67.88916	0.30272	 	1.89084E18	 	1.53107E-18	 	13052.729	28.0598	 
315.0	1.0	0.0	7.6606	6.86638	-10.28718	20.18416	20.64209	0.92844	1.07708	177.26449	149.58919	68.04786	0.3025	 	2.9384E18	 	9.7693E-19	 	12912.707	28.0044	 
310.0	1.0	0.0	7.66293	6.86429	-10.31449	20.17608	20.58486	0.9231	1.0833	177.64751	149.74552	68.20642	0.30228	 	4.60099E18	 	6.18608E-19	 	12772.962	27.949	 
305.0	1.0	0.0	7.66526	6.86221	-10.34177	20.16803	20.52763	0.91774	1.08963	178.03001	149.90106	68.36484	0.30206	 	7.26041E18	 	3.88656E-19	 	12633.494	27.8936	 
300.0	1.0	0.0	7.66759	6.86012	-10.36902	20.16	20.47041	0.91235	1.09608	178.41199	150.05583	68.5231	0.30184	 	1.15486E19	 	2.42229E-19	 	12494.303	27.8382	 
295.0	1.0	0.0	7.66992	6.85804	-10.39625	20.15198	20.4132	0.90692	1.10263	178.79345	150.20982	68.68122	0.30162	 	1.85202E19	 	1.49729E-19	 	12355.391	27.7824	 
290.0	1.0	0.0	7.67225	6.85595	-10.42347	20.14399	20.356	0.90147	1.1093	179.17438	150.36303	68.8392	0.3014	 	2.99505E19	 	9.17712E-20	 	12216.757	27.7268	 
285.0	1.0	0.0	7.67458	6.85387	-10.45065	20.13602	20.2988	0.89598	1.1161	179.5548	150.51548	68.99702	0.30118	 	4.88546E19	 	5.57612E-20	 	12078.402	27.671	 
280.0	1.0	0.0	7.67691	6.85179	-10.47782	20.12807	20.24162	0.89046	1.12301	179.9347	150.66715	69.1547	0.30096	 	8.03986E19	 	3.358E-20	 	11940.327	27.615	 
275.0	1.0	0.0	7.67924	6.84972	-10.50496	20.12014	20.18444	0.88491	1.13005	180.31407	150.81805	69.31223	0.30074	 	1.3351799999999998E20	 	2.00376E-20	 	11802.532	27.559	 
270.0	1.0	0.0	7.68157	6.84764	-10.53208	20.11223	20.12727	0.87933	1.13723	180.69292	150.96819	69.46961	0.30052	 	2.2381399999999997E20	 	1.18445E-20	 	11665.019	27.5026	 
265.0	1.0	0.0	7.68389	6.84557	-10.55918	20.10434	20.07011	0.87372	1.14453	181.07124	151.11756	69.62685	0.3003	 	3.78796E20	 	6.93401E-21	 	11527.787	27.4464	 
260.0	1.0	0.0	7.68622	6.84349	-10.58626	20.09648	20.01296	0.86807	1.15198	181.44905	151.26617	69.78393	0.30008	 	6.47457E20	 	4.01907E-21	 	11390.839	27.3896	 
255.0	1.0	0.0	7.68855	6.84142	-10.61331	20.08863	19.95582	0.86239	1.15956	181.82632	151.41402	69.94087	0.29986	 	1.11796E21	 	2.30579E-21	 	11254.174	27.333	 
250.0	1.0	0.0	7.69087	6.83935	-10.64034	20.08081	19.89868	0.85668	1.16729	182.20308	151.56112	70.09766	0.29964	 	1.9506200000000001E21	 	1.309E-21	 	11117.794	27.276	 
245.0	1.0	0.0	7.6932	6.83729	-10.66735	20.073	19.84155	0.85094	1.17517	182.57931	151.70745	70.2543	0.29942	 	3.44024E21	 	7.35111E-22	 	10981.7	27.2188	 
240.0	1.0	0.0	7.69552	6.83522	-10.69434	20.06522	19.78443	0.84516	1.18321	182.95501	151.85304	70.41079	0.2992	 	6.1349E21	 	4.08248E-22	 	10845.893	27.1614	 
235.0	1.0	0.0	7.69785	6.83316	-10.72131	20.05746	19.72732	0.83935	1.1914	183.33019	151.99788	70.56713	0.29898	 	1.1065499999999999E22	 	2.24134E-22	 	10710.374	27.1038	 
230.0	1.0	0.0	7.70017	6.8311	-10.74825	20.04972	19.67021	0.8335	1.19976	183.70484	152.14196	70.72332	0.29876	 	2.01941E22	 	1.21607E-22	 	10575.144	27.046	 
225.0	1.0	0.0	7.70249	6.82903	-10.77518	20.042	19.61311	0.82762	1.20828	184.07897	152.28531	70.87936	0.29854	 	3.73014E22	 	6.51811E-23	 	10440.206	26.9876	 
220.0	1.0	0.0	7.70482	6.82698	-10.80208	20.0343	19.55602	0.82171	1.21698	184.45258	152.42791	71.03526	0.29832	 	6.976379999999999E22	 	3.45013E-23	 	10305.559	26.9294	 
215.0	1.0	0.0	7.70714	6.82492	-10.82896	20.02662	19.49893	0.81576	1.22586	184.82566	152.56977	71.191	0.2981	 	1.3216199999999999E23	 	1.80274E-23	 	10171.206	26.8706	 
210.0	1.0	0.0	7.70946	6.82286	-10.85582	20.01897	19.44185	0.80977	1.23492	185.19822	152.71089	71.34659	0.29788	 	2.5370299999999997E23	 	9.29487E-24	 	10037.149	26.8114	 
205.0	1.0	0.0	7.71178	6.82081	-10.88266	20.01133	19.38477	0.80375	1.24417	185.57025	152.85128	71.50204	0.29766	 	4.9370599999999993E23	 	4.72697E-24	 	9903.388	26.7522	 
200.0	1.0	0.0	7.71411	6.81876	-10.90947	20.00372	19.3277	0.79769	1.25361	185.94177	152.99094	71.65734	0.29744	 	9.74369E23	 	2.37008E-24	 	9769.926	26.6924	 
195.0	1.0	0.0	7.71643	6.8167	-10.93627	19.99612	19.27063	0.7916	1.26326	186.31276	153.12987	71.81248	0.29722	 	1.9511300000000002E24	 	1.17108E-24	 	9636.765	26.6322	 
190.0	1.0	0.0	7.71875	6.81466	-10.96305	19.98855	19.21357	0.78547	1.27312	186.68323	153.26808	71.96748	0.297	 	3.9660600000000003E24	 	5.69966E-25	 	9503.906	26.5718	 
185.0	1.0	0.0	7.72107	6.81261	-10.9898	19.981	19.15651	0.77931	1.28319	187.05318	153.40556	72.12234	0.29678	 	8.18764E24	 	2.73109E-25	 	9371.352	26.5108	 
180.0	1.0	0.0	7.72339	6.81056	-11.01653	19.97346	19.09945	0.77311	1.29348	187.42262	153.54233	72.27704	0.29656	 	1.7175300000000002E25	 	1.28773E-25	 	9239.105	26.4494	 
175.0	1.0	0.0	7.72571	6.80852	-11.04324	19.96595	19.0424	0.76687	1.30401	187.79153	153.67838	72.4316	0.29634	 	3.66295E25	 	5.97144E-26	 	9107.166	26.3878	 
170.0	1.0	0.0	7.72802	6.80647	-11.06994	19.95846	18.98535	0.76059	1.31477	188.15993	153.81372	72.58601	0.29612	 	7.946580000000001E25	 	2.72181E-26	 	8975.54	26.3252	 
165.0	1.0	0.0	7.73034	6.80443	-11.09661	19.951	18.9283	0.75427	1.32578	188.52782	153.94835	72.74027	0.2959	 	1.75471E26	 	1.21872E-26	 	8844.227	26.2626	 
160.0	1.0	0.0	7.73266	6.80239	-11.12326	19.94355	18.87125	0.74792	1.33704	188.8952	154.08228	72.89439	0.29568	 	3.94617E26	 	5.35734E-27	 	8713.231	26.1992	 
155.0	1.0	0.0	7.73498	6.80036	-11.14989	19.93612	18.81421	0.74153	1.34857	189.26207	154.21551	73.04837	0.29546	 	9.044110000000001E26	 	2.31056E-27	 	8582.555	26.1352	 
150.0	1.0	0.0	7.7373	6.79832	-11.1765	19.92872	18.75716	0.7351	1.36036	189.62843	154.34805	73.2022	0.29524	 	2.1138199999999998E27	 	9.77041E-28	 	8452.201	26.0708	 
145.0	1.0	0.0	7.73961	6.79628	-11.20309	19.92133	18.70012	0.72863	1.37244	189.99429	154.47989	73.35589	0.29502	 	5.041839999999999E27	 	4.0479E-28	 	8322.173	26.0056	 
140.0	1.0	0.0	7.74193	6.79425	-11.22966	19.91397	18.64307	0.72212	1.38482	190.35964	154.61105	73.50944	0.2948	 	1.2281400000000001E28	 	1.6419E-28	 	8192.474	25.9398	 
135.0	1.0	0.0	7.74425	6.79222	-11.25621	19.90663	18.58603	0.71557	1.39749	190.7245	154.74153	73.66284	0.29458	 	3.05759E28	 	6.51519E-29	 	8063.107	25.8734	 
130.0	1.0	0.0	7.74656	6.79019	-11.28273	19.8993	18.52899	0.70898	1.41048	191.08886	154.87133	73.81611	0.29436	 	7.78642E28	 	2.52706E-29	 	7934.077	25.806	 
125.0	1.0	0.0	7.74888	6.78816	-11.30924	19.892	18.47194	0.70235	1.4238	191.45273	155.00046	73.96924	0.29414	 	2.0299900000000003E29	 	9.57283E-30	 	7805.386	25.7382	 
120.0	1.0	0.0	7.75119	6.78613	-11.33573	19.88472	18.4149	0.69568	1.43745	191.81612	155.12893	74.12223	0.29392	 	5.422920000000001E29	 	3.53844E-30	 	7677.039	25.6694	 
115.0	1.0	0.0	7.75351	6.78411	-11.3622	19.87747	18.35785	0.68896	1.45146	192.17902	155.25673	74.27509	0.2937	 	1.48583E30	 	1.27502E-30	 	7549.04	25.5998	 
110.0	1.0	0.0	7.75582	6.78208	-11.38865	19.87023	18.3008	0.68221	1.46583	192.54144	155.38388	74.42782	0.29348	 	4.17953E30	 	4.47433E-31	 	7421.393	25.5294	 
105.0	1.0	0.0	7.75813	6.78006	-11.41508	19.86301	18.24375	0.67541	1.48058	192.9034	155.51038	74.58041	0.29326	 	1.2082699999999999E31	 	1.52752E-31	 	7294.104	25.4578	 
100.0	1.0	0.0	7.76045	6.77804	-11.44149	19.85581	18.1867	0.66857	1.49573	193.26488	155.63624	74.73288	0.29304	 	3.5938299999999997E31	 	5.06771E-32	 	7167.177	25.3854	 
95.0	1.0	0.0	7.76276	6.77602	-11.46789	19.84864	18.12965	0.66169	1.51129	193.6259	155.76147	74.88522	0.29282	 	1.10106E32	 	1.63193E-32	 	7040.617	25.312	 
90.0	1.0	0.0	7.76507	6.774	-11.49426	19.84148	18.07259	0.65476	1.52727	193.98647	155.88607	75.03743	0.2926	 	3.47898E32	 	5.09472E-33	 	6914.43	25.2374	 
85.0	1.0	0.0	7.76739	6.77198	-11.52061	19.83435	18.01553	0.64779	1.54371	194.3466	156.01005	75.18953	0.29238	 	1.13513E33	 	1.53995E-33	 	6788.622	25.1616	 
80.0	1.0	0.0	7.7697	6.76997	-11.54694	19.82724	17.95846	0.64078	1.5606	194.70628	156.13342	75.3415	0.29216	 	3.82984E33	 	4.50054E-34	 	6663.199	25.0846	 
75.0	1.0	0.0	7.77201	6.76795	-11.57326	19.82015	17.9014	0.63372	1.57798	195.06553	156.25618	75.49336	0.29194	 	1.3381E34	 	1.26989E-34	 	6538.167	25.0064	 
70.0	1.0	0.0	7.77432	6.76594	-11.59956	19.81308	17.84433	0.62662	1.59587	195.42436	156.37836	75.64511	0.29172	 	4.848710000000001E34	 	3.45418E-35	 	6413.532	24.927	 
65.0	1.0	0.0	7.77664	6.76393	-11.62583	19.80603	17.78725	0.61947	1.61429	195.78277	156.49995	75.79674	0.2915	 	1.82516E35	 	9.04265E-36	 	6289.304	24.8456	 
60.0	1.0	0.0	7.77895	6.76192	-11.65209	19.799	17.73017	0.61227	1.63326	196.14079	156.62096	75.94828	0.29128	 	7.14916E35	 	2.27443E-36	 	6165.488	24.7632	 
55.0	1.0	0.0	7.78126	6.75991	-11.67833	19.79199	17.67309	0.60503	1.65281	196.49841	156.74141	76.09971	0.29106	 	2.9193E36	 	5.48631E-37	 	6042.093	24.679	 
50.0	1.0	0.0	7.78357	6.7579	-11.70455	19.78501	17.616	0.59774	1.67296	196.85565	156.86132	76.25105	0.29084	 	1.24512E37	 	1.26672E-37	 	5919.127	24.5932	 
45.0	1.0	0.0	7.78588	6.7559	-11.73075	19.77804	17.5589	0.59041	1.69374	197.21253	156.98068	76.4023	0.29062	 	5.55832E37	 	2.79367E-38	 	5796.6	24.5054	 
40.0	1.0	0.0	7.78819	6.75389	-11.75694	19.7711	17.5018	0.58303	1.71519	197.56905	157.09951	76.55346	0.2904	 	2.6027E38	 	5.87239E-39	 	5674.522	24.4156	 
35.0	1.0	0.0	7.7905	6.75189	-11.7831	19.76417	17.44469	0.57559	1.73733	197.92524	157.21783	76.70454	0.29018	 	1.28134E39	 	1.17378E-39	 	5552.902	24.324	 
30.0	1.0	0.0	7.79281	6.74989	-11.80925	19.75727	17.38758	0.56811	1.76021	198.28111	157.33565	76.85555	0.28996	 	6.6487E39	 	2.2254E-40	 	5431.751	24.2302	 
25.0	1.0	0.0	7.79512	6.74789	-11.83538	 	17.33046	0.56059	1.78385	198.63667	157.45299	77.0065	0.28974	 	3.64581E40	 	3.99142E-41	 	5311.082	 	 
