T (C)	Fraction solid (wt)-TOTAL	Fraction liquid (wt)-LIQUID	Density (g/(cm)^3)-TOTAL	Molar volume (cm^3)-TOTAL	Volume change (%)-  	Average expansion coeff. (10e-6 1/K)-  	Thermal conductivity (W/(m*K))-TOTAL	Electrical resistivity (10e-6 Ohm*m)-TOTAL	Electrical conductivity (10e6 1/(Ohm*m))-TOTAL	Young's modulus (GPa)-TOTAL	Bulk modulus (GPa)-TOTAL	Shear modulus(GPa)-TOTAL	Poisson's ratio-TOTAL	Liquid viscosity (mPa s)-  	Total viscosity (mPa s)-  	Liquid diffusivity (10e-9 (m^2)/s)-  	Total diffusivity (10e-9 (m^2)/s)-  	Surface Tension (mN/m)-  	Enthalpy (J/mole)-TOTAL	Specific heat (J/(mole K))-TOTAL	Latent heat (J/mole)-TOTAL
700.0	0.0	1.0	2.37706	11.35271	0.0	66.93623	91.47353	0.26065	3.83663	0.0	50.34441	0.0	0.5	1.19212	1.19212	3.98425	3.98425	899.96829	30095.363	 	0.0
695.0	0.0	1.0	2.37871	11.34488	-0.0689921	67.04599	91.30656	0.25978	3.8494	0.0	50.40664	0.0	0.5	1.20475	1.20475	3.92224	3.92224	901.71794	29936.63	31.7466	0.0
690.0	0.0	1.0	2.38034	11.33707	-0.13776	67.15864	91.1396	0.25891	3.86231	0.0	50.46887	0.0	0.5	1.21764	1.21764	3.86067	3.86067	903.46759	29777.897	31.7466	0.0
685.0	0.0	1.0	2.38198	11.32929	-0.20632	67.27427	90.97264	0.25804	3.87535	0.0	50.5311	0.0	0.5	1.2308	1.2308	3.79954	3.79954	905.21724	29619.164	31.7466	0.0
680.0	0.0	1.0	2.38361	11.32153	-0.27465	67.39294	90.80568	0.25717	3.88853	0.0	50.59333	0.0	0.5	1.24425	1.24425	3.73886	3.73886	906.96689	29460.431	31.7466	0.0
675.0	0.0	1.0	2.38524	11.3138	-0.34276	67.51471	90.63872	0.25629	3.90185	0.0	50.65556	0.0	0.5	1.25799	1.25799	3.67862	3.67862	908.71653	29301.699	31.7464	0.0
670.0	0.0	1.0	2.38687	11.30609	-0.41065	67.63966	90.47176	0.25541	3.91531	0.0	50.71778	0.0	0.5	1.27204	1.27204	3.61883	3.61883	910.46618	29142.966	31.7466	0.0
665.0	0.0	1.0	2.38849	11.29841	-0.47832	67.76787	90.3048	0.25452	3.92891	0.0	50.78001	0.0	0.5	1.28638	1.28638	3.55949	3.55949	912.21583	28984.233	31.7466	0.0
660.11	0.0	1.0	2.39007	11.29093	-0.54424	67.89637	90.14164	0.25366	3.94235	0.0	50.84082	0.0	0.5	1.30071	1.30071	3.50194	3.50194	913.92565	28829.107	31.7488	0.0
660.0	0.38608	0.61392	2.45191	11.00617	-3.05249	52.9572	115.76163	0.19749	5.06346	0.71655	51.66529	0.24612	0.45567	1.30165	58.47187	3.499	0.0778917	913.97182	24690.767	36314.0	4134.723
655.0	1.0	0.0	2.55821	10.5485	-7.08391	29.15596	206.14901	0.11031	9.06561	38.40997	53.26522	13.91852	0.37982	 	2785.44488	 	0.00162634	 	18004.662	1337.22	10662.288
650.0	1.0	0.0	2.55953	10.54308	-7.13166	29.10004	206.56309	0.10949	9.13302	38.70858	53.48287	14.03121	0.37937	 	3060.1507	 	0.00147237	 	17784.302	44.072	 
645.0	1.0	0.0	2.56084	10.53767	-7.17926	29.04414	206.97626	0.10868	9.20112	39.00609	53.69832	14.14356	0.37893	 	3365.39432	 	0.00133157	 	17616.305	33.5994	 
640.0	1.0	0.0	2.56215	10.53229	-7.2267	28.98828	207.38849	0.10788	9.26993	39.30249	53.91159	14.25556	0.3785	 	3704.94109	 	0.00120295	 	17448.978	33.4654	 
635.0	1.0	0.0	2.56346	10.52692	-7.27399	28.93245	207.79979	0.10707	9.33945	39.5978	54.12272	14.36721	0.37806	 	4083.06534	 	0.00108557	 	17282.313	33.333	 
630.0	1.0	0.0	2.56476	10.52157	-7.32112	28.87666	208.21012	0.10627	9.4097	39.89201	54.33174	14.47851	0.37763	 	4504.62521	 	9.78561E-4	 	17116.302	33.2022	 
625.0	1.0	0.0	2.56606	10.51623	-7.36811	28.8209	208.61948	0.10548	9.48069	40.18512	54.5387	14.58946	0.3772	 	4975.1492	 	8.81109E-4	 	16950.937	33.073	 
620.0	1.0	0.0	2.56736	10.51092	-7.41494	28.76517	209.02784	0.10469	9.55243	40.47713	54.74361	14.70006	0.37677	 	5500.93671	 	7.92455E-4	 	16786.207	32.946	 
615.0	1.0	0.0	2.56866	10.50562	-7.46162	28.70947	209.4352	0.1039	9.62492	40.76804	54.94651	14.81031	0.37634	 	6089.17478	 	7.11893E-4	 	16622.106	32.8202	 
610.0	1.0	0.0	2.56995	10.50034	-7.50815	28.65381	209.84153	0.10311	9.69819	41.05785	55.14743	14.9202	0.37591	 	6748.07385	 	6.38765E-4	 	16458.625	32.6962	 
605.0	1.0	0.0	2.57124	10.49507	-7.55452	28.59817	210.24682	0.10233	9.77225	41.34656	55.3464	15.02974	0.37549	 	7487.02603	 	5.72461E-4	 	16295.754	32.5742	 
600.0	1.0	0.0	2.57252	10.48982	-7.60074	28.54258	210.65104	0.10155	9.84711	41.63417	55.54345	15.13892	0.37507	 	8316.78966	 	5.12413E-4	 	16133.487	32.4534	 
595.0	1.0	0.0	2.57381	10.48459	-7.64681	28.48701	211.0542	0.10078	9.92277	41.92068	55.73862	15.24775	0.37465	 	9249.705	 	4.58093E-4	 	15971.814	32.3346	 
590.0	1.0	0.0	2.57509	10.47938	-7.69273	28.43148	211.45625	0.10001	9.99927	42.20609	55.93191	15.35623	0.37423	 	10299.94658	 	4.09014E-4	 	15810.726	32.2176	 
585.0	1.0	0.0	2.57636	10.47418	-7.7385	28.37598	211.85719	0.0992398	10.0766	42.4904	56.12338	15.46434	0.37382	 	11483.81901	 	3.64723E-4	 	15650.217	32.1018	 
580.0	1.0	0.0	2.57764	10.469	-7.78412	28.32051	212.25699	0.0984758	10.15478	42.77361	56.31303	15.5721	0.37341	 	12820.10412	 	3.24803E-4	 	15490.276	31.9882	 
575.0	1.0	0.0	2.57891	10.46384	-7.82958	28.26507	212.65564	0.0977151	10.23383	43.05572	56.50091	15.6795	0.37299	 	14330.46907	 	2.88868E-4	 	15330.895	31.8762	 
570.0	1.0	0.0	2.58018	10.4587	-7.8749	28.20967	213.05311	0.0969579	10.31376	43.33673	56.68703	15.78654	0.37258	 	16039.94698	 	2.5656E-4	 	15172.067	31.7656	 
565.0	1.0	0.0	2.58144	10.45357	-7.92006	28.1543	213.44939	0.096204	10.39458	43.61664	56.87142	15.89322	0.37218	 	17977.50366	 	2.27551E-4	 	15013.782	31.657	 
560.0	1.0	0.0	2.58271	10.44846	-7.96507	28.09897	213.84446	0.0954534	10.47632	43.89546	57.0541	15.99954	0.37177	 	20176.70719	 	2.01539E-4	 	14856.033	31.5498	 
555.0	1.0	0.0	2.58397	10.44337	-8.00993	28.04366	214.23828	0.0947061	10.55898	44.17317	57.23511	16.1055	0.37137	 	22676.52026	 	1.78246E-4	 	14698.811	31.4444	 
550.0	1.0	0.0	2.58522	10.43829	-8.05464	27.98839	214.63084	0.0939621	10.64258	44.44978	57.41446	16.21109	0.37097	 	25522.23936	 	1.57415E-4	 	14542.107	31.3408	 
545.0	1.0	0.0	2.58648	10.43323	-8.0992	27.93315	215.02213	0.0932215	10.72714	44.72529	57.59218	16.31632	0.37057	 	28766.60993	 	1.38813E-4	 	14385.913	31.2388	 
540.0	1.0	0.0	2.58773	10.42819	-8.14361	27.87795	215.4121	0.092484	10.81268	44.99971	57.76829	16.42119	0.37017	 	32471.15299	 	1.22225E-4	 	14230.22	31.1386	 
535.0	1.0	0.0	2.58897	10.42317	-8.18787	27.82277	215.80075	0.0917498	10.89921	45.27302	57.94282	16.52569	0.36978	 	36707.74587	 	1.07454E-4	 	14075.021	31.0398	 
530.0	1.0	0.0	2.59022	10.41816	-8.23198	27.76763	216.18804	0.0910188	10.98674	45.54523	58.11578	16.62983	0.36938	 	41560.50937	 	9.43197E-5	 	13920.307	30.9428	 
525.0	1.0	0.0	2.59146	10.41317	-8.27594	27.71253	216.57395	0.090291	11.0753	45.81635	58.2872	16.7336	0.36899	 	47128.065	 	8.26593E-5	 	13766.069	30.8476	 
520.0	1.0	0.0	2.5927	10.4082	-8.31975	27.65745	216.95845	0.0895663	11.16491	46.08636	58.4571	16.837	0.3686	 	53526.23967	 	7.23228E-5	 	13612.299	30.754	 
515.0	1.0	0.0	2.59393	10.40324	-8.36341	27.60241	217.34152	0.0888448	11.25558	46.35527	58.62551	16.94004	0.36822	 	60891.31312	 	6.31743E-5	 	13458.989	30.662	 
510.0	1.0	0.0	2.59517	10.3983	-8.40692	27.5474	217.72314	0.0881265	11.34733	46.62309	58.79244	17.0427	0.36783	 	69383.92446	 	5.509E-5	 	13306.131	30.5716	 
505.0	1.0	0.0	2.59639	10.39338	-8.45028	27.49242	218.10327	0.0874112	11.44018	46.8898	58.95791	17.145	0.36745	 	79193.78093	 	4.79578E-5	 	13153.715	30.4832	 
500.0	1.0	0.0	2.59762	10.38847	-8.49349	27.43748	218.48188	0.0866991	11.53415	47.15542	59.12194	17.24693	0.36707	 	90545.34531	 	4.16758E-5	 	13001.734	30.3962	 
495.0	1.0	0.0	2.59884	10.38358	-8.53655	27.38257	218.85895	0.08599	11.62926	47.41993	59.28456	17.34848	0.36669	 	103704.7193	 	3.61522E-5	 	12850.179	30.311	 
490.0	1.0	0.0	2.60006	10.37871	-8.57946	27.32769	219.23444	0.0852839	11.72554	47.68335	59.44578	17.44966	0.36631	 	118987.9924	 	3.13035E-5	 	12699.043	30.2272	 
485.0	1.0	0.0	2.60128	10.37386	-8.62223	27.27285	219.60833	0.0845809	11.823	47.94566	59.60562	17.55047	0.36594	 	136771.3891	 	2.70549E-5	 	12548.316	30.1454	 
480.0	1.0	0.0	2.60249	10.36902	-8.66484	27.21803	219.98059	0.0838809	11.92166	48.20688	59.76411	17.65091	0.36556	 	157503.6298	 	2.33388E-5	 	12397.99	30.0652	 
475.0	1.0	0.0	2.6037	10.3642	-8.70731	27.16325	220.35117	0.0831839	12.02155	48.467	59.92125	17.75097	0.36519	 	181721.0207	 	2.00942E-5	 	12248.058	29.9864	 
470.0	1.0	0.0	2.60491	10.35939	-8.74963	27.10851	220.72006	0.0824899	12.1227	48.72601	60.07707	17.85066	0.36482	 	210065.9182	 	1.72666E-5	 	12098.51	29.9096	 
465.0	1.0	0.0	2.60612	10.35461	-8.79179	27.05379	221.08721	0.0817988	12.22511	48.98393	60.23158	17.94998	0.36446	 	243309.3729	 	1.48072E-5	 	11949.339	29.8342	 
460.0	1.0	0.0	2.60732	10.34984	-8.83382	26.99911	221.45259	0.0811107	12.32883	49.24075	60.38481	18.04891	0.36409	 	282378.9662	 	1.26721E-5	 	11800.536	29.7606	 
455.0	1.0	0.0	2.60852	10.34508	-8.87569	26.94446	221.81616	0.0804255	12.43387	49.49646	60.53676	18.14747	0.36373	 	328393.1108	 	1.08221E-5	 	11652.093	29.6886	 
450.0	1.0	0.0	2.60971	10.34034	-8.91741	26.88985	222.17788	0.0797432	12.54025	49.75108	60.68746	18.24565	0.36337	 	382703.4208	 	9.22259E-6	 	11504.002	29.6182	 
445.0	1.0	0.0	2.6109	10.33562	-8.95899	26.83526	222.53773	0.0790638	12.64802	50.0046	60.83693	18.34346	0.36301	 	446947.1782	 	7.84234E-6	 	11356.254	29.5496	 
440.0	1.0	0.0	2.61209	10.33092	-9.00042	26.78071	222.89566	0.0783872	12.75718	50.25701	60.98517	18.44088	0.36265	 	523112.4687	 	6.65384E-6	 	11208.841	29.4826	 
435.0	1.0	0.0	2.61328	10.32624	-9.0417	26.72619	223.25162	0.0777135	12.86777	50.50833	61.13221	18.53792	0.3623	 	613619.2532	 	5.63265E-6	 	11061.756	29.417	 
430.0	1.0	0.0	2.61446	10.32157	-9.08283	26.67171	223.60558	0.0770427	12.97982	50.75855	61.27805	18.63459	0.36194	 	721420.5417	 	4.75714E-6	 	10914.989	29.3534	 
425.0	1.0	0.0	2.61564	10.31691	-9.12382	26.61726	223.9575	0.0763746	13.09335	51.00767	61.42273	18.73087	0.36159	 	850128.9928	 	4.00821E-6	 	10768.534	29.291	 
420.0	1.0	0.0	2.61681	10.31228	-9.16466	26.56284	224.30733	0.0757094	13.2084	51.25569	61.56624	18.82677	0.36125	 	1004175.764	 	3.36902E-6	 	10622.381	29.2306	 
415.0	1.0	0.0	2.61799	10.30766	-9.20535	26.50845	224.65503	0.075047	13.32499	51.50261	61.70862	18.92228	0.3609	 	1189010.385	 	2.82478E-6	 	10476.526	29.171	 
410.0	1.0	0.0	2.61916	10.30305	-9.2459	26.4541	225.00055	0.0743873	13.44316	51.74842	61.84986	19.01741	0.36055	 	1411352.974	 	2.36247E-6	 	10330.97	29.1112	 
405.0	1.0	0.0	2.62032	10.29847	-9.28629	26.39977	225.34384	0.0737303	13.56294	51.99314	61.98999	19.11216	0.36021	 	1679513.415	 	1.97074E-6	 	10185.711	29.0518	 
400.0	1.0	0.0	2.62149	10.2939	-9.32654	26.34549	225.68485	0.0730761	13.68436	52.23676	62.12901	19.20653	0.35987	 	2003796.503	 	1.63963E-6	 	10040.749	28.9924	 
395.0	1.0	0.0	2.62265	10.28934	-9.36665	26.29123	226.02354	0.0724246	13.80745	52.47928	62.26696	19.3005	0.35953	 	2397017.754	 	1.36047E-6	 	9896.082	28.9334	 
390.0	1.0	0.0	2.6238	10.28481	-9.40661	26.23701	226.35985	0.0717759	13.93226	52.7207	62.40383	19.39409	0.35919	 	2875162.144	 	1.12573E-6	 	9751.711	28.8742	 
385.0	1.0	0.0	2.62496	10.28029	-9.44642	26.18282	226.69373	0.0711298	14.05881	52.96102	62.53964	19.4873	0.35886	 	3458228.068	 	9.28876E-7	 	9607.633	28.8156	 
380.0	1.0	0.0	2.62611	10.27579	-9.48608	26.12866	227.02512	0.0704864	14.18714	53.20024	62.6744	19.58011	0.35853	 	4171312.081	 	7.64235E-7	 	9463.849	28.7568	 
375.0	1.0	0.0	2.62725	10.2713	-9.5256	26.07453	227.35396	0.0698456	14.31729	53.43837	62.80813	19.67254	0.3582	 	5046007.728	 	6.26923E-7	 	9320.358	28.6982	 
370.0	1.0	0.0	2.6284	10.26683	-9.56498	26.02044	227.68021	0.0692075	14.4493	53.67539	62.94084	19.76458	0.35787	 	6122215.504	 	5.12732E-7	 	9177.159	28.6398	 
365.0	1.0	0.0	2.62954	10.26238	-9.60421	25.96638	228.00379	0.068572	14.58321	53.91131	63.07255	19.85623	0.35754	 	7450492.871	 	4.18046E-7	 	9034.251	28.5816	 
360.0	1.0	0.0	2.63068	10.25794	-9.64329	25.91236	228.32464	0.0679391	14.71906	54.14613	63.20326	19.94748	0.35722	 	9095116.228	 	3.3977E-7	 	8891.634	28.5234	 
355.0	1.0	0.0	2.63181	10.25352	-9.68222	25.85836	228.64271	0.0673088	14.85689	54.37985	63.33298	20.03835	0.35689	 	1.113808492E7	 	2.75258E-7	 	8749.307	28.4654	 
350.0	1.0	0.0	2.63294	10.24911	-9.72101	25.8044	228.95791	0.0666811	14.99674	54.61247	63.46174	20.12883	0.35657	 	1.368437645E7	 	2.22256E-7	 	8607.27	28.4074	 
345.0	1.0	0.0	2.63407	10.24473	-9.75966	25.75047	229.2702	0.066056	15.13867	54.84399	63.58954	20.21891	0.35626	 	1.686886981E7	 	1.78852E-7	 	8465.522	28.3496	 
340.0	1.0	0.0	2.63519	10.24036	-9.79816	25.69658	229.57948	0.0654334	15.28271	55.07442	63.71639	20.30859	0.35594	 	2.086550171E7	 	1.43425E-7	 	8324.061	28.2922	 
335.0	1.0	0.0	2.63631	10.236	-9.83652	25.64272	229.8857	0.0648134	15.42891	55.30374	63.84231	20.39789	0.35562	 	2.589942362E7	 	1.14606E-7	 	8182.889	28.2344	 
330.0	1.0	0.0	2.63743	10.23166	-9.87473	25.58888	230.18877	0.0641959	15.57732	55.53196	63.96731	20.48679	0.35531	 	3.226320822E7	 	9.1244E-8	 	8042.004	28.177	 
325.0	1.0	0.0	2.63855	10.22734	-9.91279	25.53509	230.48862	0.0635809	15.72799	55.75909	64.09139	20.57529	0.355	 	4.033854343E7	 	7.2373E-8	 	7901.406	28.1196	 
320.0	1.0	0.0	2.63966	10.22304	-9.95071	25.48132	230.78516	0.0629684	15.88098	55.98511	64.21457	20.6634	0.35469	 	5.06253949E7	 	5.71851E-8	 	7761.094	28.0624	 
315.0	1.0	0.0	2.64076	10.21875	-9.98849	25.42759	231.07832	0.0623584	16.03633	56.21003	64.33686	20.75111	0.35439	 	6.378137805E7	 	4.50071E-8	 	7621.067	28.0054	 
310.0	1.0	0.0	2.64187	10.21448	-10.02612	25.37389	231.36801	0.0617509	16.1941	56.43386	64.45827	20.83842	0.35408	 	8.067514946E7	 	3.52799E-8	 	7481.327	27.948	 
305.0	1.0	0.0	2.64297	10.21022	-10.06361	25.32023	231.65413	0.0611458	16.35436	56.65658	64.57881	20.92534	0.35378	 	1.024591387E8	 	2.75408E-8	 	7341.871	27.8912	 
300.0	1.0	0.0	2.64407	10.20598	-10.10095	25.26659	231.9366	0.0605432	16.51714	56.8782	64.69849	21.01186	0.35348	 	1.306690872E8	 	2.14083E-8	 	7202.7	27.8342	 
295.0	1.0	0.0	2.64516	10.20176	-10.13815	25.21299	232.21531	0.059943	16.68252	57.09873	64.81732	21.09797	0.35318	 	1.673609252E8	 	1.6569E-8	 	7063.814	27.7772	 
290.0	1.0	0.0	2.64625	10.19755	-10.17521	25.15942	232.49018	0.0593452	16.85056	57.31815	64.93531	21.18369	0.35288	 	2.152999112E8	 	1.27664E-8	 	6925.212	27.7204	 
285.0	1.0	0.0	2.64734	10.19336	-10.21212	25.10589	232.76109	0.0587498	17.02133	57.53648	65.05248	21.26901	0.35259	 	2.782232994E8	 	9.79139E-9	 	6786.894	27.6636	 
280.0	1.0	0.0	2.64843	10.18919	-10.24889	25.05239	233.02795	0.0581569	17.19487	57.7537	65.16882	21.35392	0.3523	 	3.612069953E8	 	7.47435E-9	 	6648.86	27.6068	 
275.0	1.0	0.0	2.64951	10.18503	-10.28551	24.99892	233.29063	0.0575663	17.37128	57.96983	65.28436	21.43844	0.35201	 	4.711800608E8	 	5.67805E-9	 	6511.109	27.5502	 
270.0	1.0	0.0	2.65059	10.18089	-10.32199	24.94548	233.54904	0.0569781	17.55061	58.18486	65.39909	21.52255	0.35172	 	6.176505959E8	 	4.29204E-9	 	6373.642	27.4934	 
265.0	1.0	0.0	2.65166	10.17676	-10.35833	24.89208	233.80304	0.0563922	17.73294	58.39878	65.51303	21.60626	0.35143	 	8.137355163E8	 	3.2278E-9	 	6236.458	27.4368	 
260.0	1.0	0.0	2.65273	10.17265	-10.39452	24.8387	234.05252	0.0558087	17.91834	58.61161	65.6262	21.68956	0.35115	 	1.077629777E9	 	2.41472E-9	 	6099.558	27.38	 
255.0	1.0	0.0	2.6538	10.16856	-10.43058	24.78537	234.29734	0.0552276	18.1069	58.82333	65.73859	21.77246	0.35087	 	1.434714823E9	 	1.79671E-9	 	5962.941	27.3234	 
250.0	1.0	0.0	2.65486	10.16448	-10.46648	24.73206	234.53738	0.0546488	18.29868	59.03396	65.85021	21.85496	0.35059	 	1.920602557E9	 	1.32946E-9	 	5826.608	27.2666	 
245.0	1.0	0.0	2.65592	10.16042	-10.50225	24.67879	234.7725	0.0540722	18.49378	59.24349	65.96109	21.93704	0.35031	 	2.585556997E9	 	9.78111E-10	 	5690.558	27.21	 
240.0	1.0	0.0	2.65698	10.15638	-10.53787	24.62555	235.00255	0.053498	18.69228	59.45192	66.07121	22.01873	0.35003	 	3.500957885E9	 	7.15392E-10	 	5554.793	27.153	 
235.0	1.0	0.0	2.65804	10.15235	-10.57335	24.57234	235.22739	0.0529261	18.89426	59.65924	66.1806	22.1	0.34976	 	4.768810757E9	 	5.20078E-10	 	5419.311	27.0964	 
230.0	1.0	0.0	2.65909	10.14834	-10.60869	24.51916	235.44687	0.0523565	19.09982	59.86547	66.28926	22.18087	0.34948	 	6.53583302E9	 	3.75736E-10	 	5284.114	27.0394	 
225.0	1.0	0.0	2.66013	10.14434	-10.64389	24.46602	235.66081	0.0517892	19.30906	60.0706	66.3972	22.26133	0.34921	 	9.014461591E9	 	2.69716E-10	 	5149.202	26.9824	 
220.0	1.0	0.0	2.66118	10.14036	-10.67894	24.41291	235.86906	0.0512241	19.52207	60.27463	66.50442	22.34138	0.34895	 	1.2514399999999998E10	 	1.92334E-10	 	5014.576	26.9252	 
215.0	1.0	0.0	2.66222	10.1364	-10.71386	24.35984	236.07144	0.0506613	19.73895	60.47755	66.61094	22.42102	0.34868	 	1.74904E10	 	1.3622E-10	 	4880.235	26.8682	 
210.0	1.0	0.0	2.66326	10.13245	-10.74863	24.30679	236.26777	0.0501007	19.95981	60.67938	66.71676	22.50026	0.34842	 	2.4614899999999996E10	 	9.58013E-11	 	4746.18	26.811	 
205.0	1.0	0.0	2.66429	10.12852	-10.78326	24.25378	236.45786	0.0495423	20.18476	60.88011	66.8219	22.57908	0.34815	 	3.48899E10	 	6.68885E-11	 	4612.413	26.7534	 
200.0	1.0	0.0	2.66532	10.12461	-10.81774	24.2008	236.64152	0.0489862	20.4139	61.07974	66.92635	22.65749	0.34789	 	4.981989999999999E10	 	4.63535E-11	 	4478.934	26.6958	 
195.0	1.0	0.0	2.66635	10.12071	-10.85209	24.14786	236.81853	0.0484323	20.64736	61.27827	67.03013	22.73548	0.34764	 	7.16822E10	 	3.18758E-11	 	4345.743	26.6382	 
190.0	1.0	0.0	2.66737	10.11682	-10.88629	24.09494	236.98869	0.0478807	20.88526	61.4757	67.13325	22.81307	0.34738	 	1.03952E11	 	2.17459E-11	 	4212.842	26.5802	 
185.0	1.0	0.0	2.66839	10.11296	-10.92036	24.04206	237.15177	0.0473312	21.12772	61.67203	67.2357	22.89024	0.34712	 	1.51976E11	 	1.47136E-11	 	4080.232	26.522	 
180.0	1.0	0.0	2.66941	10.10911	-10.95428	23.98922	237.30754	0.0467839	21.37487	61.86726	67.33751	22.967	0.34687	 	2.24057E11	 	9.87123E-12	 	3947.914	26.4636	 
175.0	1.0	0.0	2.67042	10.10527	-10.98806	23.9364	237.45576	0.0462388	21.62685	62.06139	67.43867	23.04335	0.34662	 	3.33198E11	 	6.56459E-12	 	3815.889	26.405	 
170.0	1.0	0.0	2.67143	10.10145	-11.0217	23.88362	237.59617	0.0456959	21.88379	62.25442	67.53919	23.11928	0.34637	 	4.99961E11	 	4.32614E-12	 	3684.158	26.3462	 
165.0	1.0	0.0	2.67244	10.09765	-11.0552	23.83087	237.7285	0.0451552	22.14585	62.44635	67.63909	23.1948	0.34613	 	7.57169E11	 	2.82434E-12	 	3552.724	26.2868	 
160.0	1.0	0.0	2.67344	10.09386	-11.08856	23.77816	237.85248	0.0446166	22.41317	62.63718	67.73836	23.2699	0.34588	 	1.15774E12	 	1.82606E-12	 	3421.587	26.2274	 
155.0	1.0	0.0	2.67444	10.09009	-11.12178	23.72547	237.96782	0.0440802	22.68591	62.82691	67.83701	23.34458	0.34564	 	1.78787E12	 	1.16882E-12	 	3290.75	26.1674	 
150.0	1.0	0.0	2.67543	10.08633	-11.15486	23.67282	238.0742	0.043546	22.96423	63.01555	67.93506	23.41885	0.3454	 	2.78946E12	 	7.4039E-13	 	3160.214	26.1072	 
145.0	1.0	0.0	2.67643	10.08259	-11.1878	23.6202	238.17132	0.0430139	23.2483	63.20308	68.0325	23.49269	0.34516	 	4.39871E12	 	4.63973E-13	 	3029.981	26.0466	 
140.0	1.0	0.0	2.67741	10.07887	-11.2206	23.56762	238.25883	0.0424839	23.5383	63.38951	68.12935	23.56613	0.34493	 	7.01324E12	 	2.87525E-13	 	2900.054	25.9854	 
135.0	1.0	0.0	2.6784	10.07516	-11.25326	23.51506	238.33639	0.0419561	23.83441	63.57484	68.22561	23.63914	0.34469	 	1.13103E13	 	1.76129E-13	 	2770.436	25.9236	 
130.0	1.0	0.0	2.67938	10.07147	-11.28578	23.46254	238.40362	0.0414305	24.13682	63.75907	68.32128	23.71173	0.34446	 	1.84578E13	 	1.06604E-13	 	2641.128	25.8616	 
125.0	1.0	0.0	2.68036	10.0678	-11.31816	23.41006	238.46014	0.0409069	24.44573	63.94221	68.41638	23.78391	0.34423	 	3.04949E13	 	6.37245E-14	 	2512.133	25.799	 
120.0	1.0	0.0	2.68133	10.06414	-11.3504	23.3576	238.50554	0.0403855	24.76134	64.12424	68.51091	23.85566	0.344	 	5.10294E13	 	3.76032E-14	 	2383.455	25.7356	 
115.0	1.0	0.0	2.68231	10.06049	-11.3825	23.30518	238.5394	0.0398663	25.08386	64.30517	68.60487	23.92699	0.34378	 	8.65315E13	 	2.18933E-14	 	2255.097	25.6716	 
110.0	1.0	0.0	2.68327	10.05686	-11.41446	23.25279	238.56125	0.0393491	25.41353	64.48501	68.69827	23.9979	0.34356	 	1.4877E14	 	1.25702E-14	 	2127.061	25.6072	 
105.0	1.0	0.0	2.68424	10.05325	-11.44628	23.20044	238.57063	0.0388341	25.75057	64.66374	68.79112	24.06839	0.34333	 	2.5946399999999997E14	 	7.11334E-15	 	1999.353	25.5416	 
100.0	1.0	0.0	2.6852	10.04965	-11.47796	23.14812	238.56704	0.0383212	26.09522	64.84137	68.88343	24.13846	0.34311	 	4.59319E14	 	3.96512E-15	 	1871.976	25.4754	 
95.0	1.0	0.0	2.68616	10.04607	-11.50951	23.09583	238.54995	0.0378104	26.44773	65.01791	68.97519	24.2081	0.3429	 	8.25826E14	 	2.17582E-15	 	1744.933	25.4086	 
90.0	1.0	0.0	2.68711	10.04251	-11.54091	23.04357	238.51881	0.0373018	26.80838	65.19334	69.06642	24.27733	0.34268	 	1.50896E15	 	1.17461E-15	 	1618.231	25.3404	 
85.0	1.0	0.0	2.68806	10.03896	-11.57218	22.99134	238.47302	0.0367953	27.17742	65.36768	69.15712	24.34612	0.34247	 	2.804E15	 	6.2341E-16	 	1491.873	25.2716	 
80.0	1.0	0.0	2.68901	10.03542	-11.60331	22.93915	238.41198	0.0362909	27.55515	65.54091	69.2473	24.4145	0.34225	 	5.3027E15	 	3.25049E-16	 	1365.864	25.2018	 
75.0	1.0	0.0	2.68995	10.0319	-11.6343	22.88699	238.33501	0.0357886	27.94186	65.71305	69.33696	24.48244	0.34204	 	1.02133E16	 	1.66375E-16	 	1240.212	25.1304	 
70.0	1.0	0.0	2.69089	10.0284	-11.66515	22.83486	238.24143	0.0352885	28.33787	65.88408	69.42611	24.54997	0.34184	 	2.00507E16	 	8.35299E-17	 	1114.921	25.0582	 
65.0	1.0	0.0	2.69182	10.02492	-11.69587	22.78276	238.13051	0.0347905	28.74349	66.05402	69.51475	24.61706	0.34163	 	4.01565E16	 	4.10999E-17	 	989.997	24.9848	 
60.0	1.0	0.0	2.69276	10.02144	-11.72644	22.7307	238.00146	0.0342946	29.15907	66.22285	69.60288	24.68373	0.34143	 	8.21177E16	 	1.98011E-17	 	865.449	24.9096	 
55.0	1.0	0.0	2.69369	10.01799	-11.75688	22.67868	237.85346	0.033801	29.58496	66.39059	69.69053	24.74998	0.34123	 	1.71627E17	 	9.33198E-18	 	741.283	24.8332	 
50.0	1.0	0.0	2.69461	10.01455	-11.78718	22.62668	237.68562	0.0333094	30.02152	66.55722	69.77768	24.81579	0.34103	 	3.66979E17	 	4.29784E-18	 	617.508	24.755	 
45.0	1.0	0.0	2.69553	10.01112	-11.81735	22.57472	237.49703	0.0328201	30.46914	66.72276	69.86434	24.88118	0.34083	 	8.03658E17	 	1.93218E-18	 	494.132	24.6752	 
40.0	1.0	0.0	2.69645	10.00772	-11.84737	22.5228	237.28668	0.0323329	30.92821	66.8872	69.95052	24.94614	0.34063	 	1.80456E18	 	8.46968E-19	 	371.163	24.5938	 
35.0	1.0	0.0	2.69737	10.00432	-11.87726	22.47089	237.05351	0.031848	31.39917	67.05053	70.03623	25.01067	0.34044	 	4.15981E18	 	3.61556E-19	 	248.613	24.51	 
30.0	1.0	0.0	2.69828	10.00094	-11.90701	22.41901	236.79641	0.0313652	31.88243	67.21277	70.12147	25.07477	0.34025	 	9.85688E18	 	1.50108E-19	 	126.492	24.4242	 
25.0	1.0	0.0	2.69918	9.99758	-11.93663	 	236.51416	0.0308847	32.37846	67.37391	70.20624	25.13845	0.34006	 	2.40421E19	 	6.05271E-20	 	4.811	 	 
