T (C)	Fraction solid (wt)-TOTAL	Fraction liquid (wt)-LIQUID	Density (g/(cm)^3)-TOTAL	Molar volume (cm^3)-TOTAL	Volume change (%)-  	Average expansion coeff. (10e-6 1/K)-  	Thermal conductivity (W/(m*K))-TOTAL	Electrical resistivity (10e-6 Ohm*m)-TOTAL	Electrical conductivity (10e6 1/(Ohm*m))-TOTAL	Young's modulus (GPa)-TOTAL	Bulk modulus (GPa)-TOTAL	Shear modulus(GPa)-TOTAL	Poisson's ratio-TOTAL	Liquid viscosity (mPa s)-  	Total viscosity (mPa s)-  	Liquid diffusivity (10e-9 (m^2)/s)-  	Total diffusivity (10e-9 (m^2)/s)-  	Surface Tension (mN/m)-  	Enthalpy (J/mole)-TOTAL	Specific heat (J/(mole K))-TOTAL	Latent heat (J/mole)-TOTAL
1500.0	0.0	1.0	6.72423	8.01403	0.0	32.86374	32.48658	1.77852	0.56226	0.0	99.47524	0.0	0.49494	5.90328	5.90328	1.46602	1.46602	1585.38445	64267.219	 	0.0
1495.0	0.0	1.0	6.72822	8.00927	-0.0594119	32.82121	32.40751	1.77783	0.56248	0.0	99.66839	0.0	0.49494	5.95273	5.95273	1.44974	1.44974	1586.59053	64045.56	44.3318	0.0
1490.0	0.0	1.0	6.73222	8.00452	-0.11866	32.7788	32.32845	1.77714	0.5627	0.0	99.86155	0.0	0.49494	6.00287	6.00287	1.43356	1.43356	1587.79122	63824.386	44.2348	0.0
1485.0	0.0	1.0	6.7362	7.99978	-0.17776	32.73652	32.24938	1.77645	0.56292	0.0	100.05471	0.0	0.49494	6.05372	6.05372	1.41749	1.41749	1588.98646	63603.695	44.1382	0.0
1480.0	0.0	1.0	6.74018	7.99506	-0.23669	32.69437	32.17031	1.77575	0.56314	0.0	100.24786	0.0	0.49494	6.1053	6.1053	1.40152	1.40152	1590.17622	63383.485	44.042	0.0
1475.0	0.0	1.0	6.74415	7.99035	-0.29547	32.65235	32.09124	1.77505	0.56337	0.0	100.44102	0.0	0.49494	6.15762	6.15762	1.38565	1.38565	1591.36046	63163.751	43.9468	0.0
1470.0	0.0	1.0	6.74812	7.98565	-0.35408	32.61046	32.01218	1.77434	0.56359	0.0	100.63418	0.0	0.49494	6.21068	6.21068	1.36988	1.36988	1592.53912	62944.49	43.8522	0.0
1465.0	0.0	1.0	6.75208	7.98097	-0.41254	32.56869	31.93311	1.77363	0.56381	0.0	100.82733	0.0	0.49494	6.26452	6.26452	1.35421	1.35421	1593.71217	62725.7	43.758	0.0
1460.0	0.0	1.0	6.75604	7.97629	-0.47083	32.52706	31.85404	1.77292	0.56404	0.0	101.02049	0.0	0.49494	6.31913	6.31913	1.33864	1.33864	1594.87956	62507.378	43.6644	0.0
1455.0	0.0	1.0	6.75999	7.97163	-0.52897	32.48557	31.77497	1.7722	0.56427	0.0	101.21365	0.0	0.49494	6.37455	6.37455	1.32318	1.32318	1596.04125	62289.52	43.5716	0.0
1450.0	0.0	1.0	6.76393	7.96699	-0.58695	32.44421	31.69591	1.77149	0.5645	0.0	101.4068	0.0	0.49494	6.43077	6.43077	1.30782	1.30782	1597.19719	62072.137	43.4766	0.0
1445.0	0.0	1.0	6.76786	7.96235	-0.64477	32.40299	31.61684	1.77076	0.56473	0.0	101.59996	0.0	0.49494	6.48782	6.48782	1.29255	1.29255	1598.34733	61855.248	43.3778	0.0
1440.0	0.0	1.0	6.77179	7.95773	-0.70243	32.3619	31.53777	1.77004	0.56496	0.0	101.79312	0.0	0.49494	6.54572	6.54572	1.27739	1.27739	1599.49164	61638.848	43.28	0.0
1435.0	0.0	1.0	6.77572	7.95313	-0.75993	32.32096	31.4587	1.76931	0.56519	0.0	101.98627	0.0	0.49494	6.60447	6.60447	1.26233	1.26233	1600.63006	61422.934	43.1828	0.0
1430.0	0.0	1.0	6.77963	7.94853	-0.81727	32.28016	31.37964	1.76857	0.56543	0.0	102.17943	0.0	0.49494	6.66411	6.66411	1.24738	1.24738	1601.76255	61207.501	43.0866	0.0
1425.0	0.0	1.0	6.78355	7.94395	-0.87445	32.2395	31.30057	1.76783	0.56566	0.0	102.37259	0.0	0.49494	6.72463	6.72463	1.23252	1.23252	1602.88907	60992.548	42.9906	0.0
1420.0	0.0	1.0	6.78745	7.93938	-0.93147	32.19898	31.2215	1.76709	0.5659	0.0	102.56575	0.0	0.49494	6.78607	6.78607	1.21777	1.21777	1604.00955	60778.072	42.8952	0.0
1415.0	0.0	1.0	6.79135	7.93482	-0.98834	32.15861	31.14243	1.76635	0.56614	0.0	102.7589	0.0	0.49494	6.84844	6.84844	1.20311	1.20311	1605.12397	60564.068	42.8008	0.0
1410.0	0.0	1.0	6.79524	7.93028	-1.04504	32.11839	31.06337	1.7656	0.56638	0.0	102.95206	0.0	0.49494	6.91176	6.91176	1.18856	1.18856	1606.23226	60350.534	42.7068	0.0
1405.0	0.0	1.0	6.79912	7.92575	-1.10159	32.07832	30.9843	1.76485	0.56662	0.0	103.14522	0.0	0.49494	6.97605	6.97605	1.17411	1.17411	1607.33439	60137.465	42.6138	0.0
1400.0	0.0	1.0	6.803	7.92123	-1.15797	32.0384	30.90523	1.76409	0.56686	0.0	103.33837	0.0	0.49494	7.04132	7.04132	1.15976	1.15976	1608.43029	59924.859	42.5212	0.0
1395.0	0.0	1.0	6.80688	7.91672	-1.2142	31.99863	30.82616	1.76333	0.56711	0.0	103.53153	0.0	0.49494	7.1076	7.1076	1.14551	1.14551	1609.51993	59712.713	42.4292	0.0
1392.9	0.0	1.0	6.8085	7.91483	-1.23773	31.98199	30.79301	1.76301	0.56721	0.0	103.61253	0.0	0.49494	7.1357	7.1357	1.13956	1.13956	1609.97504	59623.878	42.3653	0.0030
1390.0	0.0526701	0.94733	6.81932	7.90231	-1.394	31.6129	30.88321	1.7548	0.56987	4.32145E-4	101.89833	1.45297E-4	0.48711	7.14152	7.68952	1.13665	1.05565	1608.78975	59013.21	210.349	487.813
1385.0	0.13468	0.86532	6.83655	7.88252	-1.64095	31.03585	31.01949	1.74183	0.57411	0.0187917	99.27186	0.00637067	0.47486	7.15208	10.32489	1.13156	0.78384	1606.83937	58043.536	193.935	1246.252
1382.04	0.17861	0.82139	6.84606	7.8716	-1.77728	30.72007	31.08938	1.73481	0.57643	0.0586861	97.89038	0.019985	0.46826	7.15861	14.77947	1.12851	0.54661	1605.7239	57513.605	 	1651.158
1380.0	0.23308	0.76692	6.85767	7.85824	-1.94388	30.29678	31.17518	1.72791	0.57873	0.0911241	97.13762	0.0311913	0.46073	7.16464	29.62154	1.12617	0.27239	1603.75777	56794.547	249.798	2284.457
1375.0	0.35045	0.64955	6.88329	7.82909	-2.30763	29.38023	31.35674	1.71271	0.58387	0.27807	95.69384	0.0962628	0.44434	7.18034	135.99808	1.12031	0.0591494	1599.20018	55221.551	314.599	3647.118
1370.0	0.44412	0.55588	6.90447	7.80522	-2.60557	28.6437	31.49308	1.70012	0.58819	0.77469	94.6727	0.27066	0.43109	7.19759	372.58954	1.11424	0.0215245	1594.92106	53927.345	258.841	4731.433
1365.0	0.5197	0.4803	6.92228	7.78527	-2.85445	28.04144	31.59366	1.68955	0.59187	1.71494	93.93519	0.60374	0.42027	7.21574	749.16506	1.10805	0.0106724	1590.90641	52847.443	215.98	5601.888
1360.0	0.58097	0.41903	6.93729	7.76861	-3.06232	27.55194	31.66529	1.68058	0.59503	3.12775	93.41379	1.10804	0.41139	7.23529	1252.43021	1.10168	0.00636443	1587.13111	51936.787	182.131	6303.539
1355.0	0.63086	0.36914	6.95006	7.75439	-3.23974	27.14621	31.71256	1.67294	0.59775	4.96929	93.05866	1.76961	0.40406	7.25568	1859.50735	1.09522	0.0042735	1583.58727	51160.819	155.194	6870.937
1353.31	0.64528	0.35472	6.95386	7.75018	-3.29229	27.02975	31.72315	1.67064	0.59857	5.66046	92.97355	2.01881	0.40193	7.26289	2080.33555	1.093	0.00381589	1582.41482	50928.951	 	7032.303
1350.0	0.67461	0.32539	6.96226	7.74092	-3.40784	26.76425	31.74601	1.66605	0.60022	7.35174	92.78232	2.63017	0.39758	7.27834	2591.66865	1.08846	0.00305679	1580.16195	50454.502	141.263	7369.12
1345.0	0.71218	0.28782	6.97339	7.72861	-3.56141	26.42143	31.76589	1.65988	0.60245	10.21594	92.59482	3.66967	0.39194	7.30259	3427.49859	1.0815	0.00230424	1576.96034	49824.403	126.02	7791.518
1340.0	0.74352	0.25648	6.98314	7.71789	-3.69525	26.13328	31.77216	1.65442	0.60444	13.39122	92.50225	4.82678	0.38718	7.32816	4333.09303	1.0744	0.00181704	1573.94943	49269.155	111.05	8139.493
1335.0	0.76993	0.23007	6.9918	7.70842	-3.81343	25.88858	31.76756	1.64953	0.60623	16.78678	92.48431	6.06846	0.38312	7.35499	5300.39677	1.06716	0.00148083	1571.11253	48773.168	99.1974	8428.635
1330.0	0.79236	0.20764	6.99958	7.69991	-3.91956	25.67728	31.75399	1.6451	0.60786	20.3134	92.52557	7.36199	0.37961	7.38271	6325.0629	1.05985	0.00123707	1568.43932	48324.624	89.7088	8670.759
1325.0	0.81159	0.18841	7.00665	7.69222	-4.01552	25.49419	31.73292	1.64106	0.60936	23.89138	92.61472	8.67786	0.37657	7.41165	7405.9012	1.05242	0.00105324	1565.91366	47914.452	82.0344	8874.933
1320.0	0.82818	0.17182	7.01314	7.68521	-4.10298	25.33478	31.70613	1.63731	0.61076	27.45243	92.74296	9.99065	0.37391	7.44173	8544.37017	1.04489	9.10046E-4	1563.52104	47535.62	75.7664	9048.186
1315.0	0.84262	0.15738	7.01913	7.67873	-4.18391	25.19344	31.67422	1.63382	0.61206	30.94048	92.9028	11.27935	0.37155	7.47293	9742.71136	1.03726	7.95607E-4	1561.25635	47182.619	70.6002	9196.026
1310.0	0.85524	0.14476	7.02472	7.67271	-4.25893	25.06856	31.63817	1.63053	0.6133	34.31689	93.08906	12.5293	0.36947	7.50531	11005.39653	1.02953	7.02107E-4	1559.10394	46851.091	66.3056	9322.807
1305.0	0.86636	0.13364	7.03	7.66704	-4.32977	24.95519	31.5985	1.62742	0.61447	37.55823	93.29653	13.7315	0.36759	7.53847	12338.35029	1.02177	6.24278E-4	1557.06427	46537.556	62.707	9432.008
1300.0	0.87619	0.12381	7.03497	7.6617	-4.39637	24.8536	31.55582	1.62446	0.61559	40.641	93.52238	14.87689	0.36591	7.57264	13746.5182	1.01393	5.58553E-4	1555.12096	46239.216	59.668	9526.423
1295.0	0.88494	0.11506	7.03971	7.65664	-4.45952	24.76161	31.5106	1.62162	0.61667	43.56292	93.76359	15.96428	0.36439	7.60804	15238.08537	1.00601	5.02278E-4	1553.26811	45953.798	57.0836	9608.324
1292.26	0.88931	0.11069	7.04222	7.65397	-4.49284	24.71479	31.48476	1.62011	0.61724	45.08669	93.90171	16.53204	0.36362	7.62774	16091.79834	1.00166	4.74799E-4	1552.27897	45802.362	 	9648.319
1290.0	0.89271	0.10729	7.04423	7.65182	-4.51969	24.67786	31.463	1.61889	0.61771	46.30317	94.01793	16.98565	0.36301	7.64431	16815.59751	0.99804	4.53707E-4	1551.48139	45679.65	54.8296	9679.361
1285.0	0.89975	0.10025	7.04859	7.64719	-4.57742	24.60085	31.41372	1.61625	0.61872	48.90459	94.28181	17.95669	0.36174	7.68133	18496.51701	0.99006	4.11155E-4	1549.7882	45414.129	53.1042	9742.173
1280.0	0.90609	0.0939089	7.05279	7.64273	-4.63314	24.52938	31.36277	1.61368	0.6197	51.35319	94.55462	18.87196	0.36057	7.71878	20285.28147	0.98209	3.73697E-4	1548.17045	45157.027	51.4204	9796.967
1275.0	0.91183	0.0881706	7.05686	7.63841	-4.68699	24.46299	31.31034	1.61118	0.62066	53.6551	94.8352	19.73356	0.35949	7.75708	22191.49638	0.9741	3.40497E-4	1546.62216	44907.289	49.9476	9844.794
1270.0	0.91704	0.0829588	7.06081	7.63425	-4.73891	24.40202	31.25669	1.60873	0.62161	55.81988	95.12286	20.54484	0.35849	7.79665	24226.22738	0.96602	3.10892E-4	1545.13239	44664.027	48.6524	9886.543
1265.0	0.92179	0.0782134	7.06465	7.63019	-4.78958	24.3444	31.20187	1.60633	0.62254	57.85735	95.41626	21.30936	0.35756	7.83675	26400.71032	0.95796	2.84361E-4	1543.7081	44426.491	47.5072	9922.955
1260.0	0.92612	0.0738796	7.06841	7.62622	-4.83913	24.28976	31.146	1.60398	0.62345	59.7766	95.71468	22.03037	0.35669	7.87743	28727.21697	0.94992	2.60482E-4	1542.34602	44194.044	46.4894	9954.679
1255.0	0.93009	0.0699105	7.07208	7.62237	-4.8872	24.2393	31.08931	1.60167	0.62435	61.58511	96.01799	22.71051	0.35587	7.91943	31219.26874	0.9418	2.38908E-4	1541.03124	43966.143	45.5802	9982.242
1250.0	0.93373	0.0662682	7.07567	7.61859	-4.93429	24.19146	31.03179	1.59939	0.62524	63.2936	96.3252	23.35372	0.35511	7.96239	33891.5742	0.93365	2.1935E-4	1539.77015	43742.321	44.7644	10006.113
1245.0	0.93708	0.0629162	7.0792	7.6149	-4.98038	24.14637	30.97356	1.59713	0.62612	64.90849	96.63605	23.96232	0.35439	8.00642	36759.48428	0.92547	2.01573E-4	1538.55738	43522.184	44.0274	10026.687
1240.0	0.94017	0.0598258	7.08268	7.61125	-5.02588	24.10275	30.91463	1.59491	0.627	66.44026	96.94973	24.54017	0.3537	8.05112	39840.74156	0.9173	1.85371E-4	1537.39932	43305.353	43.3662	10044.375
1235.0	0.94303	0.0569704	7.0861	7.60768	-5.07048	24.06163	30.85515	1.5927	0.62786	67.8933	97.26632	25.08883	0.35306	8.09695	43153.53868	0.9091	1.70575E-4	1536.28342	43091.519	42.7668	10059.504
1230.0	0.94567	0.0543276	7.08947	7.60416	-5.11439	24.02234	30.79513	1.59052	0.62873	69.27566	97.5853	25.61126	0.35245	8.1439	46718.542	0.90086	1.57036E-4	1535.21198	42880.418	42.2202	10072.337
1225.0	0.94812	0.0518758	7.09279	7.6007	-5.15758	23.98498	30.73463	1.58835	0.62959	70.59233	97.9064	26.10931	0.35186	8.19243	50557.51166	0.89254	1.44629E-4	1534.18077	42671.819	41.7198	10083.101
1220.85	0.95002	0.049975	7.09553	7.59784	-5.19321	23.95455	30.68399	1.58656	0.6303	71.64053	98.17452	26.50611	0.3514	8.23315	53972.40712	0.88567	1.35103E-4	1533.35889	42500.281	 	10090.603
1220.0	0.95156	0.0484399	7.09643	7.59688	-5.20519	23.93324	30.67449	1.58615	0.63046	72.34456	98.23665	26.773	0.35107	8.25709	54985.82664	0.8826	1.32538E-4	1532.41631	42444.905	45.3828	10112.613
1215.0	0.95941	0.0405867	7.10151	7.59144	-5.27307	23.81602	30.61752	1.58378	0.6314	76.02425	98.60035	28.16999	0.34938	8.40134	61055.34517	0.86454	1.18962E-4	1527.3311	42136.42	61.697	10224.125
1210.0	0.96544	0.0345603	7.10617	7.58647	-5.33507	23.71672	30.55902	1.58148	0.63232	78.96483	98.96054	29.28878	0.34804	8.5505	67262.82692	0.8466	1.07621E-4	1522.69889	41856.004	56.0832	10307.996
1205.0	0.97018	0.0298174	7.11052	7.58182	-5.39319	23.62918	30.49909	1.57924	0.63321	81.38471	99.31805	30.21108	0.34693	8.70375	73706.89894	0.82889	9.78807E-5	1518.47336	41595.34	52.1328	10372.539
1200.0	0.97399	0.0260054	7.11464	7.57741	-5.4482	23.55097	30.43812	1.57706	0.63409	83.42498	99.67381	30.98981	0.34601	8.86147	80468.70979	0.81139	8.93525E-5	1514.58817	41349.03	49.262	10423.15
1195.0	0.97712	0.0228845	7.1186	7.57318	-5.50095	23.47948	30.37634	1.5749	0.63496	85.18389	100.02806	31.66195	0.34521	9.02348	87621.36659	0.79411	8.178E-5	1511.008	41113.446	47.1168	10463.455
1190.0	0.97971	0.0202909	7.12242	7.5691	-5.55189	23.41331	30.31394	1.57277	0.63582	86.72875	100.38111	32.2529	0.34451	9.18976	95232.4137	0.77709	7.49878E-5	1507.69392	40886.078	45.4736	10495.963
1185.0	0.98189	0.0181061	7.12614	7.56513	-5.60139	23.35131	30.25106	1.57065	0.63668	88.10715	100.73311	32.78063	0.34389	9.35981	103367.2022	0.76036	6.88503E-5	1504.62005	40665.141	44.1874	10522.456
1180.0	0.98376	0.0162426	7.12977	7.56126	-5.64968	23.29276	30.18779	1.56854	0.63753	89.35513	101.08415	33.2588	0.34333	9.53439	112093.1979	0.74388	6.32729E-5	1501.75609	40449.334	43.1614	10544.232
1175.0	0.98536	0.0146383	7.13332	7.55747	-5.69699	23.23694	30.1242	1.56645	0.63839	90.49752	101.43426	33.69681	0.34282	9.71256	121477.334	0.72772	5.81842E-5	1499.08914	40237.694	42.328	10562.254
1170.0	0.98676	0.0132438	7.13682	7.55375	-5.74343	23.18357	30.06036	1.56435	0.63924	91.5547	101.78357	34.10239	0.34235	9.89483	131592.5143	0.71185	5.35263E-5	1496.59159	40029.488	41.6412	10577.251
1165.0	0.98798	0.012023	7.14027	7.55008	-5.78913	23.13218	29.9963	1.56226	0.6401	92.54151	102.13202	34.48119	0.34191	10.08147	142514.8246	0.69625	4.92528E-5	1494.25426	39824.155	41.0666	10589.781
1160.0	0.98906	0.0109447	7.14367	7.54647	-5.83419	23.08252	29.93206	1.56017	0.64095	93.47034	102.4797	34.83791	0.3415	10.27179	154327.7458	0.68098	4.53246E-5	1492.06057	39621.256	40.5798	10600.283
1155.0	0.99001	0.00998646	7.14703	7.54291	-5.87868	23.03432	29.86767	1.55808	0.64181	94.34978	102.82661	35.17584	0.34112	10.46602	167118.7346	0.66601	4.17095E-5	1490.00195	39420.445	40.1622	10609.101
1150.0	0.99087	0.00913159	7.15036	7.53938	-5.92266	22.98745	29.80314	1.55599	0.64268	95.18749	103.17275	35.49787	0.34075	10.66438	180985.5965	0.65133	3.8379E-5	1488.06731	39221.442	39.8006	10616.511
1145.0	0.99164	0.00836256	7.15366	7.5359	-5.96616	22.94175	29.7385	1.55389	0.64355	95.98967	103.51809	35.80638	0.3404	10.86636	196034.1944	0.63698	3.53083E-5	1486.24835	39024.024	39.4836	10622.736
1140.0	0.99233	0.00766799	7.15692	7.53245	-6.00921	22.89722	29.67331	1.55182	0.64441	96.76069	103.8627	36.10304	0.34006	11.07276	212380.0255	0.6229	3.24759E-5	1484.53115	38828.007	39.2034	10627.958
1135.0	0.99296	0.00703964	7.16016	7.52903	-6.05188	22.85359	29.60844	1.54971	0.64528	97.50544	104.20653	36.3897	0.33974	11.28347	230151.3639	0.60911	2.98622E-5	1482.91456	38633.238	38.9538	10632.326
1130.0	0.99353	0.00646611	7.16337	7.52564	-6.09416	22.81092	29.5435	1.5476	0.64616	98.22693	104.54958	36.66751	0.33943	11.49831	249488.1071	0.5956	2.74499E-5	1481.38651	38439.592	38.7292	10635.965
1125.0	0.99406	0.00594328	7.16656	7.52228	-6.1361	22.76905	29.47849	1.54549	0.64704	98.92812	104.89185	36.93761	0.33912	11.71695	270544.8359	0.58241	2.52233E-5	1479.94652	38246.963	38.5258	10638.978
1120.0	0.99454	0.00546287	7.16973	7.51894	-6.17771	22.72792	29.41342	1.54337	0.64793	99.61124	105.23338	37.20085	0.33883	11.94041	293490.0536	0.56946	2.31681E-5	1478.58354	38055.261	38.3404	10641.453
1115.0	0.99498	0.00502075	7.17289	7.51563	-6.21903	22.68744	29.3483	1.54124	0.64883	100.2784	105.57414	37.45804	0.33854	12.16824	318511.7783	0.5568	2.12715E-5	1477.29738	37864.411	38.17	10643.464
1110.0	0.99539	0.00461382	7.17602	7.51234	-6.26009	22.64749	29.28312	1.53911	0.64973	100.93167	105.91416	37.70995	0.33826	12.40011	345817.6325	0.54442	1.95213E-5	1476.08443	37674.348	38.0126	10645.074
1105.0	0.99576	0.0042369	7.17913	7.50908	-6.30081	22.6084	29.21789	1.53697	0.65063	101.57144	106.25333	37.95675	0.33799	12.63704	375636.7908	0.53228	1.79067E-5	1474.93303	37485.016	37.8664	10646.337
1100.0	0.99611	0.00388689	7.18223	7.50583	-6.34129	22.56977	29.15261	1.53482	0.65154	102.20004	106.59174	38.19933	0.33772	12.87791	408222.1337	0.52043	1.64175E-5	1473.84759	37296.366	37.73	10647.3
1095.0	0.99644	0.00356068	7.18531	7.50261	-6.38151	22.53171	29.08729	1.53267	0.65246	102.81823	106.92935	38.43797	0.33746	13.12378	443856.3899	0.50882	1.50445E-5	1472.82084	37108.357	37.6018	10648.002
1090.0	0.99674	0.00325725	7.18838	7.49941	-6.4215	22.49413	29.02193	1.53051	0.65338	103.42719	107.26618	38.67313	0.3372	13.37497	482849.9898	0.49744	1.3779E-5	1471.84653	36920.952	37.481	10648.479
1087.14	0.99691	0.00309259	7.19013	7.49758	-6.44429	22.4728	28.98454	1.52927	0.65391	103.77156	107.45852	38.80615	0.33705	13.52057	506793.1748	0.49105	1.31005E-5	1471.31274	36814.023	 	10648.661
1085.0	0.99789	0.00211386	7.19182	7.49579	-6.46663	22.43768	28.96337	1.52798	0.65446	104.50918	107.60269	39.09067	0.33675	13.57989	527582.4775	0.48813	1.25645E-5	1469.92171	36720.92	40.0064	10661.959
1080.0	1.0	0.0	7.19568	7.4917	-6.51761	22.35953	28.91291	1.52501	0.65573	106.15185	107.94053	39.72466	0.3361	 	579335.7898	 	1.13999E-5	 	36506.458	42.8924	10690.246
1075.0	1.0	0.0	7.1983	7.48898	-6.55162	22.34233	28.84611	1.52289	0.65665	106.60501	108.27403	39.9	0.3359	 	630554.1737	 	1.04352E-5	 	36358.171	29.6574	 
1070.0	1.0	0.0	7.20092	7.48626	-6.58558	22.32516	28.77931	1.52076	0.65756	107.05814	108.60672	40.07537	0.33571	 	686740.8486	 	9.54593E-6	 	36176.219	36.3904	 
1065.0	1.0	0.0	7.20353	7.48354	-6.61949	22.308	28.71251	1.51863	0.65849	107.51122	108.9386	40.25079	0.33552	 	748419.1899	 	8.72663E-6	 	35994.543	36.3352	 
1060.0	1.0	0.0	7.20614	7.48083	-6.65335	22.29086	28.64571	1.51648	0.65942	107.96427	109.26965	40.42623	0.33532	 	816171.9778	 	7.97231E-6	 	35813.14	36.2806	 
1055.0	1.0	0.0	7.20876	7.47812	-6.68716	22.27374	28.57891	1.51433	0.66036	108.41726	109.59988	40.60171	0.33513	 	890648.6175	 	7.27826E-6	 	35632.005	36.227	 
1050.0	1.0	0.0	7.21136	7.47541	-6.72092	22.25664	28.51211	1.51216	0.66131	108.8702	109.92927	40.77722	0.33494	 	972573.2925	 	6.64008E-6	 	35451.133	36.1744	 
1045.0	1.0	0.0	7.21397	7.47271	-6.75463	22.23955	28.4453	1.50998	0.66226	109.32307	110.25784	40.95275	0.33475	 	1062754.183	 	6.05367E-6	 	35270.521	36.1224	 
1040.0	1.0	0.0	7.21658	7.47001	-6.78829	22.22248	28.37849	1.5078	0.66322	109.77586	110.58556	41.1283	0.33455	 	1162093.892	 	5.51518E-6	 	35090.169	36.0704	 
1035.0	1.0	0.0	7.21918	7.46732	-6.8219	22.20543	28.31168	1.5056	0.66419	110.22857	110.91244	41.30388	0.33436	 	1271601.252	 	5.02104E-6	 	34910.078	36.0182	 
1030.0	1.0	0.0	7.22178	7.46463	-6.85547	22.1884	28.24487	1.50339	0.66516	110.68119	111.23847	41.47947	0.33417	 	1392404.702	 	4.56789E-6	 	34730.248	35.966	 
1025.0	1.0	0.0	7.22438	7.46194	-6.88898	22.17139	28.17806	1.50118	0.66614	111.13372	111.56365	41.65508	0.33398	 	1525767.457	 	4.15263E-6	 	34550.681	35.9134	 
1020.0	1.0	0.0	7.22698	7.45926	-6.92244	22.15439	28.11125	1.49895	0.66713	111.58614	111.88797	41.8307	0.33378	 	1673104.731	 	3.77235E-6	 	34371.375	35.8612	 
1015.0	1.0	0.0	7.22957	7.45658	-6.95586	22.13741	28.04444	1.49671	0.66813	112.03845	112.21142	42.00633	0.33359	 	1836003.292	 	3.42436E-6	 	34192.329	35.8092	 
1010.0	1.0	0.0	7.23217	7.45391	-6.98922	22.12045	27.97762	1.49446	0.66914	112.49064	112.53402	42.18196	0.3334	 	2016243.708	 	3.10614E-6	 	34013.542	35.7574	 
1005.0	1.0	0.0	7.23476	7.45124	-7.02254	22.10351	27.9108	1.4922	0.67015	112.94271	112.85574	42.3576	0.3332	 	2215825.651	 	2.81535E-6	 	33835.015	35.7054	 
1000.0	1.0	0.0	7.23735	7.44857	-7.05581	22.08659	27.84398	1.48993	0.67117	113.39465	113.17659	42.53324	0.33301	 	2436996.724	 	2.54983E-6	 	33656.745	35.654	 
995.0	1.0	0.0	7.23994	7.44591	-7.08903	22.06968	27.77716	1.48765	0.6722	113.84644	113.49656	42.70887	0.33282	 	2682285.32	 	2.30756E-6	 	33478.732	35.6026	 
990.0	1.0	0.0	7.24252	7.44325	-7.1222	22.05279	27.71034	1.48536	0.67324	114.29809	113.81565	42.88451	0.33263	 	2954538.115	 	2.08666E-6	 	33300.976	35.5512	 
985.0	1.0	0.0	7.24511	7.4406	-7.15532	22.03592	27.64351	1.48305	0.67428	114.74959	114.13386	43.06013	0.33243	 	3256962.88	 	1.88541E-6	 	33123.475	35.5002	 
980.0	1.0	0.0	7.24769	7.43795	-7.18839	22.01907	27.57669	1.48074	0.67534	115.20092	114.45117	43.23575	0.33224	 	3593177.433	 	1.7022E-6	 	32946.229	35.4492	 
975.0	1.0	0.0	7.25027	7.4353	-7.22142	22.00223	27.50986	1.47841	0.6764	115.65209	114.76759	43.41135	0.33205	 	3967265.629	 	1.53554E-6	 	32769.236	35.3986	 
970.0	1.0	0.0	7.25284	7.43266	-7.25439	21.98541	27.44303	1.47608	0.67747	116.10308	115.08311	43.58694	0.33186	 	4383841.494	 	1.38406E-6	 	32592.495	35.3482	 
965.0	1.0	0.0	7.25542	7.43002	-7.28732	21.96862	27.3762	1.47373	0.67855	116.55389	115.39773	43.76251	0.33166	 	4848122.733	 	1.24648E-6	 	32416.007	35.2976	 
960.0	1.0	0.0	7.25799	7.42738	-7.3202	21.95183	27.30937	1.47137	0.67964	117.00451	115.71145	43.93807	0.33147	 	5366015.081	 	1.12163E-6	 	32239.769	35.2476	 
955.0	1.0	0.0	7.26057	7.42475	-7.35303	21.93507	27.24254	1.469	0.68074	117.45493	116.02425	44.11359	0.33128	 	5944209.175	 	1.00843E-6	 	32063.781	35.1976	 
950.0	1.0	0.0	7.26314	7.42213	-7.38581	21.91832	27.1757	1.46662	0.68184	117.90515	116.33615	44.2891	0.33109	 	6590291.924	 	9.05861E-7	 	31888.042	35.1478	 
945.0	1.0	0.0	7.2657	7.4195	-7.41854	21.9016	27.10886	1.46422	0.68296	118.35517	116.64712	44.46457	0.33089	 	7312874.679	 	8.13016E-7	 	31712.551	35.0982	 
940.0	1.0	0.0	7.26827	7.41688	-7.45123	21.88489	27.04202	1.46182	0.68408	118.80496	116.95717	44.64002	0.3307	 	8121740.865	 	7.29041E-7	 	31537.307	35.0488	 
935.0	1.0	0.0	7.27083	7.41427	-7.48387	21.8682	26.97518	1.4594	0.68521	119.25453	117.2663	44.81543	0.33051	 	9028016.233	 	6.53153E-7	 	31362.309	34.9996	 
930.0	1.0	0.0	7.2734	7.41166	-7.51646	21.85152	26.90834	1.45697	0.68636	119.70387	117.57451	44.9908	0.33031	 	1.004436537E7	 	5.84634E-7	 	31187.556	34.9506	 
925.0	1.0	0.0	7.27596	7.40905	-7.549	21.83487	26.84149	1.45453	0.68751	120.15297	117.88177	45.16614	0.33012	 	1.11852188E7	 	5.22821E-7	 	31013.047	34.9018	 
920.0	1.0	0.0	7.27851	7.40644	-7.58149	21.81823	26.77465	1.45207	0.68867	120.60182	118.18811	45.34143	0.32993	 	1.246703558E7	 	4.67109E-7	 	30838.78	34.8534	 
915.0	1.0	0.0	7.28107	7.40384	-7.61394	21.80161	26.7078	1.44961	0.68984	121.05043	118.4935	45.51668	0.32974	 	1.390860756E7	 	4.16941E-7	 	30664.756	34.8048	 
910.0	1.0	0.0	7.28363	7.40125	-7.64634	21.78501	26.64095	1.44713	0.69102	121.49877	118.79796	45.69189	0.32954	 	1.553141188E7	 	3.71805E-7	 	30490.971	34.757	 
905.0	1.0	0.0	7.28618	7.39865	-7.67869	21.76842	26.5741	1.44464	0.69221	121.94685	119.10146	45.86704	0.32935	 	1.736002015E7	 	3.31236E-7	 	30317.427	34.7088	 
900.0	1.0	0.0	7.28873	7.39607	-7.71099	21.75185	26.50725	1.44214	0.69342	122.39466	119.40402	46.04215	0.32916	 	1.942257385E7	 	2.94804E-7	 	30144.12	34.6614	 
895.0	1.0	0.0	7.29128	7.39348	-7.74325	21.73531	26.44039	1.43962	0.69463	122.84219	119.70563	46.2172	0.32897	 	2.17513371E7	 	2.6212E-7	 	29971.051	34.6138	 
890.0	1.0	0.0	7.29382	7.3909	-7.77546	21.71878	26.37354	1.43709	0.69585	123.28943	120.00628	46.39219	0.32877	 	2.438334048E7	 	2.32825E-7	 	29798.218	34.5666	 
885.0	1.0	0.0	7.29637	7.38832	-7.80762	21.70226	26.30668	1.43455	0.69708	123.73639	120.30597	46.56712	0.32858	 	2.736113139E7	 	2.06594E-7	 	29625.619	34.5198	 
880.0	1.0	0.0	7.29891	7.38575	-7.83974	21.68577	26.23982	1.432	0.69832	124.18304	120.6047	46.74199	0.32839	 	3.073364982E7	 	1.8313E-7	 	29453.254	34.473	 
875.0	1.0	0.0	7.30145	7.38318	-7.8718	21.66929	26.17296	1.42943	0.69958	124.62939	120.90246	46.9168	0.3282	 	3.455725165E7	 	1.62161E-7	 	29281.121	34.4266	 
870.0	1.0	0.0	7.30399	7.38061	-7.90382	21.65283	26.10609	1.42685	0.70084	125.07543	121.19926	47.09154	0.328	 	3.889690571E7	 	1.43442E-7	 	29109.219	34.3804	 
865.0	1.0	0.0	7.30653	7.37805	-7.9358	21.63639	26.03923	1.42426	0.70212	125.52115	121.49508	47.26622	0.32781	 	4.382759578E7	 	1.26747E-7	 	28937.547	34.3344	 
860.0	1.0	0.0	7.30906	7.37549	-7.96772	21.61997	25.97236	1.42165	0.70341	125.96654	121.78993	47.44082	0.32762	 	4.943596469E7	 	1.11874E-7	 	28766.103	34.2888	 
855.0	1.0	0.0	7.31159	7.37294	-7.9996	21.60356	25.90549	1.41903	0.7047	126.4116	122.08381	47.61534	0.32743	 	5.582224466E7	 	9.86385E-8	 	28594.885	34.2436	 
850.0	1.0	0.0	7.31412	7.37039	-8.03143	21.58717	25.83862	1.4164	0.70601	126.85633	122.3767	47.78979	0.32723	 	6.310252651E7	 	8.68716E-8	 	28423.893	34.1984	 
845.0	1.0	0.0	7.31665	7.36784	-8.06322	21.57081	25.77175	1.41375	0.70734	127.30071	122.66861	47.96416	0.32704	 	7.14114307E7	 	7.64221E-8	 	28253.125	34.1536	 
840.0	1.0	0.0	7.31918	7.36529	-8.09496	21.55445	25.70488	1.41109	0.70867	127.74474	122.95953	48.13845	0.32685	 	8.090525525E7	 	6.71527E-8	 	28082.58	34.109	 
835.0	1.0	0.0	7.3217	7.36275	-8.12665	21.53812	25.63801	1.40842	0.71002	128.18842	123.24947	48.31266	0.32665	 	9.176569062E7	 	5.89393E-8	 	27912.255	34.065	 
830.0	1.0	0.0	7.32423	7.36022	-8.15829	21.5218	25.57113	1.40573	0.71137	128.63173	123.53841	48.48678	0.32646	 	1.042042094E8	 	5.16697E-8	 	27742.149	34.0212	 
825.0	1.0	0.0	7.32675	7.35769	-8.18989	21.50551	25.50425	1.40303	0.71274	129.07468	123.82636	48.66081	0.32627	 	1.1846726E8	 	4.52429E-8	 	27572.261	33.9776	 
820.0	1.0	0.0	7.32927	7.35516	-8.22145	21.48923	25.43737	1.40031	0.71413	129.51724	124.11331	48.83475	0.32608	 	1.348424206E8	 	3.95676E-8	 	27402.589	33.9344	 
815.0	1.0	0.0	7.33178	7.35263	-8.25295	21.47296	25.37049	1.39758	0.71552	129.95943	124.39927	49.0086	0.32588	 	1.536657001E8	 	3.4562E-8	 	27233.132	33.8914	 
810.0	1.0	0.0	7.3343	7.35011	-8.28441	21.45672	25.30361	1.39484	0.71693	130.40123	124.68422	49.18235	0.32569	 	1.75330212E8	 	3.01522E-8	 	27063.886	33.8492	 
805.0	1.0	0.0	7.33681	7.34759	-8.31583	21.44049	25.23673	1.39208	0.71835	130.84263	124.96816	49.356	0.3255	 	2.00296494E8	 	2.6272E-8	 	26894.852	33.8068	 
800.0	1.0	0.0	7.33932	7.34508	-8.34719	21.42429	25.16985	1.3893	0.71978	131.28364	125.2511	49.52955	0.32531	 	2.291048035E8	 	2.28619E-8	 	26726.026	33.7652	 
795.0	1.0	0.0	7.34183	7.34257	-8.37851	21.40809	25.10296	1.38652	0.72123	131.72423	125.53303	49.703	0.32511	 	2.623897869E8	 	1.98688E-8	 	26557.407	33.7238	 
790.0	1.0	0.0	7.34434	7.34006	-8.40979	21.39192	25.03608	1.38371	0.72269	132.16442	125.81395	49.87635	0.32492	 	3.008980083E8	 	1.72449E-8	 	26388.994	33.6826	 
785.0	1.0	0.0	7.34684	7.33756	-8.44102	21.37577	24.96919	1.38089	0.72417	132.60418	126.09385	50.04958	0.32473	 	3.455089241E8	 	1.49477E-8	 	26220.782	33.6424	 
780.0	1.0	0.0	7.34935	7.33506	-8.4722	21.35963	24.9023	1.37806	0.72566	133.04353	126.37274	50.22271	0.32454	 	3.972600206E8	 	1.2939E-8	 	26052.772	33.602	 
775.0	1.0	0.0	7.35185	7.33257	-8.50334	21.34351	24.83541	1.37521	0.72716	133.48244	126.6506	50.39572	0.32434	 	4.573769845E8	 	1.1185E-8	 	25884.96	33.5624	 
770.0	1.0	0.0	7.35435	7.33007	-8.53443	21.32741	24.76852	1.37235	0.72868	133.92091	126.92744	50.56862	0.32415	 	5.273099703E8	 	9.65534E-9	 	25717.345	33.523	 
765.0	1.0	0.0	7.35684	7.32759	-8.56548	21.31133	24.70163	1.36947	0.73021	134.35894	127.20326	50.7414	0.32396	 	6.087772657E8	 	8.32316E-9	 	25549.923	33.4844	 
760.0	1.0	0.0	7.35934	7.3251	-8.59648	21.29526	24.63474	1.36657	0.73176	134.79653	127.47805	50.91407	0.32377	 	7.038179456E8	 	7.16456E-9	 	25382.693	33.446	 
755.0	1.0	0.0	7.36183	7.32262	-8.62744	21.27922	24.56784	1.36366	0.73332	135.23365	127.75182	51.08661	0.32357	 	8.148554672E8	 	6.15832E-9	 	25215.652	33.4082	 
750.0	1.0	0.0	7.36432	7.32014	-8.65835	21.26319	24.50095	1.36074	0.7349	135.67032	128.02455	51.25903	0.32338	 	9.447746049E8	 	5.28564E-9	 	25048.797	33.371	 
745.0	1.0	0.0	7.36681	7.31767	-8.68921	21.24717	24.43405	1.35779	0.73649	136.10652	128.29625	51.43132	0.32319	 	1.097014676E9	 	4.52987E-9	 	24882.127	33.334	 
740.0	1.0	0.0	7.3693	7.3152	-8.72003	21.23118	24.36716	1.35484	0.7381	136.54225	128.56691	51.60348	0.32299	 	1.275682694E9	 	3.8763E-9	 	24715.636	33.2982	 
735.0	1.0	0.0	7.37179	7.31273	-8.75081	21.21521	24.30026	1.35186	0.73972	136.9775	128.83654	51.77551	0.3228	 	1.485690944E9	 	3.31195E-9	 	24549.324	33.2624	 
730.0	1.0	0.0	7.37427	7.31027	-8.78154	21.19925	24.23336	1.34887	0.74136	137.41226	129.10512	51.94741	0.32261	 	1.732924539E9	 	2.82535E-9	 	24383.187	33.2274	 
725.0	1.0	0.0	7.37675	7.30781	-8.81222	21.18331	24.16646	1.34586	0.74302	137.84654	129.37267	52.11918	0.32242	 	2.024445839E9	 	2.40645E-9	 	24217.222	33.193	 
720.0	1.0	0.0	7.37923	7.30536	-8.84286	21.16739	24.09956	1.34284	0.74469	138.28032	129.63917	52.2908	0.32222	 	2.368744291E9	 	2.04637E-9	 	24051.425	33.1594	 
715.0	1.0	0.0	7.38171	7.30291	-8.87345	21.15148	24.03266	1.3398	0.74638	138.7136	129.90462	52.46229	0.32203	 	2.776042327E9	 	1.73733E-9	 	23885.793	33.1264	 
710.0	1.0	0.0	7.38418	7.30046	-8.904	21.1356	23.96576	1.33674	0.74809	139.14637	130.16903	52.63363	0.32184	 	3.258670577E9	 	1.47254E-9	 	23720.322	33.0942	 
705.0	1.0	0.0	7.38666	7.29801	-8.93451	21.11973	23.89885	1.33366	0.74981	139.57862	130.43238	52.80483	0.32165	 	3.83152895E9	 	1.24601E-9	 	23555.009	33.0626	 
700.0	1.0	0.0	7.38913	7.29557	-8.96497	21.10388	23.83194	1.33057	0.75156	140.01036	130.69469	52.97589	0.32145	 	4.512654295E9	 	1.05253E-9	 	23389.85	33.0318	 
695.0	1.0	0.0	7.3916	7.29313	-8.99538	21.08805	23.76504	1.32746	0.75332	140.44158	130.95594	53.14679	0.32126	 	5.323920608E9	 	8.8756E-10	 	23224.84	33.002	 
690.0	1.0	0.0	7.39406	7.2907	-9.02575	21.07223	23.69812	1.32433	0.7551	140.87226	131.21613	53.31755	0.32107	 	6.291904389E9	 	7.47134E-10	 	23059.975	32.973	 
685.0	1.0	0.0	7.39653	7.28827	-9.05608	21.05643	23.63121	1.32119	0.75689	141.3024	131.47527	53.48815	0.32088	 	7.448956192E9	 	6.27805E-10	 	22895.251	32.9448	 
680.0	1.0	0.0	7.39899	7.28584	-9.08636	21.04066	23.5643	1.31803	0.75871	141.73201	131.73335	53.65859	0.32068	 	8.834530136E9	 	5.2658E-10	 	22730.663	32.9176	 
675.0	1.0	0.0	7.40146	7.28342	-9.1166	21.0249	23.49738	1.31485	0.76054	142.16107	131.99036	53.82888	0.32049	 	1.04968E10	 	4.40865E-10	 	22566.205	32.8916	 
670.0	1.0	0.0	7.40392	7.281	-9.14679	21.00915	23.43046	1.31165	0.7624	142.58957	132.24632	53.99901	0.3203	 	1.2494899999999998E10	 	3.68413E-10	 	22401.873	32.8664	 
665.0	1.0	0.0	7.40637	7.27858	-9.17694	20.99343	23.36354	1.30843	0.76427	143.01752	132.5012	54.16898	0.32011	 	1.4901099999999998E10	 	3.07284E-10	 	22237.66	32.8426	 
660.0	1.0	0.0	7.40883	7.27617	-9.20704	20.97772	23.29661	1.3052	0.76617	143.4449	132.75503	54.33878	0.31991	 	1.78046E10	 	2.55804E-10	 	22073.56	32.82	 
655.0	1.0	0.0	7.41128	7.27376	-9.2371	20.96203	23.22968	1.30194	0.76808	143.87171	133.00778	54.50841	0.31972	 	2.13148E10	 	2.12532E-10	 	21909.568	32.7984	 
650.0	1.0	0.0	7.41373	7.27136	-9.26712	20.94636	23.16275	1.29867	0.77002	144.29794	133.25946	54.67788	0.31953	 	2.5567199999999996E10	 	1.76228E-10	 	21745.676	32.7784	 
645.0	1.0	0.0	7.41618	7.26896	-9.29709	20.93071	23.09581	1.29538	0.77197	144.7236	133.51007	54.84718	0.31933	 	3.0729299999999996E10	 	1.4583E-10	 	21581.876	32.76	 
640.0	1.0	0.0	7.41863	7.26656	-9.32702	20.91507	23.02887	1.29207	0.77395	145.14867	133.75961	55.0163	0.31914	 	3.70084E10	 	1.20428E-10	 	21418.163	32.7426	 
635.0	1.0	0.0	7.42108	7.26416	-9.3569	20.89945	22.96193	1.28874	0.77595	145.57314	134.00807	55.18525	0.31895	 	4.46626E10	 	9.92432E-11	 	21254.526	32.7274	 
630.0	1.0	0.0	7.42352	7.26177	-9.38675	20.88385	22.89498	1.2854	0.77797	145.99702	134.25545	55.35402	0.31876	 	5.401269999999999E10	 	8.16113E-11	 	21090.957	32.7138	 
625.0	1.0	0.0	7.42596	7.25938	-9.41654	20.86827	22.82803	1.28203	0.78001	146.4203	134.50176	55.52261	0.31856	 	6.545959999999999E10	 	6.69672E-11	 	20927.447	32.702	 
620.0	1.0	0.0	7.4284	7.257	-9.4463	20.85271	22.76107	1.27864	0.78208	146.84296	134.74699	55.69102	0.31837	 	7.95043E10	 	5.48303E-11	 	20763.985	32.6924	 
615.0	1.0	0.0	7.43084	7.25462	-9.47601	20.83716	22.6941	1.27524	0.78417	147.26502	134.99113	55.85925	0.31818	 	9.677509999999998E10	 	4.47929E-11	 	20600.56	32.685	 
610.0	1.0	0.0	7.43328	7.25224	-9.50567	20.82164	22.62713	1.27181	0.78628	147.68645	135.23419	56.02729	0.31799	 	1.18062E11	 	3.65101E-11	 	20437.16	32.68	 
605.0	1.0	0.0	7.43571	7.24987	-9.5353	20.80613	22.56016	1.26837	0.78842	148.10726	135.47617	56.19514	0.31779	 	1.44359E11	 	2.96902E-11	 	20273.773	32.6774	 
600.0	1.0	0.0	7.43814	7.24749	-9.56488	20.79063	22.49318	1.2649	0.79058	148.52744	135.71706	56.3628	0.3176	 	1.76922E11	 	2.40876E-11	 	20110.384	32.6778	 
595.0	1.0	0.0	7.44057	7.24513	-9.59441	20.77516	22.42619	1.26141	0.79276	148.94698	135.95686	56.53027	0.31741	 	2.17342E11	 	1.94956E-11	 	19946.978	32.6812	 
590.0	1.0	0.0	7.443	7.24276	-9.62391	20.7597	22.3592	1.2579	0.79497	149.36588	136.19558	56.69755	0.31722	 	2.67637E11	 	1.57408E-11	 	19783.538	32.688	 
585.0	1.0	0.0	7.44543	7.2404	-9.65336	20.74426	22.2922	1.25438	0.79721	149.78413	136.4332	56.86463	0.31702	 	3.30376E11	 	1.26777E-11	 	19620.046	32.6984	 
580.0	1.0	0.0	7.44785	7.23805	-9.68277	20.72884	22.2252	1.25083	0.79947	150.20174	136.66973	57.03151	0.31683	 	4.08834E11	 	1.01851E-11	 	19456.481	32.713	 
575.0	1.0	0.0	7.45028	7.23569	-9.71213	20.71344	22.15818	1.24726	0.80176	150.61868	136.90517	57.19818	0.31664	 	5.07204E11	 	8.16163E-12	 	19292.822	32.7318	 
570.0	1.0	0.0	7.4527	7.23334	-9.74145	20.69806	22.09117	1.24367	0.80407	151.03497	137.13951	57.36466	0.31645	 	6.30861E11	 	6.52316E-12	 	19129.044	32.7556	 
565.0	1.0	0.0	7.45511	7.231	-9.77073	20.68269	22.02414	1.24005	0.80642	151.45058	137.37276	57.53093	0.31625	 	7.8672E11	 	5.19982E-12	 	18965.12	32.7848	 
560.0	1.0	0.0	7.45753	7.22865	-9.79997	20.66734	21.95711	1.23642	0.80879	151.86553	137.60491	57.697	0.31606	 	9.83701E11	 	4.13378E-12	 	18801.02	32.82	 
555.0	1.0	0.0	7.45994	7.22632	-9.82916	20.65201	21.89008	1.23276	0.81119	152.27979	137.83596	57.86285	0.31587	 	1.23334E12	 	3.27728E-12	 	18636.71	32.862	 
550.0	1.0	0.0	7.46236	7.22398	-9.85831	20.6367	21.82303	1.22908	0.81361	152.69337	138.06591	58.0285	0.31568	 	1.5506E12	 	2.59099E-12	 	18472.154	32.9112	 
545.0	1.0	0.0	7.46477	7.22165	-9.88742	20.6214	21.75598	1.22538	0.81607	153.10627	138.29476	58.19393	0.31548	 	1.95496E12	 	2.04259E-12	 	18307.309	32.969	 
540.0	1.0	0.0	7.46718	7.21932	-9.91648	20.60612	21.68893	1.22166	0.81856	153.51847	138.52251	58.35914	0.31529	 	2.47184E12	 	1.6056E-12	 	18142.128	33.0362	 
535.0	1.0	0.0	7.46958	7.21699	-9.94551	20.59086	21.62186	1.21791	0.82108	153.92997	138.74915	58.52414	0.3151	 	3.13448E12	 	1.25838E-12	 	17976.559	33.1138	 
530.0	1.0	0.0	7.47199	7.21467	-9.97449	20.57562	21.55479	1.21414	0.82362	154.34076	138.97469	58.68892	0.31491	 	3.98659E12	 	9.8329E-13	 	17810.542	33.2034	 
525.0	1.0	0.0	7.47439	7.21235	-10.00343	20.5604	21.48772	1.21035	0.82621	154.75085	139.19913	58.85348	0.31471	 	5.0857E12	 	7.65985E-13	 	17644.009	33.3066	 
520.0	1.0	0.0	7.47679	7.21003	-10.03232	20.54519	21.42064	1.20654	0.82882	155.16022	139.42245	59.01781	0.31452	 	6.50787E12	 	5.94845E-13	 	17476.883	33.4252	 
515.0	1.0	0.0	7.47919	7.20772	-10.06118	20.53001	21.35355	1.2027	0.83146	155.56888	139.64467	59.18192	0.31433	 	8.3539E12	 	4.60475E-13	 	17303.543	34.668	 
510.0	1.0	0.0	7.48159	7.20541	-10.08999	20.51484	21.28646	1.19883	0.83414	155.97681	139.86578	59.3458	0.31414	 	1.0758E13	 	3.55305E-13	 	17131.132	34.4822	 
505.0	1.0	0.0	7.48398	7.20311	-10.11876	20.49968	21.21936	1.19495	0.83686	156.38401	140.08578	59.50945	0.31394	 	1.38991E13	 	2.73252E-13	 	16959.683	34.2898	 
500.0	1.0	0.0	7.48637	7.2008	-10.14749	20.48455	21.15226	1.19104	0.83961	156.79047	140.30466	59.67287	0.31375	 	1.80172E13	 	2.09441E-13	 	16789.164	34.1038	 
495.0	1.0	0.0	7.48876	7.19851	-10.17617	20.46943	21.08515	1.1871	0.84239	157.1962	140.52244	59.83606	0.31356	 	2.34348E13	 	1.59982E-13	 	16619.541	33.9246	 
490.0	1.0	0.0	7.49115	7.19621	-10.20482	20.45434	21.01803	1.18314	0.84521	157.60118	140.7391	59.99901	0.31336	 	3.05868E13	 	1.21776E-13	 	16450.784	33.7514	 
485.0	1.0	0.0	7.49354	7.19392	-10.23342	20.43926	20.95091	1.17915	0.84807	158.00541	140.95464	60.16172	0.31317	 	4.00624E13	 	9.23644E-14	 	16282.865	33.5838	 
480.0	1.0	0.0	7.49593	7.19163	-10.26198	20.42419	20.88379	1.17514	0.85096	158.40889	141.16907	60.32419	0.31298	 	5.26625E13	 	6.98018E-14	 	16115.757	33.4216	 
475.0	1.0	0.0	7.49831	7.18934	-10.2905	20.40915	20.81666	1.1711	0.8539	158.8116	141.38239	60.48643	0.31279	 	6.94797E13	 	5.25554E-14	 	15949.435	33.2644	 
470.0	1.0	0.0	7.50069	7.18706	-10.31898	20.39412	20.74953	1.16704	0.85687	159.21356	141.59458	60.64841	0.31259	 	9.20107E13	 	3.94207E-14	 	15783.874	33.1122	 
465.0	1.0	0.0	7.50307	7.18478	-10.34742	20.37911	20.68239	1.16295	0.85988	159.61474	141.80566	60.81016	0.3124	 	1.22314E14	 	2.94548E-14	 	15619.053	32.9642	 
460.0	1.0	0.0	7.50545	7.18251	-10.37582	20.36412	20.61525	1.15884	0.86293	160.01515	142.01562	60.97165	0.31221	 	1.63232E14	 	2.19218E-14	 	15454.951	32.8204	 
455.0	1.0	0.0	7.50782	7.18023	-10.40417	20.34915	20.5481	1.15469	0.86603	160.41478	142.22446	61.1329	0.31202	 	2.18704E14	 	1.62499E-14	 	15291.547	32.6808	 
450.0	1.0	0.0	7.51019	7.17796	-10.43248	20.33419	20.48095	1.15052	0.86917	160.81363	142.43218	61.29389	0.31182	 	2.9422E14	 	1.19962E-14	 	15128.824	32.5446	 
445.0	1.0	0.0	7.51257	7.1757	-10.46075	20.31926	20.4138	1.14633	0.87235	161.21169	142.63878	61.45463	0.31163	 	3.97453E14	 	8.81894E-15	 	14966.763	32.4122	 
440.0	1.0	0.0	7.51494	7.17344	-10.48899	20.30434	20.34664	1.1421	0.87558	161.60896	142.84425	61.61512	0.31144	 	5.3917999999999994E14	 	6.45556E-15	 	14805.348	32.283	 
435.0	1.0	0.0	7.5173	7.17118	-10.51718	20.28944	20.27948	1.13785	0.87885	162.00543	143.04861	61.77534	0.31125	 	7.3461E14	 	4.70495E-15	 	14644.563	32.157	 
430.0	1.0	0.0	7.51967	7.16892	-10.54532	20.27455	20.21232	1.13357	0.88217	162.40109	143.25184	61.93531	0.31105	 	1.0053E15	 	3.41382E-15	 	14484.394	32.0338	 
425.0	1.0	0.0	7.52203	7.16667	-10.57343	20.25969	20.14515	1.12927	0.88553	162.79596	143.45394	62.09502	0.31086	 	1.38193E15	 	2.46575E-15	 	14324.826	31.9136	 
420.0	1.0	0.0	7.52439	7.16442	-10.6015	20.24484	20.07798	1.12493	0.88895	163.19	143.65492	62.25447	0.31067	 	1.90843E15	 	1.77271E-15	 	14165.847	31.7958	 
415.0	1.0	0.0	7.52675	7.16217	-10.62953	20.23001	20.01081	1.12056	0.89241	163.58324	143.85478	62.41365	0.31048	 	2.64794E15	 	1.26841E-15	 	14007.444	31.6806	 
410.0	1.0	0.0	7.52911	7.15993	-10.65751	20.2152	19.94363	1.11617	0.89592	163.97565	144.05351	62.57257	0.31028	 	3.6917E15	 	9.03185E-16	 	13849.606	31.5676	 
405.0	1.0	0.0	7.53147	7.15769	-10.68546	20.20041	19.87645	1.11174	0.89949	164.36724	144.25112	62.73122	0.31009	 	5.1722E15	 	6.39937E-16	 	13692.32	31.4572	 
400.0	1.0	0.0	7.53382	7.15545	-10.71336	20.18563	19.80926	1.10729	0.90311	164.758	144.4476	62.88959	0.3099	 	7.28289E15	 	4.51123E-16	 	13535.577	31.3486	 
395.0	1.0	0.0	7.53617	7.15322	-10.74123	20.17087	19.74208	1.10281	0.90678	165.14793	144.64295	63.0477	0.30971	 	1.03077E16	 	3.16373E-16	 	13379.367	31.242	 
390.0	1.0	0.0	7.53852	7.15099	-10.76905	20.15613	19.67488	1.09829	0.91051	165.53702	144.83717	63.20553	0.30951	 	1.46655E16	 	2.207E-16	 	13223.68	31.1374	 
385.0	1.0	0.0	7.54087	7.14877	-10.79684	20.14141	19.60769	1.09375	0.91429	165.92526	145.03027	63.36309	0.30932	 	2.09779E16	 	1.53127E-16	 	13068.508	31.0344	 
380.0	1.0	0.0	7.54322	7.14654	-10.82458	20.1267	19.54049	1.08917	0.91813	166.31266	145.22224	63.52037	0.30913	 	3.01724E16	 	1.05655E-16	 	12913.841	30.9334	 
375.0	1.0	0.0	7.54556	7.14432	-10.85228	20.11202	19.47329	1.08456	0.92203	166.69922	145.41308	63.67737	0.30894	 	4.36414E16	 	7.24876E-17	 	12759.672	30.8338	 
370.0	1.0	0.0	7.5479	7.1421	-10.87995	20.09735	19.40608	1.07992	0.92599	167.08491	145.6028	63.8341	0.30874	 	6.34866E16	 	4.94444E-17	 	12605.993	30.7358	 
365.0	1.0	0.0	7.55024	7.13989	-10.90757	20.0827	19.33888	1.07525	0.93002	167.46975	145.79138	63.99054	0.30855	 	9.29008E16	 	3.35266E-17	 	12452.797	30.6392	 
360.0	1.0	0.0	7.55258	7.13768	-10.93515	20.06807	19.27166	1.07055	0.9341	167.85373	145.97884	64.14669	0.30836	 	1.36764E17	 	2.25955E-17	 	12300.078	30.5438	 
355.0	1.0	0.0	7.55492	7.13547	-10.9627	20.05345	19.20445	1.06581	0.93825	168.23684	146.16517	64.30257	0.30817	 	2.02582E17	 	1.51338E-17	 	12147.827	30.4502	 
350.0	1.0	0.0	7.55725	7.13327	-10.9902	20.03885	19.13723	1.06104	0.94247	168.61908	146.35038	64.45815	0.30797	 	3.01975E17	 	1.00718E-17	 	11996.04	30.3574	 
345.0	1.0	0.0	7.55958	7.13107	-11.01766	20.02428	19.07	1.05624	0.94676	169.00045	146.53445	64.61345	0.30778	 	4.53053E17	 	6.65934E-18	 	11844.711	30.2658	 
340.0	1.0	0.0	7.56191	7.12887	-11.04509	20.00971	19.00277	1.0514	0.95111	169.38094	146.7174	64.76846	0.30759	 	6.84233E17	 	4.37371E-18	 	11693.833	30.1756	 
335.0	1.0	0.0	7.56424	7.12668	-11.07247	19.99517	18.93554	1.04653	0.95554	169.76055	146.89922	64.92317	0.3074	 	1.04041E18	 	2.85294E-18	 	11543.401	30.0864	 
330.0	1.0	0.0	7.56657	7.12448	-11.09982	19.98065	18.8683	1.04162	0.96004	170.13928	147.07992	65.0776	0.3072	 	1.59304E18	 	1.84793E-18	 	11393.411	29.998	 
325.0	1.0	0.0	7.5689	7.1223	-11.12712	19.96614	18.80106	1.03668	0.96462	170.51712	147.25949	65.23173	0.30701	 	2.45666E18	 	1.18837E-18	 	11243.857	29.9108	 
320.0	1.0	0.0	7.57122	7.12011	-11.15439	19.95165	18.73381	1.03171	0.96927	170.89406	147.43793	65.38556	0.30682	 	3.81625E18	 	7.58603E-19	 	11094.735	29.8244	 
315.0	1.0	0.0	7.57354	7.11793	-11.18162	19.93718	18.66656	1.0267	0.974	171.27012	147.61525	65.5391	0.30663	 	5.97288E18	 	4.80608E-19	 	10946.041	29.7388	 
310.0	1.0	0.0	7.57586	7.11575	-11.20881	19.92272	18.5993	1.02165	0.97881	171.64528	147.79144	65.69234	0.30643	 	9.42041E18	 	3.02132E-19	 	10797.769	29.6544	 
305.0	1.0	0.0	7.57817	7.11357	-11.23595	19.90829	18.53204	1.01656	0.98371	172.01954	147.96652	65.84528	0.30624	 	1.49755E19	 	1.88428E-19	 	10649.917	29.5704	 
300.0	1.0	0.0	7.58049	7.1114	-11.26306	19.89387	18.46477	1.01144	0.98868	172.39289	148.14047	65.99792	0.30605	 	2.39997E19	 	1.1656E-19	 	10502.481	29.4872	 
295.0	1.0	0.0	7.5828	7.10923	-11.29013	19.87947	18.3975	1.00629	0.99375	172.76534	148.31329	66.15026	0.30586	 	3.87828E19	 	7.15007E-20	 	10355.456	29.405	 
290.0	1.0	0.0	7.58511	7.10707	-11.31717	19.86509	18.33022	1.00109	0.99891	173.13688	148.485	66.30229	0.30566	 	6.32086E19	 	4.34845E-20	 	10208.84	29.3232	 
285.0	1.0	0.0	7.58742	7.1049	-11.34416	19.85072	18.26294	0.99586	1.00416	173.50752	148.65559	66.45402	0.30547	 	1.03924E20	 	2.62133E-20	 	10062.629	29.2422	 
280.0	1.0	0.0	7.58973	7.10274	-11.37111	19.83638	18.19565	0.99059	1.0095	173.87724	148.82506	66.60545	0.30528	 	1.7241E20	 	1.56592E-20	 	9916.821	29.1616	 
275.0	1.0	0.0	7.59204	7.10059	-11.39803	19.82205	18.12835	0.98528	1.01494	174.24604	148.99342	66.75657	0.30509	 	2.8868199999999997E20	 	9.26758E-21	 	9771.411	29.082	 
270.0	1.0	0.0	7.59434	7.09843	-11.4249	19.80774	18.06105	0.97993	1.02048	174.61393	149.16066	66.90739	0.30489	 	4.8797899999999997E20	 	5.43257E-21	 	9626.398	29.0026	 
265.0	1.0	0.0	7.59664	7.09628	-11.45174	19.79345	17.99374	0.97454	1.02613	174.9809	149.32678	67.05789	0.3047	 	8.329549999999999E20	 	3.15332E-21	 	9481.779	28.9238	 
260.0	1.0	0.0	7.59894	7.09413	-11.47854	19.77917	17.92643	0.96911	1.03187	175.34696	149.4918	67.20809	0.30451	 	1.43615E21	 	1.81191E-21	 	9337.551	28.8456	 
255.0	1.0	0.0	7.60124	7.09199	-11.5053	19.76492	17.85911	0.96364	1.03773	175.71209	149.65571	67.35798	0.30432	 	2.50183E21	 	1.03035E-21	 	9193.712	28.7678	 
250.0	1.0	0.0	7.60354	7.08985	-11.53202	19.75068	17.79179	0.95813	1.0437	176.07629	149.81851	67.50756	0.30412	 	4.4048E21	 	5.79678E-22	 	9050.259	28.6906	 
245.0	1.0	0.0	7.60583	7.08771	-11.55871	19.73646	17.72445	0.95258	1.04978	176.43958	149.98021	67.65684	0.30393	 	7.840380000000001E21	 	3.22556E-22	 	8907.191	28.6136	 
240.0	1.0	0.0	7.60812	7.08557	-11.58535	19.72225	17.65711	0.94698	1.05598	176.80194	150.14081	67.8058	0.30374	 	1.41133E22	 	1.7746E-22	 	8764.506	28.537	 
235.0	1.0	0.0	7.61041	7.08344	-11.61196	19.70807	17.58977	0.94135	1.06231	177.16337	150.30031	67.95444	0.30355	 	2.5700899999999997E22	 	9.65007E-23	 	8622.202	28.4608	 
230.0	1.0	0.0	7.6127	7.08131	-11.63853	19.6939	17.52242	0.93567	1.06876	177.52388	150.45871	68.10278	0.30335	 	4.7363299999999995E22	 	5.18493E-23	 	8480.276	28.3852	 
225.0	1.0	0.0	7.61499	7.07919	-11.66506	19.67975	17.45506	0.92994	1.07533	177.88346	150.61602	68.25081	0.30316	 	8.83621E22	 	2.75157E-23	 	8338.728	28.3096	 
220.0	1.0	0.0	7.61727	7.07706	-11.69156	19.66562	17.38769	0.92418	1.08204	178.24212	150.77224	68.39853	0.30297	 	1.6694899999999998E23	 	1.44172E-23	 	8197.557	28.2342	 
215.0	1.0	0.0	7.61956	7.07494	-11.71801	19.65151	17.32032	0.91836	1.08889	178.59986	150.92738	68.54593	0.30278	 	3.1956799999999995E23	 	7.45551E-24	 	8056.76	28.1594	 
210.0	1.0	0.0	7.62184	7.07282	-11.74443	19.63741	17.25294	0.91251	1.09588	178.95667	151.08143	68.69302	0.30258	 	6.199829999999999E23	 	3.80355E-24	 	7916.336	28.0848	 
205.0	1.0	0.0	7.62411	7.07071	-11.77081	19.62333	17.18555	0.90661	1.10302	179.31255	151.23441	68.83981	0.30239	 	1.2196000000000002E24	 	1.91352E-24	 	7776.285	28.0102	 
200.0	1.0	0.0	7.62639	7.0686	-11.79715	19.60927	17.11815	0.90066	1.1103	179.66752	151.38631	68.98628	0.3022	 	2.43369E24	 	9.48899E-25	 	7636.605	27.936	 
195.0	1.0	0.0	7.62867	7.06649	-11.82346	19.59523	17.05075	0.89466	1.11774	180.02157	151.53714	69.13244	0.30201	 	4.92861E24	 	4.63604E-25	 	7497.295	27.862	 
190.0	1.0	0.0	7.63094	7.06439	-11.84972	19.58121	16.98334	0.88862	1.12534	180.3747	151.68692	69.27829	0.30181	 	1.01345E25	 	2.23052E-25	 	7358.355	27.788	 
185.0	1.0	0.0	7.63321	7.06228	-11.87595	19.5672	16.91592	0.88253	1.13311	180.72692	151.83563	69.42384	0.30162	 	2.1169600000000002E25	 	1.05629E-25	 	7219.784	27.7142	 
180.0	1.0	0.0	7.63548	7.06019	-11.90215	19.55321	16.84849	0.87639	1.14104	181.07822	151.98329	69.56908	0.30143	 	4.494530000000001E25	 	4.9209E-26	 	7081.582	27.6404	 
175.0	1.0	0.0	7.63775	7.05809	-11.9283	19.53924	16.78106	0.87021	1.14915	181.42862	152.12991	69.71401	0.30123	 	9.704060000000001E25	 	2.25402E-26	 	6943.748	27.5668	 
170.0	1.0	0.0	7.64001	7.056	-11.95442	19.52529	16.71361	0.86397	1.15745	181.77812	152.27548	69.85864	0.30104	 	2.1319000000000002E26	 	1.01455E-26	 	6806.281	27.4934	 
165.0	1.0	0.0	7.64228	7.05391	-11.9805	19.51136	16.64616	0.85768	1.16593	182.12671	152.42003	70.00297	0.30085	 	4.768490000000001E26	 	4.48465E-27	 	6669.182	27.4198	 
160.0	1.0	0.0	7.64454	7.05182	-12.00654	19.49744	16.5787	0.85134	1.17461	182.47441	152.56354	70.14699	0.30066	 	1.0865899999999999E27	 	1.94562E-27	 	6532.451	27.3462	 
155.0	1.0	0.0	7.6468	7.04973	-12.03255	19.48354	16.51124	0.84496	1.18349	182.82123	152.70604	70.29072	0.30046	 	2.52411E27	 	8.27892E-28	 	6396.087	27.2728	 
150.0	1.0	0.0	7.64906	7.04765	-12.05852	19.46966	16.44376	0.83852	1.19258	183.16716	152.84753	70.43415	0.30027	 	5.981379999999999E27	 	3.45286E-28	 	6260.09	27.1994	 
145.0	1.0	0.0	7.65131	7.04558	-12.08445	19.4558	16.37627	0.83202	1.20189	183.51222	152.98802	70.57728	0.30008	 	1.44696E28	 	1.41047E-28	 	6124.462	27.1256	 
140.0	1.0	0.0	7.65357	7.0435	-12.11035	19.44195	16.30878	0.82548	1.21142	183.85641	153.12752	70.72012	0.29989	 	3.57599E28	 	5.63895E-29	 	5989.202	27.052	 
135.0	1.0	0.0	7.65582	7.04143	-12.13621	19.42813	16.24127	0.81887	1.22119	184.19974	153.26603	70.86268	0.29969	 	9.03576E28	 	2.20466E-29	 	5854.311	26.9782	 
130.0	1.0	0.0	7.65807	7.03936	-12.16203	19.41432	16.17376	0.81222	1.23119	184.54222	153.40358	71.00495	0.2995	 	2.3362500000000003E29	 	8.42237E-30	 	5719.789	26.9044	 
125.0	1.0	0.0	7.66032	7.03729	-12.18781	19.40053	16.10624	0.80551	1.24145	184.88387	153.54016	71.14694	0.29931	 	6.186370000000001E29	 	3.14121E-30	 	5585.638	26.8302	 
120.0	1.0	0.0	7.66257	7.03523	-12.21356	19.38675	16.03871	0.79874	1.25197	185.22468	153.6758	71.28866	0.29912	 	1.67923E30	 	1.14271E-30	 	5451.857	26.7562	 
115.0	1.0	0.0	7.66481	7.03317	-12.23927	19.373	15.97116	0.79192	1.26276	185.56468	153.8105	71.4301	0.29892	 	4.67689E30	 	4.05069E-31	 	5318.449	26.6816	 
110.0	1.0	0.0	7.66706	7.03111	-12.26495	19.35926	15.90361	0.78504	1.27382	185.90387	153.94428	71.57127	0.29873	 	1.3378699999999998E31	 	1.39778E-31	 	5185.413	26.6072	 
105.0	1.0	0.0	7.6693	7.02906	-12.29059	19.34554	15.83605	0.7781	1.28518	186.24228	154.07715	71.71218	0.29854	 	3.935E31	 	4.69036E-32	 	5052.752	26.5322	 
100.0	1.0	0.0	7.67154	7.027	-12.31619	19.33184	15.76848	0.7711	1.29685	186.57991	154.20913	71.85284	0.29835	 	1.19132E32	 	1.52876E-32	 	4920.466	26.4572	 
95.0	1.0	0.0	7.67377	7.02495	-12.34176	19.31816	15.7009	0.76404	1.30883	186.91679	154.34023	71.99324	0.29816	 	3.71692E32	 	4.83424E-33	 	4788.557	26.3818	 
90.0	1.0	0.0	7.67601	7.02291	-12.36729	19.30449	15.6333	0.75693	1.32113	187.25292	154.47047	72.13341	0.29796	 	1.1965900000000001E33	 	1.48125E-33	 	4657.027	26.306	 
85.0	1.0	0.0	7.67824	7.02087	-12.39279	19.29084	15.5657	0.74975	1.33379	187.58834	154.59987	72.27333	0.29777	 	3.98E33	 	4.39207E-34	 	4525.876	26.2302	 
80.0	1.0	0.0	7.68047	7.01883	-12.41824	19.27721	15.49809	0.7425	1.34679	187.92306	154.72846	72.41303	0.29758	 	1.3696200000000002E34	 	1.25848E-34	 	4395.107	26.1538	 
75.0	1.0	0.0	7.6827	7.01679	-12.44367	19.2636	15.43046	0.7352	1.36018	188.2571	154.85624	72.55251	0.29739	 	4.88355E34	 	3.4795E-35	 	4264.72	26.0774	 
70.0	1.0	0.0	7.68493	7.01475	-12.46905	19.25001	15.36283	0.72783	1.37395	188.59048	154.98324	72.69178	0.29719	 	1.80701E35	 	9.26851E-36	 	4134.718	26.0004	 
65.0	1.0	0.0	7.68716	7.01272	-12.49441	19.23643	15.29518	0.7204	1.38812	188.92325	155.10949	72.83085	0.297	 	6.95008E35	 	2.37469E-36	 	4005.103	25.923	 
60.0	1.0	0.0	7.68938	7.01069	-12.51972	19.22287	15.22752	0.7129	1.40272	189.25541	155.23502	72.96973	0.29681	 	2.78343E36	 	5.8418E-37	 	3875.875	25.8456	 
55.0	1.0	0.0	7.69161	7.00867	-12.545	19.20933	15.15985	0.70533	1.41777	189.58701	155.35984	73.10844	0.29662	 	1.16287E37	 	1.37729E-37	 	3747.037	25.7676	 
50.0	1.0	0.0	7.69383	7.00664	-12.57025	19.19581	15.09217	0.6977	1.43328	189.91808	155.48399	73.24697	0.29642	 	5.0781E37	 	3.10591E-38	 	3618.59	25.6894	 
45.0	1.0	0.0	7.69605	7.00462	-12.59545	19.1823	15.02447	0.69	1.44927	190.24865	155.6075	73.38536	0.29623	 	2.32269E38	 	6.68539E-39	 	3490.535	25.611	 
40.0	1.0	0.0	7.69826	7.00261	-12.62063	19.16882	14.95676	0.68223	1.46578	190.57876	155.7304	73.52362	0.29604	 	1.11524E39	 	1.37048E-39	 	3362.873	25.5324	 
35.0	1.0	0.0	7.70048	7.00059	-12.64577	19.15535	14.88904	0.67439	1.48281	190.90845	155.85273	73.66175	0.29585	 	5.634500000000001E39	 	2.66927E-40	 	3235.606	25.4534	 
30.0	1.0	0.0	7.70269	6.99858	-12.67087	19.1419	14.82131	0.66648	1.50041	191.23777	155.97453	73.79978	0.29565	 	3.00296E40	 	4.92714E-41	 	3108.732	25.3748	 
25.0	1.0	0.0	7.7049	6.99657	-12.69594	 	14.75356	0.6585	1.5186	191.56677	156.09584	73.93772	0.29546	 	1.6928400000000002E41	 	8.59617E-42	 	2982.253	 	 
