T (C)	Fraction solid (wt)-TOTAL	Fraction liquid (wt)-LIQUID	Density (g/(cm)^3)-TOTAL	Molar volume (cm^3)-TOTAL	Volume change (%)-  	Average expansion coeff. (10e-6 1/K)-  	Thermal conductivity (W/(m*K))-TOTAL	Electrical resistivity (10e-6 Ohm*m)-TOTAL	Electrical conductivity (10e6 1/(Ohm*m))-TOTAL	Young's modulus (GPa)-TOTAL	Bulk modulus (GPa)-TOTAL	Shear modulus(GPa)-TOTAL	Poisson's ratio-TOTAL	Liquid viscosity (mPa s)-  	Total viscosity (mPa s)-  	Liquid diffusivity (10e-9 (m^2)/s)-  	Total diffusivity (10e-9 (m^2)/s)-  	Surface Tension (mN/m)-  	Enthalpy (J/mole)-TOTAL	Specific heat (J/(mole K))-TOTAL	Latent heat (J/mole)-TOTAL
1500.0	0.0	1.0	6.94413	7.83188	0.0	24.05325	31.9663	1.80747	0.55326	0.0	103.34155	0.0	0.49974	6.77334	6.77334	1.2777	1.2777	1806.12586	65960.674	 	0.0
1495.0	0.0	1.0	6.94795	7.82757	-0.0550329	23.99699	31.89261	1.80654	0.55355	0.0	103.52848	0.0	0.49974	6.83162	6.83162	1.26323	1.26323	1808.07338	65738.545	44.4258	0.0
1490.0	0.0	1.0	6.95177	7.82327	-0.10991	23.94074	31.81893	1.8056	0.55383	0.0	103.7154	0.0	0.49974	6.89074	6.89074	1.24885	1.24885	1810.01815	65516.991	44.3108	0.0
1485.0	0.0	1.0	6.95558	7.81898	-0.16463	23.88449	31.74524	1.80466	0.55412	0.0	103.90233	0.0	0.49974	6.95071	6.95071	1.23456	1.23456	1811.96016	65296.009	44.1964	0.0
1480.0	0.0	1.0	6.95938	7.81471	-0.2192	23.82825	31.67155	1.80371	0.55441	0.0	104.08926	0.0	0.49974	7.01155	7.01155	1.22037	1.22037	1813.89936	65075.595	44.0828	0.0
1478.02	0.0	1.0	6.96089	7.81302	-0.24076	23.80599	31.64239	1.80334	0.55453	0.0	104.16325	0.0	0.49974	7.03588	7.03588	1.21478	1.21478	1814.66619	64988.495	44.0077	0.0080
1475.0	0.13219	0.86781	6.98365	7.78752	-0.56643	23.02722	31.92327	1.78439	0.56042	0.0143175	98.15347	0.00483578	0.48037	7.04002	9.10379	1.21197	0.93722	1813.7123	63609.047	456.65	1246.694
1470.0	0.29608	0.70392	7.01274	7.7554	-0.97649	22.0603	32.26651	1.76036	0.56807	0.36922	90.76527	0.12678	0.45612	7.04785	30.01834	1.20716	0.28342	1812.3832	61854.297	350.95	2782.156
1465.0	0.41436	0.58564	7.03469	7.73154	-1.28115	21.35661	32.50585	1.74238	0.57393	1.44508	85.5218	0.50231	0.43843	7.05646	91.01457	1.20223	0.0932101	1811.27324	60539.117	263.036	3878.603
1460.0	0.50327	0.49673	7.05201	7.71301	-1.51774	20.82295	32.67644	1.7283	0.5786	3.20007	81.67195	1.12282	0.42501	7.06544	193.29551	1.19725	0.0437624	1810.34157	59506.814	206.461	4692.724
1455.0	0.57225	0.42775	7.06615	7.69812	-1.70786	20.40541	32.79888	1.71688	0.58245	5.43315	78.77502	1.92052	0.4145	7.07508	329.2667	1.19217	0.0256165	1809.55786	58666.261	168.111	5315.644
1450.0	0.62712	0.37288	7.07803	7.68579	-1.8653	20.06955	32.88633	1.70736	0.5857	7.94747	76.55772	2.82613	0.40607	7.08498	490.62328	1.18706	0.017142	1808.90012	57960.976	141.057	5803.847
1445.0	0.67164	0.32836	7.0882	7.67539	-1.99815	19.79517	32.94762	1.69924	0.5885	10.59444	74.84069	3.78597	0.39917	7.09567	670.82275	1.18183	0.0125009	1808.34838	57354.445	121.306	6193.853
1440.0	0.70834	0.29166	7.09711	7.66636	-2.11332	19.56492	32.98867	1.69219	0.59095	13.27034	73.50319	4.76175	0.39343	7.10653	865.06492	1.17659	0.0096657	1807.89178	56822.166	106.456	6510.156
1435.0	0.73902	0.26098	7.10501	7.65844	-2.21453	19.36956	33.01389	1.68596	0.59313	15.90915	72.45968	5.72854	0.38859	7.11783	1070.23722	1.17129	0.00778991	1807.5184	56346.838	95.0656	6770.057
1430.0	0.76494	0.23506	7.11211	7.65143	-2.30399	19.20367	33.02676	1.68037	0.59511	18.46941	71.64972	6.67028	0.38446	7.12958	1284.34906	1.16594	0.00647227	1807.21528	55916.026	86.1624	6985.986
1425.0	0.78709	0.21291	7.11857	7.64511	-2.38472	19.05957	33.02946	1.6753	0.59691	20.92899	71.02618	7.57807	0.38089	7.14167	1506.29723	1.16055	0.0055024	1806.97816	55520.579	79.0894	7167.09
1420.0	0.80615	0.19385	7.12452	7.63932	-2.45858	18.93262	33.02387	1.67065	0.59857	23.2774	70.55422	8.44738	0.37779	7.15388	1735.60454	1.15516	0.00476136	1806.80093	55153.624	73.391	7320.239
1415.0	0.8227	0.1773	7.13001	7.63403	-2.52617	18.82139	33.01156	1.66634	0.60012	25.51086	70.20754	9.27624	0.37506	7.16668	1972.21951	1.14969	0.00417775	1806.67447	54809.904	68.744	7450.685
1410.0	0.83714	0.16286	7.13513	7.6291	-2.58908	18.7218	32.99348	1.66231	0.60157	27.6276	69.96589	10.06353	0.37266	7.17954	2216.08783	1.14423	0.003707	1806.59822	54485.338	64.9132	7562.506
1405.0	0.84984	0.15016	7.13994	7.62451	-2.6477	18.63299	32.9707	1.65852	0.60295	29.63525	69.81176	10.81171	0.37052	7.19302	2467.95468	1.13869	0.00331879	1806.56405	54176.717	61.7242	7658.908
1400.0	0.86107	0.13893	7.14448	7.62019	-2.70284	18.55285	32.94395	1.65492	0.60426	31.53855	69.73228	11.5222	0.3686	7.2065	2728.32793	1.13318	0.00299313	1806.56996	53881.323	59.0788	7742.603
1395.0	0.87104	0.12896	7.14878	7.61612	-2.75484	18.48056	32.91378	1.65149	0.60552	33.34244	69.717	12.19661	0.36687	7.2206	2997.81074	1.12758	0.00271592	1806.61049	53597.286	56.8074	7815.459
1390.0	0.87991	0.12009	7.15289	7.61224	-2.80441	18.41431	32.88064	1.6482	0.60672	35.05277	69.75724	12.8369	0.36531	7.23471	3277.08344	1.12201	0.00247703	1806.68608	53322.917	54.8738	7879.16
1385.0	0.88786	0.11214	7.15681	7.60852	-2.85188	18.35329	32.84492	1.64503	0.60789	36.67662	69.84549	13.44555	0.36389	7.24908	3567.03997	1.11642	0.00226883	1806.7938	53056.832	53.217	7935.089
1380.0	0.89498	0.10502	7.16058	7.60495	-2.89745	18.29697	32.80701	1.64196	0.60903	38.2218	69.97554	14.02532	0.3626	7.26376	3868.75154	1.1108	0.00208559	1806.93037	52797.884	51.7896	7984.39
1375.0	0.90139	0.0986114	7.16419	7.60151	-2.94137	18.24477	32.76713	1.63899	0.61013	39.69061	70.14304	14.57697	0.36142	7.27867	4182.8303	1.10518	0.00192315	1807.09428	52545.116	50.5536	8028.013
1370.0	0.90718	0.0928193	7.16769	7.5982	-2.9837	18.1965	32.72563	1.63609	0.61121	41.09295	70.34304	15.10409	0.36033	7.29391	4510.76751	1.09952	0.00177793	1807.28114	52297.729	49.4774	8066.758
1368.71	0.90881	0.0911888	7.16866	7.59733	-2.99478	18.1835	32.71519	1.63533	0.6115	41.48803	70.39013	15.25271	0.36002	7.2979	4602.30803	1.09806	0.0017412	1807.33197	52233.185	 	8077.722
1368.71	0.90881	0.0911888	7.16866	7.59733	-2.99478	18.1835	32.71519	1.63533	0.6115	41.48803	70.39013	15.25271	0.36002	7.2979	4602.30805	1.09806	0.0017412	1807.33197	52233.185	 	8077.722
1365.0	0.91368	0.0863217	7.17127	7.59467	-3.02876	18.1404	32.68359	1.63321	0.61229	42.73136	70.64486	15.71939	0.35919	7.3043	4897.20593	1.09462	0.00163265	1807.2194	52031.799	53.186	8124.543
1360.0	0.91968	0.0803236	7.17468	7.59122	-3.07275	18.08679	32.63985	1.63041	0.61334	44.33747	71.00304	16.32271	0.35815	7.31341	5309.90229	1.08992	0.00150116	1807.0969	51767.124	52.935	8181.568
1355.0	0.9251	0.0748988	7.178	7.58787	-3.11552	18.03619	32.59473	1.62766	0.61438	45.87048	71.3763	16.89906	0.35719	7.3225	5741.81732	1.08523	0.00138399	1807.01339	51509.092	51.6064	8232.442
1350.0	0.93002	0.069976	7.18125	7.58461	-3.15714	17.98842	32.54844	1.62497	0.61539	47.33635	71.7631	17.4506	0.3563	7.33161	6194.58273	1.08055	0.00127889	1806.96508	51256.902	50.438	8277.961
1345.0	0.9345	0.0654972	7.18442	7.58145	-3.19753	17.9437	32.50116	1.62232	0.6164	48.74054	72.16208	17.97929	0.35546	7.34108	6669.97321	1.07583	0.00118408	1806.94462	51009.876	49.4052	8318.802
1340.0	0.93859	0.0614103	7.18752	7.57837	-3.23692	17.90143	32.45297	1.61971	0.61739	50.08863	72.57186	18.48719	0.35468	7.35093	7169.86923	1.07107	0.00109812	1806.95179	50767.438	48.4876	8355.537
1337.46	0.94053	0.0594668	7.18907	7.57682	-3.25663	17.88069	32.42819	1.6184	0.61789	50.75408	72.7837	18.73802	0.35431	7.35597	7433.91054	1.06865	0.00105745	1806.96449	50645.887	 	8372.815
1335.0	0.9428	0.0572032	7.19087	7.57505	-3.27924	17.85064	32.40495	1.61709	0.6184	51.50758	72.98487	19.02213	0.35389	7.36205	7714.15336	1.06614	0.00101748	1807.53801	50522.251	49.0374	8395.501
1330.0	0.94706	0.0529398	7.19442	7.57154	-3.32403	17.79245	32.35685	1.61445	0.6194	52.98396	73.40199	19.5791	0.35307	7.37389	8304.11499	1.06112	9.42253E-4	1808.72197	50275.289	49.3924	8437.716
1325.0	0.9509	0.0490967	7.19784	7.56819	-3.36682	17.73946	32.30782	1.61186	0.6204	54.38864	73.82993	20.10935	0.35232	7.38636	8923.45632	1.05602	8.7412E-4	1809.91262	50033.582	48.3414	8475.15
1320.0	0.95438	0.0456209	7.20114	7.56496	-3.40809	17.69044	32.25794	1.6093	0.62139	55.72875	74.26729	20.61552	0.35162	7.39893	9574.72659	1.05093	8.12114E-4	1811.11593	49796.496	47.4172	8508.432
1315.0	0.95753	0.0424712	7.20435	7.56184	-3.44794	17.64506	32.20729	1.60678	0.62236	57.00992	74.71314	21.09968	0.35097	7.41201	10260.56516	1.04578	7.55452E-4	1812.32774	49563.495	46.6002	8538.097
1310.0	0.96039	0.0396099	7.20747	7.55881	-3.48665	17.60262	32.15596	1.60427	0.62334	58.23859	75.1665	21.56423	0.35035	7.42539	10983.98585	1.04061	7.03475E-4	1813.55113	49334.121	45.8748	8564.599
1305.0	0.963	0.037004	7.21052	7.55586	-3.52434	17.56277	32.10404	1.60179	0.6243	59.41906	75.62667	22.01077	0.34977	7.43911	11747.91715	1.03541	6.55653E-4	1814.78454	49107.983	45.2276	8588.328
1300.0	0.96538	0.0346249	7.21349	7.55299	-3.56091	17.52587	32.05162	1.59933	0.62526	60.5557	76.09324	22.44089	0.34923	7.45408	12555.71369	1.03006	6.11527E-4	1816.01499	48884.74	44.6486	8609.621
1295.0	0.96755	0.0324509	7.2164	7.55018	-3.59676	17.49076	31.9987	1.59688	0.62622	61.6531	76.5653	22.85634	0.34871	7.46957	13410.80551	1.02466	5.70715E-4	1817.25622	48664.098	44.1284	8628.768
1290.0	0.96954	0.0304584	7.21926	7.54744	-3.63185	17.45759	31.94537	1.59445	0.62718	62.71466	77.04256	23.25836	0.34822	7.48587	14316.9301	1.01917	5.3289E-4	1818.50039	48445.8	43.6596	8646.025
1285.0	0.97137	0.028629	7.22207	7.54474	-3.66624	17.4262	31.89167	1.59202	0.62813	63.74359	77.5246	23.64816	0.34775	7.50328	15278.04958	1.01355	4.97769E-4	1819.74469	48229.622	43.2356	8661.613
1280.0	0.97305	0.0269461	7.22483	7.5421	-3.70003	17.39634	31.83764	1.58961	0.62909	64.7429	78.01101	24.02687	0.3473	7.52198	16298.43419	1.00778	4.65108E-4	1820.98894	48015.364	42.8516	8675.729
1275.0	0.9746	0.0253954	7.22756	7.53949	-3.73332	17.36769	31.7833	1.5872	0.63004	65.71598	78.50138	24.39574	0.34687	7.54172	17382.80601	1.00191	4.3469E-4	1822.23616	47802.852	42.5024	8688.544
1270.0	0.97604	0.0239634	7.23025	7.53692	-3.76613	17.34026	31.72869	1.5848	0.631	66.66472	78.99548	24.7555	0.34646	7.56288	18535.98593	0.99588	4.0633E-4	1823.48169	47591.931	42.1842	8700.211
1265.0	0.97736	0.0226388	7.2329	7.53438	-3.79852	17.31383	31.67384	1.5824	0.63195	67.59194	79.49297	25.1072	0.34607	7.58525	19763.43225	0.98973	3.7986E-4	1824.72681	47382.462	41.8938	8710.866
1262.05	0.97807	0.021932	7.23444	7.5329	-3.81739	17.29885	31.64138	1.58098	0.63252	68.12011	79.78797	25.30757	0.34584	7.5993	20521.55491	0.986	3.65125E-4	1825.45892	47259.781	 	8716.5
1260.0	0.98077	0.0192272	7.23615	7.53112	-3.84021	17.25942	31.61967	1.57996	0.63293	69.23824	80.00815	25.73399	0.34527	7.6801	21294.96121	0.97433	3.51394E-4	1825.22786	47139.215	48.6494	8755.737
1256.74	0.98432	0.015684	7.23872	7.52844	-3.87444	17.20264	31.58497	1.57833	0.63358	70.7917	80.35656	26.32663	0.34449	7.81158	22505.79413	0.95589	3.31781E-4	1824.83241	46958.892	 	8806.877
1256.74	0.98432	0.015684	7.23872	7.52844	-3.87444	17.20266	31.58497	1.57833	0.63358	70.79171	80.35659	26.32664	0.34449	7.81159	22505.863	0.95589	3.3178E-4	1824.8318	46958.878	 	8806.881
1255.0	0.98591	0.0140921	7.24001	7.52707	-3.89185	17.17475	31.56621	1.57747	0.63393	71.53059	80.54164	26.60859	0.34413	7.88526	23147.37398	0.94588	3.22219E-4	1825.06051	46867.01	54.441	8829.997
1250.0	0.98963	0.0103687	7.24356	7.52333	-3.93963	17.101	31.51216	1.57501	0.63492	73.39437	81.07231	27.31996	0.34324	8.10253	25001.17587	0.91751	2.97351E-4	1825.55862	46615.769	50.2482	8883.73
1245.0	0.99236	0.00763994	7.24689	7.5198	-3.98465	17.03499	31.45784	1.57255	0.63591	74.94586	81.60074	27.91221	0.34253	8.32549	26886.56242	0.89	2.75592E-4	1825.942	46379.738	47.2062	8922.683
1240.0	0.99443	0.00556878	7.25006	7.51643	-4.0278	16.97411	31.40335	1.57009	0.63691	76.28788	82.12813	28.42451	0.34194	8.55303	28835.78907	0.86347	2.56116E-4	1826.24547	46153.832	45.1812	8951.94
1235.0	0.99605	0.0039503	7.25314	7.51316	-4.06955	16.91699	31.34873	1.56763	0.63791	77.48337	82.65523	28.88087	0.34143	8.78542	30872.50024	0.83785	2.38429E-4	1826.47574	45934.992	43.768	8974.561
1230.0	0.99734	0.00265719	7.25613	7.50997	-4.11025	16.86262	31.29396	1.56516	0.63891	78.57344	83.18246	29.29697	0.34098	9.02147	33015.97698	0.81323	2.22211E-4	1826.66138	45721.276	42.7432	8992.487
1225.0	0.9984	0.00160453	7.25907	7.50685	-4.15011	16.81036	31.23917	1.56269	0.63992	79.58595	83.71006	29.68345	0.34058	9.26055	35283.22803	0.7896	2.0724E-4	1826.81961	45511.396	41.976	9007.001
1220.0	0.99927	7.32128E-4	7.26195	7.50378	-4.18926	16.75988	31.18432	1.56022	0.64094	80.53936	84.23828	30.04737	0.34021	9.50292	37689.77975	0.76689	1.9336E-4	1826.95426	45304.469	41.3854	9018.984
1215.0	1.0	0.0	7.2648	7.50076	-4.22779	16.71088	31.12942	1.55773	0.64196	81.44743	84.76722	30.39399	0.33986	 	40251.1208	 	1.80449E-4	 	45099.864	40.921	9029.065
1210.0	1.0	0.0	7.26696	7.49853	-4.25628	16.69273	31.07236	1.55535	0.64294	82.05574	85.2951	30.62552	0.33966	 	42852.72703	 	1.68925E-4	 	44885.916	42.7896	 
1205.0	1.0	0.0	7.26912	7.4963	-4.28472	16.67458	31.0153	1.55296	0.64393	82.66638	85.82409	30.85797	0.33947	 	45642.31093	 	1.58066E-4	 	44692.581	38.667	 
1200.0	1.0	0.0	7.27127	7.49408	-4.3131	16.65643	30.95823	1.55056	0.64493	83.2793	86.35415	31.09135	0.33927	 	48634.83634	 	1.47838E-4	 	44499.452	38.6258	 
1195.0	1.0	0.0	7.27343	7.49186	-4.34144	16.63828	30.90117	1.54815	0.64593	83.89447	86.88523	31.32564	0.33907	 	51846.56557	 	1.38209E-4	 	44306.532	38.584	 
1190.0	1.0	0.0	7.27558	7.48965	-4.36973	16.62013	30.84411	1.54573	0.64694	84.51184	87.4173	31.56082	0.33887	 	55295.18111	 	1.29148E-4	 	44113.819	38.5426	 
1185.0	1.0	0.0	7.27773	7.48743	-4.39797	16.60199	30.78704	1.54331	0.64796	85.13137	87.9503	31.79687	0.33868	 	58999.91976	 	1.20625E-4	 	43921.31	38.5018	 
1180.0	1.0	0.0	7.27987	7.48523	-4.42616	16.58384	30.72998	1.54087	0.64898	85.75304	88.48418	32.03379	0.33848	 	62981.72029	 	1.12611E-4	 	43729.003	38.4614	 
1175.0	1.0	0.0	7.28202	7.48302	-4.4543	16.56569	30.67292	1.53842	0.65002	86.37679	89.01892	32.27157	0.33828	 	67263.38613	 	1.0508E-4	 	43536.895	38.4216	 
1170.0	1.0	0.0	7.28416	7.48082	-4.4824	16.54754	30.61585	1.53597	0.65105	87.00258	89.55446	32.51017	0.33808	 	71869.76484	 	9.80058E-5	 	43344.984	38.3822	 
1165.0	1.0	0.0	7.2863	7.47863	-4.51044	16.5294	30.55879	1.53351	0.6521	87.63039	90.09076	32.7496	0.33788	 	76827.94605	 	9.13633E-5	 	43153.266	38.3436	 
1160.0	1.0	0.0	7.28844	7.47643	-4.53843	16.51125	30.50173	1.53103	0.65315	88.26017	90.62778	32.98983	0.33769	 	82167.48001	 	8.51292E-5	 	42961.74	38.3052	 
1155.0	1.0	0.0	7.29057	7.47424	-4.56638	16.49311	30.44466	1.52855	0.65421	88.89188	91.16547	33.23086	0.33749	 	87920.61904	 	7.92811E-5	 	42770.402	38.2676	 
1150.0	1.0	0.0	7.2927	7.47206	-4.59427	16.47496	30.3876	1.52606	0.65528	89.52548	91.70379	33.47267	0.33729	 	94122.58429	 	7.37978E-5	 	42579.25	38.2304	 
1145.0	1.0	0.0	7.29483	7.46988	-4.62211	16.45682	30.33054	1.52356	0.65636	90.16093	92.24271	33.71524	0.33709	 	100811.8609	 	6.8659E-5	 	42388.28	38.194	 
1140.0	1.0	0.0	7.29696	7.4677	-4.64991	16.43868	30.27347	1.52105	0.65744	90.7982	92.78217	33.95856	0.3369	 	108030.5246	 	6.38452E-5	 	42197.49	38.158	 
1135.0	1.0	0.0	7.29908	7.46553	-4.67766	16.42053	30.21641	1.51853	0.65853	91.43724	93.32214	34.20261	0.3367	 	115824.6033	 	5.93383E-5	 	42006.877	38.1226	 
1130.0	1.0	0.0	7.3012	7.46336	-4.70535	16.40239	30.15935	1.516	0.65963	92.07802	93.86258	34.44739	0.3365	 	124244.4779	 	5.51206E-5	 	41816.438	38.0878	 
1125.0	1.0	0.0	7.30332	7.46119	-4.733	16.38425	30.10228	1.51346	0.66074	92.7205	94.40344	34.69288	0.3363	 	133345.3264	 	5.11756E-5	 	41626.17	38.0536	 
1120.0	1.0	0.0	7.30544	7.45903	-4.7606	16.36611	30.04522	1.51092	0.66185	93.36464	94.94469	34.93906	0.33611	 	143187.617	 	4.74875E-5	 	41436.068	38.0204	 
1115.0	1.0	0.0	7.30755	7.45688	-4.78815	16.34797	29.98815	1.50836	0.66297	94.01039	95.48628	35.18592	0.33591	 	153837.6555	 	4.40413E-5	 	41246.131	37.9874	 
1110.0	1.0	0.0	7.30966	7.45472	-4.81565	16.32983	29.93109	1.50579	0.6641	94.65773	96.02817	35.43344	0.33571	 	165368.1929	 	4.08229E-5	 	41056.354	37.9554	 
1105.0	1.0	0.0	7.31177	7.45257	-4.8431	16.31169	29.87403	1.50321	0.66524	95.30662	96.57032	35.68162	0.33551	 	177859.1015	 	3.78187E-5	 	40866.735	37.9238	 
1100.0	1.0	0.0	7.31388	7.45043	-4.8705	16.29356	29.81696	1.50063	0.66639	95.957	97.1127	35.93043	0.33532	 	191398.1269	 	3.5016E-5	 	40677.269	37.8932	 
1095.0	1.0	0.0	7.31598	7.44828	-4.89785	16.27542	29.7599	1.49803	0.66754	96.60886	97.65526	36.17986	0.33512	 	206081.7245	 	3.24027E-5	 	40487.953	37.8632	 
1090.0	1.0	0.0	7.31808	7.44615	-4.92515	16.25728	29.70284	1.49542	0.66871	97.26214	98.19797	36.42991	0.33492	 	222015.9924	 	2.99672E-5	 	40298.783	37.834	 
1085.0	1.0	0.0	7.32018	7.44401	-4.9524	16.23915	29.64578	1.4928	0.66988	97.91682	98.74078	36.68055	0.33472	 	239317.7101	 	2.76987E-5	 	40109.756	37.8054	 
1080.0	1.0	0.0	7.32228	7.44188	-4.97961	16.22101	29.58871	1.49018	0.67106	98.57284	99.28365	36.93176	0.33453	 	258115.4982	 	2.5587E-5	 	39920.867	37.7778	 
1075.0	1.0	0.0	7.32437	7.43975	-5.00676	16.20287	29.53165	1.48754	0.67225	99.23018	99.82655	37.18355	0.33433	 	278551.1124	 	2.36222E-5	 	39732.112	37.751	 
1070.0	1.0	0.0	7.32646	7.43763	-5.03386	16.18474	29.47459	1.48489	0.67345	99.88879	100.36944	37.43589	0.33413	 	300780.8892	 	2.17952E-5	 	39543.488	37.7248	 
1065.0	1.0	0.0	7.32855	7.43551	-5.06092	16.16661	29.41753	1.48223	0.67466	100.54865	100.91228	37.68877	0.33393	 	324977.362	 	2.00973E-5	 	39354.99	37.6996	 
1060.0	1.0	0.0	7.33063	7.4334	-5.08793	16.14847	29.36047	1.47956	0.67587	101.2097	101.45504	37.94217	0.33374	 	351331.0693	 	1.85203E-5	 	39166.613	37.6754	 
1055.0	1.0	0.0	7.33272	7.43129	-5.11488	16.13034	29.30341	1.47688	0.6771	101.87191	101.99767	38.19608	0.33354	 	380052.5789	 	1.70565E-5	 	38978.354	37.6518	 
1050.0	1.0	0.0	7.33479	7.42918	-5.14179	16.11221	29.24636	1.4742	0.67834	102.53524	102.54013	38.45049	0.33334	 	411374.7558	 	1.56985E-5	 	38790.208	37.6292	 
1045.0	1.0	0.0	7.33687	7.42708	-5.16865	16.09408	29.1893	1.4715	0.67958	103.19966	103.0824	38.70538	0.33314	 	445555.305	 	1.44394E-5	 	38602.169	37.6078	 
1040.0	1.0	0.0	7.33895	7.42498	-5.19546	16.07595	29.13225	1.46878	0.68084	103.86513	103.62442	38.96074	0.33295	 	482879.6256	 	1.32728E-5	 	38414.234	37.587	 
1035.0	1.0	0.0	7.34102	7.42288	-5.22222	16.05782	29.07519	1.46606	0.6821	104.5316	104.16618	39.21655	0.33275	 	523664.0147	 	1.21925E-5	 	38226.396	37.5676	 
1030.0	1.0	0.0	7.34309	7.42079	-5.24893	16.03969	29.01814	1.46333	0.68337	105.19905	104.70762	39.4728	0.33255	 	568259.2693	 	1.11927E-5	 	38038.652	37.5488	 
1025.0	1.0	0.0	7.34516	7.4187	-5.27559	16.02156	28.96109	1.46059	0.68466	105.86743	105.24872	39.72948	0.33235	 	617054.7369	 	1.0268E-5	 	37850.995	37.5314	 
1020.0	1.0	0.0	7.34722	7.41662	-5.3022	16.00343	28.90405	1.45783	0.68595	106.53671	105.78943	39.98657	0.33216	 	670482.8753	 	9.41343E-6	 	37663.42	37.515	 
1015.0	1.0	0.0	7.34928	7.41454	-5.32876	15.9853	28.847	1.45507	0.68725	107.20685	106.32972	40.24406	0.33196	 	729024.3901	 	8.62405E-6	 	37475.922	37.4996	 
1010.0	1.0	0.0	7.35134	7.41246	-5.35527	15.96717	28.78996	1.45229	0.68857	107.8778	106.86956	40.50194	0.33176	 	793214.0264	 	7.89539E-6	 	37288.494	37.4856	 
1005.0	1.0	0.0	7.3534	7.41039	-5.38174	15.94905	28.73293	1.4495	0.68989	108.54954	107.4089	40.76019	0.33156	 	863647.1054	 	7.22324E-6	 	37101.132	37.4724	 
1000.0	1.0	0.0	7.35545	7.40832	-5.40815	15.93092	28.6759	1.44671	0.69123	109.22203	107.94772	41.01879	0.33137	 	940986.906	 	6.60363E-6	 	36913.828	37.4608	 
995.0	1.0	0.0	7.3575	7.40625	-5.43451	15.9128	28.61887	1.4439	0.69257	109.89522	108.48598	41.27773	0.33117	 	1025973.01	 	6.03283E-6	 	36726.577	37.4502	 
990.0	1.0	0.0	7.35955	7.40419	-5.46083	15.89467	28.56185	1.44107	0.69393	110.56908	109.02364	41.537	0.33097	 	1119430.74	 	5.50737E-6	 	36539.372	37.441	 
985.0	1.0	0.0	7.36159	7.40214	-5.4871	15.87655	28.50483	1.43824	0.69529	111.24358	109.56067	41.79659	0.33077	 	1222281.852	 	5.02398E-6	 	36352.206	37.4332	 
980.0	1.0	0.0	7.36364	7.40008	-5.51331	15.85842	28.44782	1.4354	0.69667	111.91867	110.09703	42.05648	0.33058	 	1335556.649	 	4.5796E-6	 	36165.072	37.4268	 
975.0	1.0	0.0	7.36568	7.39803	-5.53948	15.8403	28.39082	1.43254	0.69806	112.59431	110.63269	42.31666	0.33038	 	1460407.721	 	4.17138E-6	 	35977.963	37.4218	 
970.0	1.0	0.0	7.36771	7.39599	-5.5656	15.82218	28.33383	1.42967	0.69946	113.27048	111.16762	42.57711	0.33018	 	1598125.549	 	3.79664E-6	 	35790.871	37.4184	 
965.0	1.0	0.0	7.36975	7.39395	-5.59167	15.80406	28.27684	1.42679	0.70087	113.94714	111.70177	42.83781	0.32998	 	1750156.233	 	3.45289E-6	 	35603.79	37.4162	 
960.0	1.0	0.0	7.37178	7.39191	-5.61769	15.78594	28.21987	1.4239	0.7023	114.62424	112.23513	43.09877	0.32979	 	1918121.664	 	3.13781E-6	 	35416.71	37.416	 
955.0	1.0	0.0	7.37381	7.38987	-5.64366	15.76782	28.1629	1.42099	0.70373	115.30174	112.76765	43.35995	0.32959	 	2103842.476	 	2.84921E-6	 	35229.625	37.417	 
950.0	1.0	0.0	7.37583	7.38784	-5.66958	15.7497	28.10595	1.41807	0.70518	115.97962	113.2993	43.62135	0.32939	 	2309364.22	 	2.58508E-6	 	35042.524	37.4202	 
945.0	1.0	0.0	7.37786	7.38582	-5.69545	15.73158	28.04902	1.41514	0.70664	116.65784	113.83005	43.88296	0.32919	 	2536987.203	 	2.34352E-6	 	34855.4	37.4248	 
940.0	1.0	0.0	7.37988	7.38379	-5.72127	15.71346	27.9921	1.4122	0.70811	117.33635	114.35986	44.14475	0.329	 	2789300.573	 	2.12278E-6	 	34668.243	37.4314	 
935.0	1.0	0.0	7.3819	7.38178	-5.74705	15.69534	27.93519	1.40925	0.7096	118.01512	114.8887	44.40672	0.3288	 	3069221.261	 	1.92123E-6	 	34481.044	37.4398	 
930.0	1.0	0.0	7.38391	7.37976	-5.77277	15.67722	27.87831	1.40628	0.7111	118.69412	115.41654	44.66886	0.3286	 	3380038.544	 	1.73734E-6	 	34293.792	37.4504	 
925.0	1.0	0.0	7.38592	7.37775	-5.79844	15.65911	27.82144	1.4033	0.71261	119.3733	115.94335	44.93114	0.3284	 	3725465.072	 	1.5697E-6	 	34106.478	37.4628	 
920.0	1.0	0.0	7.38793	7.37574	-5.82407	15.64099	27.7646	1.4003	0.71413	120.05263	116.46909	45.19355	0.32821	 	4109695.366	 	1.41701E-6	 	33919.092	37.4772	 
915.0	1.0	0.0	7.38994	7.37374	-5.84965	15.62287	27.70778	1.39729	0.71567	120.73207	116.99373	45.45609	0.32801	 	4537472.949	 	1.27804E-6	 	33731.621	37.4942	 
910.0	1.0	0.0	7.39194	7.37174	-5.87517	15.60476	27.65098	1.39427	0.71722	121.41159	117.51725	45.71873	0.32781	 	5014167.459	 	1.15167E-6	 	33544.054	37.5134	 
905.0	1.0	0.0	7.39395	7.36975	-5.90065	15.58664	27.59421	1.39123	0.71879	122.09115	118.0396	45.98146	0.32761	 	5545863.328	 	1.03686E-6	 	33356.38	37.5348	 
900.0	1.0	0.0	7.39594	7.36775	-5.92608	15.56853	27.53748	1.38818	0.72037	122.77071	118.56075	46.24428	0.32742	 	6139461.874	 	9.32631E-7	 	33168.585	37.559	 
895.0	1.0	0.0	7.39794	7.36577	-5.95146	15.55042	27.48077	1.38512	0.72196	123.45023	119.08069	46.50715	0.32722	 	6802798.951	 	8.38104E-7	 	32980.657	37.5856	 
890.0	1.0	0.0	7.39993	7.36378	-5.97679	15.5323	27.4241	1.38204	0.72357	124.12968	119.59936	46.77008	0.32702	 	7544780.684	 	7.52447E-7	 	32792.582	37.615	 
885.0	1.0	0.0	7.40192	7.3618	-6.00207	15.51419	27.36747	1.37895	0.72519	124.80903	120.11675	47.03305	0.32682	 	8375540.251	 	6.74899E-7	 	32604.346	37.6472	 
880.0	1.0	0.0	7.40391	7.35983	-6.0273	15.49608	27.31088	1.37584	0.72683	125.48823	120.63282	47.29604	0.32663	 	9306619.165	 	6.04757E-7	 	32415.934	37.6824	 
875.0	1.0	0.0	7.4059	7.35785	-6.05248	15.47797	27.25433	1.37272	0.72848	126.16725	121.14755	47.55904	0.32643	 	1.035117713E7	 	5.41372E-7	 	32227.331	37.7206	 
870.0	1.0	0.0	7.40788	7.35589	-6.07761	15.45986	27.19782	1.36958	0.73015	126.84605	121.66089	47.82204	0.32623	 	1.152423526E7	 	4.84148E-7	 	32038.519	37.7624	 
865.0	1.0	0.0	7.40986	7.35392	-6.1027	15.44175	27.14136	1.36642	0.73184	127.52459	122.17283	48.08502	0.32603	 	1.284295832E7	 	4.32535E-7	 	31849.481	37.8076	 
860.0	1.0	0.0	7.41183	7.35196	-6.12773	15.42364	27.08496	1.36325	0.73354	128.20285	122.68332	48.34796	0.32583	 	1.432698253E7	 	3.86029E-7	 	31660.201	37.856	 
855.0	1.0	0.0	7.41381	7.35	-6.15272	15.40553	27.0286	1.36007	0.73526	128.88077	123.19235	48.61087	0.32564	 	1.599879696E7	 	3.44165E-7	 	31470.658	37.9086	 
850.0	1.0	0.0	7.41578	7.34805	-6.17765	15.38743	26.97231	1.35687	0.73699	129.55833	123.69987	48.87371	0.32544	 	1.788418752E7	 	3.06517E-7	 	31280.833	37.965	 
845.0	1.0	0.0	7.41774	7.3461	-6.20254	15.36932	26.91607	1.35365	0.73874	130.23549	124.20587	49.13648	0.32524	 	2.001275484E7	 	2.72697E-7	 	31090.704	38.0258	 
840.0	1.0	0.0	7.41971	7.34416	-6.22738	15.35121	26.8599	1.35041	0.74051	130.91221	124.7103	49.39916	0.32504	 	2.241851864E7	 	2.42345E-7	 	30900.251	38.0906	 
835.0	1.0	0.0	7.42167	7.34222	-6.25217	15.33311	26.80379	1.34716	0.7423	131.58846	125.21315	49.66174	0.32485	 	2.514062434E7	 	2.15134E-7	 	30709.448	38.1606	 
830.0	1.0	0.0	7.42363	7.34028	-6.2769	15.315	26.74776	1.34389	0.74411	132.26419	125.71438	49.92421	0.32465	 	2.822417007E7	 	1.90766E-7	 	30518.272	38.2352	 
825.0	1.0	0.0	7.42559	7.33834	-6.30159	15.2969	26.69179	1.34061	0.74593	132.93938	126.21396	50.18655	0.32445	 	3.172117581E7	 	1.68966E-7	 	30326.697	38.315	 
820.0	1.0	0.0	7.42754	7.33641	-6.32624	15.27879	26.6359	1.3373	0.74777	133.61399	126.71187	50.44875	0.32425	 	3.569172075E7	 	1.49485E-7	 	30134.694	38.4006	 
815.0	1.0	0.0	7.42949	7.33449	-6.35083	15.26069	26.58008	1.33398	0.74963	134.28798	127.20808	50.71079	0.32406	 	4.020527976E7	 	1.32097E-7	 	29942.234	38.492	 
810.0	1.0	0.0	7.43144	7.33257	-6.37537	15.24258	26.52435	1.33064	0.75152	134.96131	127.70255	50.97266	0.32386	 	4.534229593E7	 	1.16593E-7	 	29749.285	38.5898	 
805.0	1.0	0.0	7.43338	7.33065	-6.39986	15.22448	26.46869	1.32729	0.75342	135.63395	128.19526	51.23435	0.32366	 	5.119603357E7	 	1.02785E-7	 	29555.816	38.6938	 
800.0	1.0	0.0	7.43532	7.32873	-6.42431	15.20638	26.41312	1.32391	0.75534	136.30586	128.68618	51.49584	0.32346	 	5.787476453E7	 	9.05019E-8	 	29361.789	38.8054	 
795.0	1.0	0.0	7.43726	7.32682	-6.4487	15.18828	26.35764	1.32052	0.75728	136.97701	129.17528	51.75712	0.32327	 	6.55043517E7	 	7.95882E-8	 	29167.167	38.9244	 
790.0	1.0	0.0	7.4392	7.32492	-6.47304	15.17018	26.30224	1.3171	0.75924	137.64736	129.66254	52.01818	0.32307	 	7.423130602E7	 	6.99027E-8	 	28971.909	39.0516	 
785.0	1.0	0.0	7.44113	7.32301	-6.49734	15.15208	26.24694	1.31367	0.76123	138.31687	130.14793	52.279	0.32287	 	8.42264092E7	 	6.13177E-8	 	28775.973	39.1872	 
780.0	1.0	0.0	7.44306	7.32111	-6.52159	15.13398	26.19172	1.31022	0.76323	138.98551	130.63141	52.53957	0.32267	 	9.568901312E7	 	5.37174E-8	 	28579.311	39.3324	 
775.0	1.0	0.0	7.44499	7.31922	-6.54579	15.11588	26.13659	1.30675	0.76526	139.65325	131.11297	52.79987	0.32248	 	1.088521499E8	 	4.69973E-8	 	28381.873	39.4876	 
770.0	1.0	0.0	7.44691	7.31733	-6.56993	15.09778	26.08156	1.30326	0.76731	140.32004	131.59257	53.05989	0.32228	 	1.239886151E8	 	4.10631E-8	 	28183.605	39.6536	 
765.0	1.0	0.0	7.44883	7.31544	-6.59403	15.07969	26.02661	1.29975	0.76938	140.98585	132.0702	53.31962	0.32208	 	1.414182195E8	 	3.58296E-8	 	27984.449	39.8312	 
760.0	1.0	0.0	7.45075	7.31356	-6.61808	15.06159	25.97176	1.29622	0.77147	141.65065	132.54581	53.57905	0.32188	 	1.615164495E8	 	3.122E-8	 	27784.343	40.0212	 
755.0	1.0	0.0	7.45267	7.31168	-6.64208	15.04349	25.917	1.29268	0.77359	142.31439	133.01939	53.83815	0.32169	 	1.847248235E8	 	2.71655E-8	 	27583.218	40.225	 
750.0	1.0	0.0	7.45458	7.3098	-6.66604	15.0254	25.86232	1.28911	0.77573	142.97705	133.49091	54.09692	0.32149	 	2.115632986E8	 	2.3604E-8	 	27381.001	40.4434	 
745.0	1.0	0.0	7.45649	7.30793	-6.68994	15.0073	25.80774	1.28552	0.77789	143.63859	133.96034	54.35535	0.32129	 	2.42645157E8	 	2.04799E-8	 	27177.612	40.6778	 
740.0	1.0	0.0	7.4584	7.30606	-6.71379	14.98921	25.75323	1.28192	0.78008	144.29897	134.42766	54.61341	0.32109	 	2.786948968E8	 	1.77432E-8	 	26972.963	40.9298	 
735.0	1.0	0.0	7.4603	7.3042	-6.7376	14.97111	25.69881	1.27829	0.78229	144.95816	134.89283	54.8711	0.3209	 	3.205697709E8	 	1.53493E-8	 	26766.959	41.2008	 
730.0	1.0	0.0	7.4622	7.30234	-6.76135	14.95302	25.64447	1.27465	0.78453	145.61613	135.35585	55.12841	0.3207	 	3.692857611E8	 	1.32584E-8	 	26559.497	41.4924	 
725.0	1.0	0.0	7.4641	7.30048	-6.78506	14.93493	25.5902	1.27098	0.78679	146.27283	135.81667	55.38531	0.3205	 	4.260489557E8	 	1.14347E-8	 	26350.464	41.8066	 
720.0	1.0	0.0	7.46599	7.29863	-6.80871	14.91684	25.53601	1.2673	0.78908	146.92823	136.27527	55.64179	0.3203	 	4.922935215E8	 	9.8464E-9	 	26139.734	42.146	 
715.0	1.0	0.0	7.46789	7.29678	-6.83232	14.89874	25.48187	1.2636	0.79139	147.5823	136.73163	55.89785	0.32011	 	5.69727737E8	 	8.4653E-9	 	25927.17	42.5128	 
710.0	1.0	0.0	7.46977	7.29493	-6.85588	14.88065	25.4278	1.25988	0.79373	148.235	137.18573	56.15347	0.31991	 	6.603899019E8	 	7.26618E-9	 	25712.623	42.9094	 
705.0	1.0	0.0	7.47166	7.29309	-6.87939	14.86256	25.37379	1.25614	0.79609	148.88629	137.63753	56.40863	0.31971	 	7.667163634E8	 	6.22669E-9	 	25495.925	43.3396	 
700.0	1.0	0.0	7.47354	7.29125	-6.90285	14.84447	25.31981	1.25238	0.79848	149.53615	138.08702	56.66332	0.31951	 	8.916244433E8	 	5.32702E-9	 	25276.893	43.8064	 
695.0	1.0	0.0	7.47542	7.28942	-6.92626	14.82638	25.26589	1.24861	0.80089	150.18454	138.53416	56.91753	0.31932	 	1.03861372E9	 	4.54962E-9	 	25055.323	44.314	 
690.0	1.0	0.0	7.4773	7.28759	-6.94962	14.8083	25.21199	1.24481	0.80333	150.83141	138.97894	57.17124	0.31912	 	1.211889968E9	 	3.87898E-9	 	24830.99	44.8666	 
685.0	1.0	0.0	7.47917	7.28577	-6.97293	14.79021	25.15812	1.241	0.8058	151.47675	139.42133	57.42445	0.31892	 	1.416517115E9	 	3.3014E-9	 	24603.642	45.4696	 
680.0	1.0	0.0	7.48104	7.28394	-6.9962	14.77212	25.10426	1.23718	0.80829	152.1205	139.86131	57.67713	0.31872	 	1.658603932E9	 	2.80482E-9	 	24352.877	50.153	 
675.0	1.0	0.0	7.48291	7.28213	-7.01941	14.75403	25.05041	1.23333	0.81081	152.76264	140.29885	57.92928	0.31853	 	1.945533845E9	 	2.37862E-9	 	24096.337	51.308	 
670.0	1.0	0.0	7.48478	7.28031	-7.04258	14.73595	24.99656	1.22947	0.81336	153.40314	140.73392	58.18088	0.31833	 	2.286248423E9	 	2.01346E-9	 	23842.967	50.674	 
665.0	1.0	0.0	7.48664	7.2785	-7.06569	14.71786	24.9427	1.22559	0.81593	154.04195	141.16651	58.43191	0.31813	 	2.691597785E9	 	1.70117E-9	 	23592.649	50.0636	 
660.0	1.0	0.0	7.4885	7.27669	-7.08876	14.69978	24.88882	1.2217	0.81853	154.67905	141.59659	58.68237	0.31793	 	3.17477468E9	 	1.43458E-9	 	23345.274	49.475	 
655.0	1.0	0.0	7.49035	7.27489	-7.11178	14.68169	24.8349	1.21779	0.82116	155.3144	142.02414	58.93224	0.31774	 	3.751853322E9	 	1.20742E-9	 	23100.736	48.9076	 
650.0	1.0	0.0	7.4922	7.27309	-7.13475	14.66361	24.78095	1.21387	0.82381	155.94796	142.44914	59.18151	0.31754	 	4.442459773E9	 	1.01423E-9	 	22858.935	48.3602	 
645.0	1.0	0.0	7.49405	7.2713	-7.15766	14.64553	24.72694	1.20993	0.82649	156.57971	142.87155	59.43016	0.31734	 	5.270607805E9	 	8.50236E-10	 	22619.776	47.8318	 
640.0	1.0	0.0	7.4959	7.26951	-7.18054	14.62745	24.67287	1.20598	0.8292	157.2096	143.29137	59.67819	0.31714	 	6.265743462E9	 	7.11306E-10	 	22383.169	47.3214	 
635.0	1.0	0.0	7.49774	7.26772	-7.20336	14.60936	24.61873	1.20201	0.83194	157.83761	143.70856	59.92557	0.31695	 	7.464053409E9	 	5.9384E-10	 	22149.027	46.8284	 
630.0	1.0	0.0	7.49958	7.26594	-7.22613	14.59128	24.5645	1.19804	0.8347	158.46369	144.12311	60.17229	0.31675	 	8.910107503E9	 	4.94725E-10	 	21917.271	46.3512	 
625.0	1.0	0.0	7.50142	7.26416	-7.24885	14.5732	24.51018	1.19404	0.83749	159.08782	144.53498	60.41835	0.31655	 	1.06589E10	 	4.11265E-10	 	21687.821	45.89	 
620.0	1.0	0.0	7.50326	7.26238	-7.27152	14.55512	24.45576	1.19004	0.84031	159.70996	144.94417	60.66373	0.31635	 	1.2778599999999998E10	 	3.41137E-10	 	21460.604	45.4434	 
615.0	1.0	0.0	7.50509	7.26061	-7.29415	14.53704	24.40122	1.18602	0.84316	160.33008	145.35065	60.90841	0.31616	 	1.5353499999999998E10	 	2.82335E-10	 	21235.551	45.0106	 
610.0	1.0	0.0	7.50692	7.25884	-7.31673	14.51896	24.34656	1.18199	0.84603	160.94814	145.75439	61.15238	0.31596	 	1.84887E10	 	2.33139E-10	 	21012.593	44.5916	 
605.0	1.0	0.0	7.50874	7.25708	-7.33925	14.50089	24.29176	1.17795	0.84893	161.56411	146.15538	61.39564	0.31576	 	2.23149E10	 	1.9207E-10	 	20791.668	44.185	 
600.0	1.0	0.0	7.51056	7.25532	-7.36173	14.48281	24.23683	1.1739	0.85186	162.17796	146.55359	61.63816	0.31556	 	2.6995699999999996E10	 	1.57863E-10	 	20572.715	43.7906	 
595.0	1.0	0.0	7.51238	7.25356	-7.38416	14.46473	24.18174	1.16984	0.85482	162.78966	146.949	61.87993	0.31537	 	3.2735599999999996E10	 	1.29438E-10	 	20355.676	43.4078	 
590.0	1.0	0.0	7.5142	7.25181	-7.40654	14.44666	24.12649	1.16576	0.85781	163.39916	147.34159	62.12094	0.31517	 	3.97917E10	 	1.05872E-10	 	20140.496	43.036	 
585.0	1.0	0.0	7.51601	7.25006	-7.42887	14.42858	24.07108	1.16168	0.86082	164.00644	147.73135	62.36118	0.31497	 	4.848769999999999E10	 	8.63811E-11	 	19927.123	42.6746	 
580.0	1.0	0.0	7.51782	7.24831	-7.45115	14.4105	24.0155	1.15758	0.86387	164.61147	148.11824	62.60064	0.31477	 	5.923189999999999E10	 	7.03002E-11	 	19715.506	42.3234	 
575.0	1.0	0.0	7.51963	7.24657	-7.47338	14.39243	23.95973	1.15348	0.86695	165.21421	148.50225	62.83929	0.31458	 	7.25415E10	 	5.70654E-11	 	19505.599	41.9814	 
570.0	1.0	0.0	7.52143	7.24483	-7.49556	14.37436	23.90379	1.14936	0.87005	165.81462	148.88337	63.07714	0.31438	 	8.90726E10	 	4.62006E-11	 	19297.355	41.6488	 
565.0	1.0	0.0	7.52323	7.2431	-7.5177	14.35628	23.84765	1.14523	0.87318	166.41269	149.26156	63.31416	0.31418	 	1.09661E11	 	3.73042E-11	 	19090.731	41.3248	 
560.0	1.0	0.0	7.52503	7.24137	-7.53978	14.33821	23.79132	1.1411	0.87635	167.00836	149.63681	63.55034	0.31398	 	1.35371E11	 	3.00388E-11	 	18885.686	41.009	 
555.0	1.0	0.0	7.52682	7.23965	-7.56181	14.32014	23.7348	1.13695	0.87955	167.60162	150.0091	63.78568	0.31379	 	1.6757E11	 	2.41213E-11	 	18682.179	40.7014	 
550.0	1.0	0.0	7.52861	7.23792	-7.5838	14.30207	23.67808	1.13279	0.88277	168.19243	150.37841	64.02015	0.31359	 	2.08008E11	 	1.93146E-11	 	18480.173	40.4012	 
545.0	1.0	0.0	7.5304	7.23621	-7.60574	14.284	23.62116	1.12862	0.88603	168.78075	150.74472	64.25375	0.31339	 	2.58942E11	 	1.54212E-11	 	18279.632	40.1082	 
540.0	1.0	0.0	7.53218	7.23449	-7.62763	14.26593	23.56404	1.12445	0.88933	169.36656	151.10802	64.48646	0.31319	 	3.23286E11	 	1.22764E-11	 	18080.52	39.8224	 
535.0	1.0	0.0	7.53396	7.23278	-7.64947	14.24786	23.50673	1.12026	0.89265	169.94982	151.46827	64.71827	0.313	 	4.04817E11	 	9.7436E-12	 	17882.805	39.543	 
530.0	1.0	0.0	7.53574	7.23107	-7.67126	14.22979	23.44921	1.11606	0.89601	170.5305	151.82547	64.94916	0.3128	 	5.08444E11	 	7.70975E-12	 	17686.454	39.2702	 
525.0	1.0	0.0	7.53752	7.22937	-7.693	14.21172	23.3915	1.11184	0.89941	171.10857	152.1796	65.17913	0.3126	 	6.40568E11	 	6.08143E-12	 	17491.437	39.0034	 
520.0	1.0	0.0	7.53929	7.22767	-7.71469	14.19365	23.3336	1.10762	0.90284	171.684	152.53064	65.40817	0.3124	 	8.09564E11	 	4.7818E-12	 	17297.726	38.7422	 
515.0	1.0	0.0	7.54106	7.22598	-7.73633	14.17558	23.2755	1.10339	0.9063	172.25676	152.87856	65.63625	0.31221	 	1.02643E12	 	3.74773E-12	 	17105.291	38.487	 
510.0	1.0	0.0	7.54282	7.22429	-7.75793	14.15752	23.21723	1.09914	0.9098	172.82681	153.22336	65.86338	0.31201	 	1.30564E12	 	2.92758E-12	 	16914.105	38.2372	 
505.0	1.0	0.0	7.54458	7.2226	-7.77947	14.13945	23.15877	1.09488	0.91334	173.39413	153.56501	66.08953	0.31181	 	1.66634E12	 	2.27921E-12	 	16724.144	37.9922	 
500.0	1.0	0.0	7.54634	7.22092	-7.80097	14.12139	23.10014	1.0906	0.91692	173.95867	153.90349	66.31469	0.31161	 	2.13394E12	 	1.76835E-12	 	16535.381	37.7526	 
495.0	1.0	0.0	7.5481	7.21924	-7.82241	14.10332	23.04134	1.08632	0.92054	174.52043	154.2388	66.53885	0.31142	 	2.74224E12	 	1.36719E-12	 	16347.794	37.5174	 
490.0	1.0	0.0	7.54985	7.21756	-7.84381	14.08526	22.98239	1.08201	0.9242	175.07935	154.57091	66.762	0.31122	 	3.53641E12	 	1.05326E-12	 	16161.358	37.2872	 
485.0	1.0	0.0	7.5516	7.21589	-7.86516	14.06719	22.92328	1.0777	0.92791	175.63542	154.89981	66.98413	0.31102	 	4.57707E12	 	8.08452E-13	 	15976.053	37.061	 
480.0	1.0	0.0	7.55335	7.21422	-7.88646	14.04913	22.86403	1.07336	0.93165	176.1886	155.22547	67.20523	0.31083	 	5.94581E12	 	6.1824E-13	 	15791.856	36.8394	 
475.0	1.0	0.0	7.55509	7.21256	-7.90771	14.03107	22.80464	1.06901	0.93544	176.73886	155.54789	67.42528	0.31063	 	7.75292E12	 	4.70988E-13	 	15608.747	36.6218	 
470.0	1.0	0.0	7.55683	7.2109	-7.92891	14.01301	22.74512	1.06465	0.93928	177.28618	155.86705	67.64427	0.31043	 	1.01481E13	 	3.5742E-13	 	15426.707	36.408	 
465.0	1.0	0.0	7.55857	7.20924	-7.95006	13.99495	22.68549	1.06026	0.94316	177.83052	156.18293	67.86219	0.31023	 	1.33353E13	 	2.70165E-13	 	15245.715	36.1984	 
460.0	1.0	0.0	7.5603	7.20759	-7.97116	13.97689	22.62576	1.05586	0.94709	178.37185	156.49552	68.07903	0.31004	 	1.75935E13	 	2.03388E-13	 	15065.755	35.992	 
455.0	1.0	0.0	7.56203	7.20594	-7.99222	13.95883	22.56592	1.05144	0.95107	178.91015	156.8048	68.29478	0.30984	 	2.33064E13	 	1.52487E-13	 	14886.807	35.7896	 
450.0	1.0	0.0	7.56376	7.20429	-8.01322	13.94077	22.506	1.047	0.95511	179.44538	157.11075	68.50942	0.30964	 	3.1003E13	 	1.13844E-13	 	14708.856	35.5902	 
445.0	1.0	0.0	7.56548	7.20265	-8.03418	13.92271	22.44601	1.04254	0.95919	179.97753	157.41337	68.72294	0.30944	 	4.14169E13	 	8.463E-14	 	14531.883	35.3946	 
440.0	1.0	0.0	7.5672	7.20101	-8.05509	13.90465	22.38595	1.03806	0.96333	180.50655	157.71263	68.93534	0.30925	 	5.55693E13	 	6.26372E-14	 	14355.874	35.2018	 
435.0	1.0	0.0	7.56892	7.19938	-8.07594	13.88659	22.32583	1.03356	0.96753	181.03242	158.00853	69.1466	0.30905	 	7.48888E13	 	4.61525E-14	 	14180.812	35.0124	 
430.0	1.0	0.0	7.57063	7.19775	-8.09675	13.86853	22.26566	1.02903	0.97178	181.55512	158.30105	69.35671	0.30885	 	1.01383E14	 	3.3851E-14	 	14006.683	34.8258	 
425.0	1.0	0.0	7.57234	7.19612	-8.11751	13.85048	22.20546	1.02449	0.9761	182.07461	158.59017	69.56566	0.30865	 	1.3788499999999998E14	 	2.47126E-14	 	13833.472	34.6422	 
420.0	1.0	0.0	7.57405	7.1945	-8.13822	13.83242	22.14524	1.01992	0.98047	182.59088	158.87589	69.77344	0.30846	 	1.88417E14	 	1.79554E-14	 	13661.164	34.4616	 
415.0	1.0	0.0	7.57575	7.19288	-8.15889	13.81437	22.085	1.01532	0.98491	183.10388	159.15818	69.98004	0.30826	 	2.5871299999999997E14	 	1.29823E-14	 	13489.747	34.2834	 
410.0	1.0	0.0	7.57745	7.19127	-8.1795	13.79631	22.02475	1.0107	0.98941	183.6136	159.43705	70.18544	0.30806	 	3.56989E14	 	9.34001E-15	 	13319.207	34.108	 
405.0	1.0	0.0	7.57915	7.18966	-8.20006	13.77826	21.9645	1.00606	0.99398	184.12002	159.71247	70.38964	0.30786	 	4.95085E14	 	6.68548E-15	 	13149.531	33.9352	 
400.0	1.0	0.0	7.58084	7.18805	-8.22058	13.76021	21.90426	1.00138	0.99862	184.62309	159.98444	70.59263	0.30767	 	6.90143E14	 	4.76057E-15	 	12980.706	33.765	 
395.0	1.0	0.0	7.58254	7.18645	-8.24104	13.74215	21.84405	0.99669	1.00332	185.1228	160.25294	70.79439	0.30747	 	9.67126E14	 	3.37192E-15	 	12812.721	33.597	 
390.0	1.0	0.0	7.58422	7.18485	-8.26146	13.7241	21.78386	0.99196	1.0081	185.61913	160.51796	70.99491	0.30727	 	1.36258E15	 	2.3754E-15	 	12645.564	33.4314	 
385.0	1.0	0.0	7.58591	7.18325	-8.28183	13.70605	21.7237	0.98721	1.01296	186.11205	160.77949	71.19419	0.30707	 	1.93032E15	 	1.66411E-15	 	12479.222	33.2684	 
380.0	1.0	0.0	7.58759	7.18166	-8.30215	13.688	21.66359	0.98243	1.01789	186.60153	161.03752	71.39222	0.30688	 	2.75002E15	 	1.15921E-15	 	12313.686	33.1072	 
375.0	1.0	0.0	7.58927	7.18008	-8.32242	13.66995	21.60353	0.97762	1.0229	187.08754	161.29204	71.58899	0.30668	 	3.94041E15	 	8.02826E-16	 	12148.944	32.9484	 
370.0	1.0	0.0	7.59094	7.17849	-8.34264	13.6519	21.54352	0.97278	1.02798	187.57008	161.54304	71.78448	0.30648	 	5.67935E15	 	5.52714E-16	 	11984.986	32.7916	 
365.0	1.0	0.0	7.59261	7.17691	-8.36281	13.63385	21.48356	0.96791	1.03316	188.04911	161.79052	71.97868	0.30628	 	8.2351E15	 	3.78217E-16	 	11821.801	32.637	 
360.0	1.0	0.0	7.59428	7.17534	-8.38293	13.6158	21.42368	0.96301	1.03841	188.52461	162.03446	72.1716	0.30609	 	1.20147E16	 	2.57206E-16	 	11659.38	32.4842	 
355.0	1.0	0.0	7.59594	7.17376	-8.40301	13.59775	21.36386	0.95808	1.04376	188.99656	162.27485	72.36321	0.30589	 	1.7639600000000002E16	 	1.73805E-16	 	11497.712	32.3336	 
350.0	1.0	0.0	7.5976	7.1722	-8.42303	13.57971	21.30411	0.95312	1.04919	189.46493	162.51169	72.55351	0.30569	 	2.60654E16	 	1.16685E-16	 	11336.788	32.1848	 
345.0	1.0	0.0	7.59926	7.17063	-8.44301	13.56166	21.24444	0.94813	1.05471	189.92971	162.74497	72.7425	0.30549	 	3.87709E16	 	7.78169E-17	 	11176.6	32.0376	 
340.0	1.0	0.0	7.60092	7.16907	-8.46293	13.54361	21.18485	0.9431	1.06033	190.39088	162.97468	72.93015	0.3053	 	5.80605E16	 	5.15433E-17	 	11017.137	31.8926	 
335.0	1.0	0.0	7.60257	7.16751	-8.48281	13.52557	21.12534	0.93805	1.06604	190.84841	163.20082	73.11647	0.3051	 	8.75505E16	 	3.3903E-17	 	10858.392	31.749	 
330.0	1.0	0.0	7.60421	7.16596	-8.50264	13.50752	21.06592	0.93296	1.07186	191.30229	163.42338	73.30145	0.3049	 	1.32957E17	 	2.21411E-17	 	10700.356	31.6072	 
325.0	1.0	0.0	7.60586	7.16441	-8.52242	13.48948	21.00658	0.92784	1.07777	191.75249	163.64236	73.48507	0.3047	 	2.03384E17	 	1.43542E-17	 	10543.02	31.4672	 
320.0	1.0	0.0	7.6075	7.16287	-8.54215	13.47144	20.94733	0.92269	1.08379	192.199	163.85775	73.66734	0.30451	 	3.13437E17	 	9.23636E-18	 	10386.376	31.3288	 
315.0	1.0	0.0	7.60914	7.16133	-8.56183	13.45339	20.88816	0.9175	1.08992	192.6418	164.06954	73.84823	0.30431	 	4.86734E17	 	5.89771E-18	 	10230.417	31.1918	 
310.0	1.0	0.0	7.61077	7.15979	-8.58147	13.43535	20.82908	0.91228	1.09616	193.08088	164.27774	74.02776	0.30411	 	7.61769E17	 	3.73632E-18	 	10075.134	31.0566	 
305.0	1.0	0.0	7.6124	7.15825	-8.60105	13.41731	20.77009	0.90703	1.1025	193.51622	164.48234	74.2059	0.30391	 	1.2018E18	 	2.34799E-18	 	9920.521	30.9226	 
300.0	1.0	0.0	7.61403	7.15672	-8.62059	13.39927	20.71118	0.90174	1.10897	193.94779	164.68334	74.38266	0.30372	 	1.91163E18	 	1.46336E-18	 	9766.569	30.7904	 
295.0	1.0	0.0	7.61565	7.1552	-8.64007	13.38123	20.65236	0.89642	1.11555	194.3756	164.88073	74.55802	0.30352	 	3.06642E18	 	9.04313E-19	 	9613.273	30.6592	 
290.0	1.0	0.0	7.61727	7.15368	-8.65951	13.36319	20.59362	0.89106	1.12225	194.79962	165.07453	74.73199	0.30332	 	4.96145E18	 	5.5399E-19	 	9460.624	30.5298	 
285.0	1.0	0.0	7.61889	7.15216	-8.6789	13.34515	20.53497	0.88568	1.12908	195.21984	165.26471	74.90455	0.30312	 	8.09906E18	 	3.36359E-19	 	9308.616	30.4016	 
280.0	1.0	0.0	7.6205	7.15064	-8.69824	13.32711	20.4764	0.88025	1.13604	195.63625	165.4513	75.0757	0.30293	 	1.33417E19	 	2.02358E-19	 	9157.243	30.2746	 
275.0	1.0	0.0	7.62212	7.14913	-8.71753	13.30907	20.4179	0.87479	1.14313	196.04884	165.63428	75.24543	0.30273	 	2.2184E19	 	1.206E-19	 	9006.498	30.149	 
270.0	1.0	0.0	7.62372	7.14762	-8.73677	13.29103	20.35949	0.8693	1.15035	196.4576	165.81367	75.41375	0.30253	 	3.72419E19	 	7.11828E-20	 	8856.375	30.0246	 
265.0	1.0	0.0	7.62533	7.14612	-8.75596	13.273	20.30115	0.86377	1.15771	196.86252	165.98946	75.58064	0.30233	 	6.31393E19	 	4.15997E-20	 	8706.867	29.9016	 
260.0	1.0	0.0	7.62693	7.14462	-8.77511	13.25496	20.24289	0.85821	1.16521	197.26359	166.16165	75.7461	0.30214	 	1.0813399999999998E20	 	2.40644E-20	 	8557.97	29.7794	 
255.0	1.0	0.0	7.62852	7.14313	-8.7942	13.23692	20.18469	0.85261	1.17286	197.6608	166.33026	75.91014	0.30194	 	1.87127E20	 	1.37755E-20	 	8409.676	29.6588	 
250.0	1.0	0.0	7.63012	7.14164	-8.81325	13.21889	20.12657	0.84698	1.18066	198.05416	166.49529	76.07274	0.30174	 	3.2730499999999997E20	 	7.80117E-21	 	8261.982	29.5388	 
245.0	1.0	0.0	7.63171	7.14015	-8.83224	13.20086	20.0685	0.84131	1.18862	198.44365	166.65675	76.23391	0.30154	 	5.7881599999999993E20	 	4.36919E-21	 	8114.88	29.4204	 
240.0	1.0	0.0	7.63329	7.13866	-8.85119	13.18282	20.01051	0.83561	1.19673	198.82927	166.81464	76.39363	0.30135	 	1.0352300000000001E21	 	2.41933E-21	 	7968.367	29.3026	 
235.0	1.0	0.0	7.63488	7.13718	-8.87009	13.16479	19.95257	0.82987	1.20501	199.21102	166.96897	76.55192	0.30115	 	1.87319E21	 	1.32403E-21	 	7822.437	29.186	 
230.0	1.0	0.0	7.63646	7.13571	-8.88894	13.14676	19.89469	0.8241	1.21345	199.5889	167.11976	76.70877	0.30095	 	3.43023E21	 	7.15915E-22	 	7677.085	29.0704	 
225.0	1.0	0.0	7.63803	7.13423	-8.90774	13.12872	19.83686	0.81829	1.22207	199.96291	167.26701	76.86419	0.30075	 	6.35936E21	 	3.82326E-22	 	7532.307	28.9556	 
220.0	1.0	0.0	7.6396	7.13277	-8.92649	13.11069	19.77909	0.81244	1.23086	200.33306	167.41074	77.01816	0.30056	 	1.19402E22	 	2.01583E-22	 	7388.097	28.842	 
215.0	1.0	0.0	7.64117	7.1313	-8.94519	13.09266	19.72136	0.80656	1.23984	200.69935	167.55097	77.17069	0.30036	 	2.27136E22	 	1.04895E-22	 	7244.453	28.7288	 
210.0	1.0	0.0	7.64274	7.12984	-8.96385	13.07463	19.66369	0.80064	1.24901	201.06178	167.6877	77.32179	0.30016	 	4.3793399999999995E22	 	5.38468E-23	 	7101.368	28.617	 
205.0	1.0	0.0	7.6443	7.12838	-8.98245	13.0566	19.60605	0.79468	1.25837	201.42037	167.82096	77.47146	0.29997	 	8.56165E22	 	2.7258E-23	 	6958.841	28.5054	 
200.0	1.0	0.0	7.64586	7.12693	-9.00101	13.03857	19.54846	0.78869	1.26793	201.77512	167.95077	77.61969	0.29977	 	1.69794E23	 	1.36008E-23	 	6816.866	28.395	 
195.0	1.0	0.0	7.64742	7.12548	-9.01952	13.02054	19.49091	0.78266	1.2777	202.12604	168.07714	77.7665	0.29957	 	3.41741E23	 	6.68612E-24	 	6675.44	28.2852	 
190.0	1.0	0.0	7.64897	7.12403	-9.03798	13.00252	19.43339	0.77659	1.28768	202.47316	168.2001	77.91189	0.29937	 	6.98375E23	 	3.23683E-24	 	6534.56	28.176	 
185.0	1.0	0.0	7.65052	7.12259	-9.05639	12.98449	19.37591	0.77048	1.29789	202.81649	168.31967	78.05586	0.29918	 	1.4498E24	 	1.54236E-24	 	6394.223	28.0674	 
180.0	1.0	0.0	7.65206	7.12115	-9.07475	12.96646	19.31846	0.76434	1.30832	203.15604	168.43588	78.19842	0.29898	 	3.05901E24	 	7.23016E-25	 	6254.425	27.9596	 
175.0	1.0	0.0	7.6536	7.11972	-9.09306	12.94844	19.26103	0.75816	1.31898	203.49185	168.54876	78.33959	0.29878	 	6.56353E24	 	3.33252E-25	 	6115.164	27.8522	 
170.0	1.0	0.0	7.65514	7.11829	-9.11132	12.93041	19.20364	0.75194	1.32989	203.82392	168.65833	78.47936	0.29858	 	1.4329200000000001E25	 	1.50944E-25	 	5976.437	27.7454	 
165.0	1.0	0.0	7.65667	7.11686	-9.12954	12.91239	19.14627	0.74569	1.34105	204.1523	168.76463	78.61775	0.29839	 	3.18487E25	 	6.71457E-26	 	5838.241	27.6392	 
160.0	1.0	0.0	7.6582	7.11544	-9.1477	12.89436	19.08893	0.73939	1.35246	204.47701	168.86769	78.75477	0.29819	 	7.2112300000000005E25	 	2.93167E-26	 	5700.575	27.5332	 
155.0	1.0	0.0	7.65973	7.11402	-9.16582	12.87634	19.0316	0.73306	1.36415	204.79809	168.96756	78.89043	0.29799	 	1.66439E26	 	1.25553E-26	 	5563.437	27.4276	 
150.0	1.0	0.0	7.66126	7.11261	-9.18388	12.85832	18.9743	0.72669	1.37611	205.11557	169.06426	79.02474	0.29779	 	3.9185400000000004E26	 	5.27056E-27	 	5426.825	27.3224	 
145.0	1.0	0.0	7.66278	7.1112	-9.2019	12.84029	18.91702	0.72027	1.38836	205.42949	169.15785	79.15773	0.2976	 	9.417180000000001E26	 	2.16719E-27	 	5290.737	27.2176	 
140.0	1.0	0.0	7.66429	7.10979	-9.21987	12.82227	18.85975	0.71382	1.40091	205.7399	169.24837	79.28941	0.2974	 	2.31189E27	 	8.72223E-28	 	5155.173	27.1128	 
135.0	1.0	0.0	7.66581	7.10838	-9.23779	12.80425	18.8025	0.70733	1.41377	206.04685	169.33587	79.41978	0.2972	 	5.802299999999999E27	 	3.43326E-28	 	5020.131	27.0084	 
130.0	1.0	0.0	7.66732	7.10699	-9.25566	12.78623	18.74526	0.7008	1.42694	206.35039	169.42039	79.54889	0.297	 	1.48996E28	 	1.32062E-28	 	4885.611	26.904	 
125.0	1.0	0.0	7.66882	7.10559	-9.27349	12.76821	18.68804	0.69423	1.44045	206.65057	169.50201	79.67674	0.29681	 	3.9179800000000002E28	 	4.95988E-29	 	4751.613	26.7996	 
120.0	1.0	0.0	7.67033	7.1042	-9.29126	12.75019	18.63082	0.68761	1.45431	206.94747	169.58077	79.80336	0.29661	 	1.05598E29	 	1.81715E-29	 	4618.136	26.6954	 
115.0	1.0	0.0	7.67182	7.10281	-9.30899	12.73217	18.57362	0.68096	1.46852	207.24115	169.65674	79.92878	0.29641	 	2.9198700000000004E29	 	6.48818E-30	 	4485.181	26.591	 
110.0	1.0	0.0	7.67332	7.10142	-9.32666	12.71415	18.51643	0.67426	1.4831	207.53168	169.72999	80.05302	0.29621	 	8.291280000000001E29	 	2.25545E-30	 	4352.748	26.4866	 
105.0	1.0	0.0	7.67481	7.10004	-9.34429	12.69614	18.45925	0.66753	1.49807	207.81913	169.8006	80.17612	0.29602	 	2.42039E30	 	7.62545E-31	 	4220.839	26.3818	 
100.0	1.0	0.0	7.6763	7.09867	-9.36187	12.67812	18.40207	0.66075	1.51344	208.10361	169.86863	80.2981	0.29582	 	7.271699999999999E30	 	2.50458E-31	 	4089.455	26.2768	 
95.0	1.0	0.0	7.67779	7.09729	-9.3794	12.6601	18.3449	0.65392	1.52923	208.3852	169.93417	80.419	0.29562	 	2.25102E31	 	7.98237E-32	 	3958.598	26.1714	 
90.0	1.0	0.0	7.67927	7.09593	-9.39688	12.64209	18.28774	0.64706	1.54545	208.66399	169.99732	80.53886	0.29542	 	7.18872E31	 	2.46559E-32	 	3828.269	26.0658	 
85.0	1.0	0.0	7.68074	7.09456	-9.41431	12.62407	18.23059	0.64015	1.56213	208.9401	170.05816	80.65773	0.29523	 	2.37147E32	 	7.37113E-33	 	3698.472	25.9594	 
80.0	1.0	0.0	7.68222	7.0932	-9.4317	12.60606	18.17343	0.6332	1.57928	209.21365	170.11679	80.77564	0.29503	 	8.09233E32	 	2.12996E-33	 	3569.209	25.8526	 
75.0	1.0	0.0	7.68369	7.09184	-9.44903	12.58804	18.11629	0.6262	1.59693	209.48475	170.17333	80.89264	0.29483	 	2.86057E33	 	5.94019E-34	 	3440.485	25.7448	 
70.0	1.0	0.0	7.68516	7.09049	-9.46631	12.57003	18.05914	0.61916	1.61509	209.75354	170.22789	81.00878	0.29463	 	1.04911E34	 	1.59643E-34	 	3312.303	25.6364	 
65.0	1.0	0.0	7.68662	7.08914	-9.48355	12.55202	18.00201	0.61208	1.63378	210.02017	170.28059	81.12413	0.29444	 	3.99843E34	 	4.12768E-35	 	3184.668	25.527	 
60.0	1.0	0.0	7.68808	7.08779	-9.50074	12.534	17.94487	0.60495	1.65304	210.28479	170.33156	81.23873	0.29424	 	1.5863799999999999E35	 	1.02499E-35	 	3057.586	25.4164	 
55.0	1.0	0.0	7.68954	7.08645	-9.51788	12.51599	17.88774	0.59777	1.67288	210.54757	170.38094	81.35266	0.29404	 	6.564049999999999E35	 	2.43999E-36	 	2931.062	25.3048	 
50.0	1.0	0.0	7.69099	7.08511	-9.53497	12.49798	17.8306	0.59055	1.69334	210.80869	170.42889	81.46598	0.29384	 	2.8380999999999997E36	 	5.55728E-37	 	2805.103	25.1918	 
45.0	1.0	0.0	7.69244	7.08378	-9.55201	12.47997	17.77347	0.58328	1.71444	211.06834	170.47556	81.57877	0.29365	 	1.28492E37	 	1.20849E-37	 	2679.716	25.0774	 
40.0	1.0	0.0	7.69388	7.08245	-9.569	12.46196	17.71635	0.57596	1.73622	211.32674	170.52113	81.6911	0.29345	 	6.10482E37	 	2.50361E-38	 	2554.91	24.9612	 
35.0	1.0	0.0	7.69532	7.08112	-9.58595	12.44396	17.65922	0.5686	1.7587	211.5841	170.56578	81.80308	0.29325	 	3.05096E38	 	4.92961E-39	 	2430.694	24.8432	 
30.0	1.0	0.0	7.69676	7.07979	-9.60284	12.42594	17.60209	0.56119	1.78192	211.84067	170.60971	81.91478	0.29306	 	1.60788E39	 	9.20216E-40	 	2307.077	24.7234	 
25.0	1.0	0.0	7.6982	7.07848	-9.61969	 	17.54497	0.55373	1.80593	212.09671	170.65313	82.02631	0.29286	 	8.95952E39	 	1.62419E-40	 	2184.07	 	 
