T (C)	Fraction solid (wt)-TOTAL	Fraction liquid (wt)-LIQUID	Density (g/(cm)^3)-TOTAL	Molar volume (cm^3)-TOTAL	Volume change (%)-  	Average expansion coeff. (10e-6 1/K)-  	Thermal conductivity (W/(m*K))-TOTAL	Electrical resistivity (10e-6 Ohm*m)-TOTAL	Electrical conductivity (10e6 1/(Ohm*m))-TOTAL	Young's modulus (GPa)-TOTAL	Bulk modulus (GPa)-TOTAL	Shear modulus(GPa)-TOTAL	Poisson's ratio-TOTAL	Liquid viscosity (mPa s)-  	Total viscosity (mPa s)-  	Liquid diffusivity (10e-9 (m^2)/s)-  	Total diffusivity (10e-9 (m^2)/s)-  	Surface Tension (mN/m)-  	Enthalpy (J/mole)-TOTAL	Specific heat (J/(mole K))-TOTAL	Latent heat (J/mole)-TOTAL
700.0	0.00698	0.99302	2.52073	11.22297	0.0	66.41659	89.68606	0.26584	3.76166	5.37447E-8	52.39156	1.79341E-8	0.49839	1.30872	1.30872	3.62927	3.62927	793.4845	28584.685	 	0.0
695.0	0.00722	0.99278	2.52249	11.2152	-0.0692862	66.52117	89.5173	0.26497	3.77397	5.77596E-8	52.46954	1.92745E-8	0.49834	1.3228	1.3228	3.57221	3.57221	794.70223	28423.473	32.2424	4.301
690.0	0.00744	0.99256	2.52424	11.20747	-0.13812	66.62988	89.34858	0.2641	3.78641	6.17537E-8	52.54755	2.0608E-8	0.49829	1.33718	1.33718	3.51552	3.51552	795.91771	28262.49	32.1966	8.375
685.0	0.00765	0.99235	2.52599	11.19968	-0.20753	66.73697	89.17903	0.26323	3.79895	6.57216E-8	52.6251	2.19329E-8	0.49825	1.35189	1.35189	3.45923	3.45923	797.13088	28101.726	32.1528	12.236
680.0	0.00785	0.99215	2.52773	11.19196	-0.27637	66.84896	89.00962	0.26236	3.81162	6.96332E-8	52.70288	2.32389E-8	0.4982	1.36693	1.36693	3.40331	3.40331	798.34147	27941.173	32.1106	15.892
675.0	0.00804	0.99196	2.52947	11.18428	-0.3448	66.96505	88.84025	0.26148	3.82443	7.34828E-8	52.78067	2.45244E-8	0.49816	1.38231	1.38231	3.34779	3.34779	799.54938	27780.823	32.07	19.35
670.0	0.00822	0.99178	2.5312	11.17665	-0.41276	67.08574	88.67095	0.26059	3.83738	7.72534E-8	52.85859	2.57834E-8	0.49812	1.39804	1.39804	3.29267	3.29267	800.75447	27620.667	32.0312	22.619
665.0	0.00839	0.99161	2.53293	11.16896	-0.48125	67.20515	88.50086	0.25971	3.85043	8.09333E-8	52.93611	2.70123E-8	0.49808	1.41413	1.41413	3.23794	3.23794	801.95672	27460.698	31.9938	25.708
660.0	0.00855	0.99145	2.53465	11.16144	-0.54829	67.33507	88.33171	0.25882	3.86366	8.45101E-8	53.01423	2.82067E-8	0.49805	1.4306	1.4306	3.18362	3.18362	803.1557	27300.899	31.9598	28.622
655.0	0.0087	0.9913	2.53636	11.15384	-0.61596	67.46328	88.16172	0.25793	3.877	8.79768E-8	53.09182	2.93645E-8	0.49801	1.44744	1.44744	3.12971	3.12971	804.35164	27141.469	31.886	31.369
650.0	0.00884	0.99116	2.53807	11.1463	-0.68319	67.59621	87.99178	0.25704	3.89049	9.13314E-8	53.16951	3.04848E-8	0.49798	1.46468	1.46468	3.07621	3.07621	805.54421	26982.538	31.7862	33.952
645.0	0.00897	0.99103	2.53978	11.1388	-0.74999	67.73385	87.82191	0.25614	3.90412	9.45537E-8	53.24727	3.1561E-8	0.49795	1.48233	1.48233	3.02312	3.02312	806.31437	26824.101	31.6874	36.379
640.0	0.0091	0.9909	2.54148	11.13135	-0.81638	67.87634	87.6521	0.25524	3.91791	9.76551E-8	53.32512	3.25968E-8	0.49792	1.5004	1.5004	2.97045	2.97045	807.52432	26666.151	31.59	38.656
639.79	0.0091	0.9909	2.54156	11.13102	-0.81929	67.88194	87.64478	0.2552	3.91849	9.77791E-8	53.32838	3.26382E-8	0.49792	1.50118	1.50118	2.96822	2.96822	807.57579	26659.429	31.5424	38.751
635.0	0.2046	0.7954	2.57796	10.97666	-2.19469	59.88794	98.82452	0.22514	4.44162	0.0609957	53.85307	0.0206902	0.47402	1.54964	10.04214	2.86032	0.44139	803.9058	24330.488	486.525	2218.983
625.0	0.43423	0.56577	2.62203	10.79203	-3.83983	50.51722	115.50101	0.19051	5.24893	1.45255	54.8473	0.50263	0.44496	1.65402	204.26573	2.65029	0.0214605	799.11655	21470.266	286.022	4769.547
620.0	0.506	0.494	2.63652	10.73249	-4.37033	47.57003	122.02258	0.17933	5.57635	2.77805	55.24475	0.96761	0.43552	1.7103	414.42379	2.54882	0.0105188	797.31872	20517.123	190.629	5568.368
615.0	0.56181	0.43819	2.64813	10.6852	-4.79174	45.27213	127.84123	0.17021	5.87514	4.34048	55.60279	1.51973	0.42804	1.76927	695.67824	2.45007	0.0062311	795.85861	19741.494	155.126	6190.01
612.39	0.58601	0.41399	2.65329	10.6643	-4.97793	44.27445	130.55753	0.16618	6.01765	5.20092	55.77671	1.82521	0.42474	1.801	868.14162	2.39984	0.00497858	795.20318	19391.272	 	6460.034
610.0	0.60716	0.39284	2.65787	10.64571	-5.14357	43.38472	132.93476	0.16277	6.14381	6.0515	55.92159	2.12825	0.42171	1.82972	1049.61236	2.35579	0.00410669	794.64583	19078.326	132.634	6699.528
605.0	0.64519	0.35481	2.66631	10.61169	-5.44675	41.78193	137.41653	0.15657	6.38711	7.85976	56.20945	2.77501	0.41617	1.89146	1481.50794	2.26599	0.00289302	793.68416	18493.752	116.915	7130.788
600.0	0.67633	0.32367	2.67345	10.58296	-5.70271	40.46188	141.29497	0.1514	6.60498	9.64809	56.48031	3.41761	0.41153	1.95539	1983.51095	2.17942	0.00214853	792.9385	17986.578	101.435	7484.983
595.0	0.70229	0.29771	2.67961	10.55821	-5.92324	39.35369	144.66904	0.14702	6.80166	11.38413	56.73759	4.04391	0.40756	2.02152	2560.64345	2.09606	0.00165475	792.37267	17537.741	89.7674	7781.173
590.0	0.72423	0.27577	2.68501	10.53657	-6.11603	38.4116	147.61863	0.14326	6.98054	13.04961	56.98427	4.64686	0.40413	2.08985	3220.15026	2.01585	0.00130827	791.9582	17134.047	80.7388	8032.553
585.0	0.74302	0.25698	2.6898	10.51735	-6.28733	37.59777	150.21279	0.13997	7.14459	14.63741	57.22205	5.22346	0.40112	2.16046	3972.38196	1.93867	0.00105438	791.67242	16766.163	73.5768	8248.454
582.73	0.75064	0.24936	2.6918	10.5093	-6.35902	37.26482	151.28585	0.13861	7.21473	15.32823	57.32744	5.47484	0.39988	2.19328	4346.87321	1.9046	9.60996E-4	791.57726	16609.369	 	8336.299
582.73	0.75064	0.24936	2.6918	10.5093	-6.35903	37.2648	151.28584	0.13861	7.21474	15.32824	57.32744	5.47485	0.39988	2.19328	4346.8971	1.9046	9.60991E-4	791.57731	16609.358	 	8336.303
580.0	0.76285	0.23715	2.69462	10.49799	-6.45983	36.76112	152.91177	0.13669	7.31559	16.43778	57.45256	5.87949	0.39789	2.232	4909.99159	1.8656	8.48069E-4	791.32937	16385.085	76.2156	8477.879
575.0	0.78141	0.21859	2.69914	10.47992	-6.62082	35.98835	155.45394	0.13367	7.48106	18.27117	57.67842	6.54959	0.39483	2.30557	6017.7589	1.79548	6.87899E-4	791.04068	16018.721	73.2728	8692.917
571.45	0.79227	0.20773	2.70193	10.4687	-6.72078	35.53021	156.99138	0.13181	7.58677	19.43739	57.83576	6.97678	0.39301	2.3597	6873.31837	1.74696	5.99754E-4	790.92981	15785.572	 	8818.919
570.0	0.79628	0.20372	2.703	10.46442	-6.75894	35.36016	157.56844	0.1311	7.62778	19.88645	57.89971	7.14145	0.39232	2.38237	7242.67632	1.72736	5.68189E-4	790.90245	15695.111	64.722	8865.528
565.0	0.8086	0.1914	2.7064	10.45072	-6.88099	34.83282	159.36476	0.12885	7.76076	21.33456	58.11712	7.67319	0.3902	2.46236	8613.3362	1.66134	4.74938E-4	790.88354	15401.339	58.7544	9008.624
560.0	0.81901	0.18099	2.70947	10.43842	-6.99061	34.38352	160.91627	0.12685	7.88335	22.6455	58.33115	8.15546	0.38836	2.54555	10157.70336	1.59746	4.00327E-4	790.95179	15129.936	54.2806	9129.673
555.0	0.82797	0.17203	2.71227	10.42714	-7.09113	33.9907	162.27652	0.12503	7.99799	23.84536	58.54165	8.59762	0.38674	2.63197	11907.98916	1.53573	3.39436E-4	791.08871	14875.655	50.8562	9233.919
550.0	0.8358	0.1642	2.71486	10.4167	-7.18417	33.6442	163.48136	0.12336	8.10631	24.95342	58.74895	9.00659	0.38529	2.72163	13900.81862	1.47617	2.89018E-4	791.28039	14634.831	48.1648	9325.025
545.0	0.84272	0.15728	2.71729	10.40691	-7.27134	33.33381	164.55709	0.12181	8.20952	25.98466	58.9533	9.38775	0.38397	2.81468	16177.92673	1.4187	2.46829E-4	791.51662	14404.811	46.004	9405.642
543.03	0.84521	0.15479	2.7182	10.40323	-7.30414	33.22084	164.9497	0.12123	8.24892	26.37031	59.03283	9.53044	0.38348	2.8522	17160.35461	1.39668	2.32139E-4	791.61928	14316.983	 	9434.826
540.0	0.92391	0.076089	2.73014	10.35634	-7.72199	30.3483	172.00784	0.11582	8.63399	37.28984	58.77466	13.62237	0.3687	2.87913	24835.95078	1.37846	1.598E-4	782.20528	13393.126	202.337	10268.236
535.0	0.96479	0.0352139	2.73735	10.32852	-7.96984	28.80801	175.87564	0.11258	8.88275	44.46463	58.75807	16.33875	0.36071	2.92422	32474.3077	1.34886	1.21462E-4	775.56807	12810.472	116.531	10702.109
530.0	0.97975	0.0202485	2.7409	10.31517	-8.08883	28.20219	177.38492	0.11093	9.01476	47.53441	58.87523	17.50754	0.35754	2.96978	38730.0837	1.31995	1.01213E-4	772.56906	12500.36	62.0224	10863.746
525.0	0.98731	0.0126888	2.74341	10.30596	-8.17086	27.86379	178.20401	0.10973	9.11312	49.29124	59.03122	18.1785	0.35576	3.01573	45076.59161	1.29175	8.64212E-5	771.01907	12268.139	46.4442	10947.795
520.0	0.99181	0.00819461	2.74548	10.29848	-8.23747	27.63639	178.73379	0.10872	9.19783	50.47768	59.20285	18.63267	0.35455	3.06241	51990.82358	1.26409	7.44587E-5	770.20417	12068.323	39.9632	10999.739
519.43	0.99219	0.00780717	2.7457	10.29771	-8.2444	27.61509	178.78222	0.10861	9.20691	50.58883	59.22297	18.67527	0.35443	3.06774	52823.19369	1.26099	7.32329E-5	770.14232	12046.933	 	11004.354
515.0	1.0	0.0	2.74769	10.28976	-8.3152	27.31853	179.62515	0.1075	9.30234	52.49637	59.37559	19.40511	0.35264	 	60869.05386	 	6.31974E-5	 	11821.386	49.3874	11099.103
510.0	1.0	0.0	2.74898	10.28493	-8.35822	27.26466	179.71167	0.10677	9.36624	52.79121	59.56658	19.51918	0.35229	 	69358.39688	 	5.51103E-5	 	11612.999	41.6774	 
505.0	1.0	0.0	2.75027	10.28012	-8.40111	27.21083	179.79561	0.10604	9.43082	53.08481	59.75602	19.63283	0.35194	 	79164.4548	 	4.79755E-5	 	11460.88	30.4238	 
500.0	1.0	0.0	2.75155	10.27532	-8.44384	27.15702	179.87693	0.10531	9.49611	53.37719	59.94393	19.74605	0.35159	 	90511.59632	 	4.16914E-5	 	11309.185	30.339	 
495.0	1.0	0.0	2.75283	10.27054	-8.48643	27.10326	179.95563	0.10458	9.5621	53.66865	60.13067	19.85897	0.35124	 	103665.8111	 	3.61657E-5	 	11157.906	30.2558	 
490.0	1.0	0.0	2.75411	10.26578	-8.52887	27.04952	180.03166	0.10385	9.62882	53.95859	60.31558	19.97136	0.3509	 	118943.0544	 	3.13154E-5	 	11007.035	30.1742	 
485.0	1.0	0.0	2.75538	10.26103	-8.57117	26.99581	180.105	0.10313	9.69627	54.2473	60.49901	20.08332	0.35056	 	136719.3904	 	2.70652E-5	 	10856.564	30.0942	 
480.0	1.0	0.0	2.75665	10.2563	-8.61332	26.94214	180.17563	0.10241	9.76447	54.53479	60.68098	20.19486	0.35021	 	157443.3471	 	2.33477E-5	 	10706.485	30.0158	 
475.0	1.0	0.0	2.75792	10.25159	-8.65533	26.8885	180.24353	0.10169	9.83343	54.82107	60.86153	20.30598	0.34987	 	181650.9992	 	2.01019E-5	 	10556.79	29.939	 
470.0	1.0	0.0	2.75919	10.24689	-8.69719	26.8349	180.30865	0.10098	9.90316	55.10611	61.04063	20.41667	0.34954	 	209984.4243	 	1.72733E-5	 	10407.471	29.8638	 
465.0	1.0	0.0	2.76045	10.24221	-8.7389	26.78132	180.37097	0.10026	9.97369	55.38994	61.21833	20.52694	0.3492	 	243214.3362	 	1.4813E-5	 	10258.52	29.7902	 
460.0	1.0	0.0	2.76171	10.23754	-8.78047	26.72778	180.43047	0.0995518	10.04502	55.67253	61.39463	20.63678	0.34887	 	282267.9087	 	1.2677E-5	 	10109.929	29.7182	 
455.0	1.0	0.0	2.76296	10.23289	-8.82189	26.67427	180.48711	0.0988418	10.11717	55.95391	61.56955	20.74619	0.34853	 	328263.06	 	1.08264E-5	 	9961.691	29.6476	 
450.0	1.0	0.0	2.76421	10.22826	-8.86317	26.62079	180.54087	0.0981339	10.19016	56.23407	61.74312	20.85517	0.3482	 	382550.8031	 	9.22627E-6	 	9813.796	29.579	 
445.0	1.0	0.0	2.76546	10.22365	-8.9043	26.56735	180.5917	0.0974279	10.264	56.513	61.91533	20.96373	0.34788	 	446767.687	 	7.84549E-6	 	9666.238	29.5116	 
440.0	1.0	0.0	2.7667	10.21905	-8.94529	26.51393	180.63958	0.096724	10.3387	56.79071	62.08622	21.07186	0.34755	 	522900.9019	 	6.65653E-6	 	9519.008	29.446	 
435.0	1.0	0.0	2.76795	10.21446	-8.98613	26.46055	180.68448	0.0960219	10.41429	57.0672	62.25579	21.17955	0.34722	 	613369.3117	 	5.63495E-6	 	9372.099	29.3818	 
430.0	1.0	0.0	2.76918	10.20989	-9.02683	26.40721	180.72636	0.0953219	10.49077	57.34247	62.42406	21.28682	0.3469	 	721124.5794	 	4.7591E-6	 	9225.503	29.3192	 
425.0	1.0	0.0	2.77042	10.20534	-9.06739	26.35389	180.76519	0.0946237	10.56817	57.61652	62.59105	21.39366	0.34658	 	849777.7049	 	4.00987E-6	 	9079.213	29.258	 
420.0	1.0	0.0	2.77165	10.20081	-9.1078	26.30061	180.80092	0.0939275	10.64651	57.88935	62.75676	21.50006	0.34626	 	1003757.798	 	3.37043E-6	 	8933.219	29.1988	 
415.0	1.0	0.0	2.77288	10.19629	-9.14806	26.24736	180.83353	0.0932331	10.7258	58.16096	62.92121	21.60604	0.34594	 	1188511.855	 	2.82596E-6	 	8787.518	29.1402	 
410.0	1.0	0.0	2.7741	10.19179	-9.18818	26.19414	180.86298	0.0925406	10.80606	58.43135	63.08442	21.71158	0.34563	 	1410756.845	 	2.36347E-6	 	8642.11	29.0816	 
405.0	1.0	0.0	2.77533	10.1873	-9.22816	26.14096	180.88923	0.09185	10.88732	58.70052	63.2464	21.81669	0.34531	 	1678798.738	 	1.97158E-6	 	8496.995	29.023	 
400.0	1.0	0.0	2.77654	10.18283	-9.268	26.0878	180.91223	0.0911612	10.96958	58.96848	63.40716	21.92136	0.345	 	2002937.441	 	1.64033E-6	 	8352.17	28.965	 
395.0	1.0	0.0	2.77776	10.17837	-9.30769	26.03468	180.93195	0.0904742	11.05287	59.23521	63.56671	22.0256	0.34469	 	2395982.347	 	1.36106E-6	 	8207.636	28.9068	 
390.0	1.0	0.0	2.77897	10.17394	-9.34723	25.9816	180.94834	0.089789	11.13722	59.50072	63.72508	22.1294	0.34438	 	2873910.746	 	1.12623E-6	 	8063.392	28.8488	 
385.0	1.0	0.0	2.78018	10.16951	-9.38664	25.92854	180.96137	0.0891056	11.22264	59.76502	63.88227	22.23277	0.34408	 	3456711.35	 	9.29284E-7	 	7919.437	28.791	 
380.0	1.0	0.0	2.78139	10.16511	-9.4259	25.87552	180.97099	0.088424	11.30915	60.02809	64.03829	22.3357	0.34377	 	4169468.481	 	7.64573E-7	 	7775.77	28.7334	 
375.0	1.0	0.0	2.78259	10.16072	-9.46501	25.82253	180.97714	0.0877441	11.39678	60.28995	64.19316	22.43819	0.34347	 	5043760.173	 	6.27203E-7	 	7632.391	28.6758	 
370.0	1.0	0.0	2.78379	10.15634	-9.50398	25.76957	180.9798	0.0870659	11.48555	60.55059	64.34689	22.54025	0.34317	 	6119467.196	 	5.12962E-7	 	7489.3	28.6182	 
365.0	1.0	0.0	2.78498	10.15199	-9.54282	25.71664	180.9789	0.0863895	11.57548	60.81002	64.49949	22.64186	0.34287	 	7447121.843	 	4.18236E-7	 	7346.494	28.5612	 
360.0	1.0	0.0	2.78617	10.14764	-9.5815	25.66375	180.9744	0.0857147	11.6666	61.06822	64.65098	22.74304	0.34257	 	9090968.286	 	3.39925E-7	 	7203.975	28.5038	 
355.0	1.0	0.0	2.78736	10.14332	-9.62005	25.61089	180.96624	0.0850417	11.75894	61.32521	64.80136	22.84378	0.34227	 	1.113296446E7	 	2.75384E-7	 	7061.741	28.4468	 
350.0	1.0	0.0	2.78854	10.13901	-9.65845	25.55806	180.95438	0.0843703	11.85251	61.58099	64.95064	22.94408	0.34198	 	1.367803447E7	 	2.22359E-7	 	6919.792	28.3898	 
345.0	1.0	0.0	2.78973	10.13471	-9.69671	25.50526	180.93876	0.0837006	11.94735	61.83555	65.09886	23.04394	0.34169	 	1.686098818E7	 	1.78936E-7	 	6778.126	28.3332	 
340.0	1.0	0.0	2.7909	10.13044	-9.73483	25.4525	180.91932	0.0830325	12.04348	62.08889	65.246	23.14335	0.3414	 	2.085567253E7	 	1.43493E-7	 	6636.745	28.2762	 
335.0	1.0	0.0	2.79208	10.12617	-9.7728	25.39977	180.89601	0.082366	12.14094	62.34101	65.39207	23.24232	0.34111	 	2.588712191E7	 	1.1466E-7	 	6495.647	28.2196	 
330.0	1.0	0.0	2.79325	10.12193	-9.81064	25.34707	180.86876	0.0817011	12.23974	62.59192	65.5371	23.34085	0.34082	 	3.224775572E7	 	9.12878E-8	 	6354.831	28.1632	 
325.0	1.0	0.0	2.79442	10.1177	-9.84833	25.2944	180.83752	0.0810378	12.33992	62.84161	65.6811	23.43894	0.34054	 	4.031906035E7	 	7.2408E-8	 	6214.298	28.1066	 
320.0	1.0	0.0	2.79558	10.11348	-9.88588	25.24177	180.80222	0.0803761	12.44151	63.09008	65.82406	23.53658	0.34026	 	5.060073551E7	 	5.7213E-8	 	6074.046	28.0504	 
315.0	1.0	0.0	2.79674	10.10929	-9.92328	25.18917	180.76279	0.0797159	12.54454	63.33734	65.96601	23.63378	0.33997	 	6.37500441E7	 	4.50292E-8	 	5934.076	27.994	 
310.0	1.0	0.0	2.7979	10.1051	-9.96055	25.1366	180.71918	0.0790573	12.64905	63.58338	66.10695	23.73053	0.3397	 	8.063517343E7	 	3.52974E-8	 	5794.387	27.9378	 
305.0	1.0	0.0	2.79906	10.10094	-9.99768	25.08406	180.6713	0.0784003	12.75506	63.82821	66.2469	23.82684	0.33942	 	1.024079256E8	 	2.75546E-8	 	5654.979	27.8816	 
300.0	1.0	0.0	2.80021	10.09679	-10.03466	25.03156	180.61909	0.0777447	12.86261	64.07183	66.38587	23.9227	0.33914	 	1.306031992E8	 	2.14191E-8	 	5515.851	27.8256	 
295.0	1.0	0.0	2.80135	10.09265	-10.0715	24.97909	180.56246	0.0770906	12.97174	64.31422	66.52386	24.01811	0.33887	 	1.672757872E8	 	1.65774E-8	 	5377.004	27.7694	 
290.0	1.0	0.0	2.8025	10.08853	-10.1082	24.92665	180.50136	0.0764381	13.08249	64.55541	66.66088	24.11308	0.3386	 	2.151894058E8	 	1.27729E-8	 	5238.436	27.7136	 
285.0	1.0	0.0	2.80364	10.08443	-10.14476	24.87424	180.43568	0.075787	13.19488	64.79538	66.79695	24.20759	0.33833	 	2.780792085E8	 	9.79646E-9	 	5100.148	27.6576	 
280.0	1.0	0.0	2.80477	10.08034	-10.18118	24.82186	180.36536	0.0751373	13.30896	65.03413	66.93207	24.30166	0.33806	 	3.610182231E8	 	7.47826E-9	 	4962.141	27.6014	 
275.0	1.0	0.0	2.80591	10.07627	-10.21746	24.76952	180.2903	0.0744892	13.42477	65.27167	67.06626	24.39528	0.33779	 	4.709315513E8	 	5.68105E-9	 	4824.412	27.5458	 
270.0	1.0	0.0	2.80704	10.07221	-10.2536	24.71721	180.21042	0.0738424	13.54235	65.508	67.19951	24.48845	0.33753	 	6.17321813E8	 	4.29432E-9	 	4686.963	27.4898	 
265.0	1.0	0.0	2.80816	10.06817	-10.2896	24.66493	180.12562	0.0731971	13.66174	65.74311	67.33186	24.58117	0.33727	 	8.132982996E8	 	3.22954E-9	 	4549.794	27.4338	 
260.0	1.0	0.0	2.80929	10.06415	-10.32546	24.61269	180.03581	0.0725532	13.78299	65.97701	67.46329	24.67343	0.33701	 	1.077045299E9	 	2.41603E-9	 	4412.904	27.378	 
255.0	1.0	0.0	2.81041	10.06014	-10.36118	24.56048	179.94089	0.0719107	13.90614	66.2097	67.59382	24.76525	0.33675	 	1.43392925E9	 	1.7977E-9	 	4276.294	27.322	 
250.0	1.0	0.0	2.81152	10.05615	-10.39675	24.5083	179.84076	0.0712696	14.03123	66.44117	67.72346	24.85661	0.33649	 	1.919540812E9	 	1.3302E-9	 	4139.963	27.2662	 
245.0	1.0	0.0	2.81263	10.05217	-10.43219	24.45615	179.73531	0.0706298	14.15832	66.67143	67.85222	24.94752	0.33623	 	2.584113759E9	 	9.78657E-10	 	4003.913	27.21	 
240.0	1.0	0.0	2.81374	10.04821	-10.46749	24.40404	179.62443	0.0699915	14.28746	66.90048	67.9801	25.03798	0.33598	 	3.498984498E9	 	7.15796E-10	 	3868.142	27.1542	 
235.0	1.0	0.0	2.81485	10.04426	-10.50265	24.35195	179.508	0.0693544	14.41869	67.12832	68.10712	25.12798	0.33573	 	4.766096078E9	 	5.20374E-10	 	3732.652	27.098	 
230.0	1.0	0.0	2.81595	10.04033	-10.53767	24.2999	179.38591	0.0687187	14.55207	67.35494	68.23328	25.21753	0.33548	 	6.532075215E9	 	3.75953E-10	 	3597.443	27.0418	 
225.0	1.0	0.0	2.81705	10.03642	-10.57255	24.24789	179.25803	0.0680844	14.68765	67.58035	68.3586	25.30662	0.33523	 	9.009226299E9	 	2.69873E-10	 	3462.515	26.9856	 
220.0	1.0	0.0	2.81814	10.03252	-10.60729	24.1959	179.12424	0.0674514	14.8255	67.80455	68.48307	25.39525	0.33498	 	1.2507099999999998E10	 	1.92447E-10	 	3327.869	26.9292	 
215.0	1.0	0.0	2.81923	10.02864	-10.64189	24.14395	178.98439	0.0668197	14.96566	68.02753	68.60671	25.48343	0.33474	 	1.748E10	 	1.36301E-10	 	3193.505	26.8728	 
210.0	1.0	0.0	2.82032	10.02477	-10.67635	24.09203	178.83835	0.0661892	15.10819	68.24931	68.72953	25.57116	0.3345	 	2.4600099999999996E10	 	9.58587E-11	 	3059.425	26.816	 
205.0	1.0	0.0	2.82141	10.02092	-10.71068	24.04014	178.68597	0.0655601	15.25317	68.46987	68.85152	25.65842	0.33426	 	3.48687E10	 	6.6929E-11	 	2925.627	26.7596	 
200.0	1.0	0.0	2.82249	10.01708	-10.74486	23.98828	178.5271	0.0649323	15.40066	68.68923	68.97272	25.74523	0.33402	 	4.978939999999999E10	 	4.63819E-11	 	2792.115	26.7024	 
195.0	1.0	0.0	2.82356	10.01326	-10.77891	23.93646	178.36158	0.0643057	15.55071	68.90737	69.09311	25.83158	0.33378	 	7.16379E10	 	3.18955E-11	 	2658.887	26.6456	 
190.0	1.0	0.0	2.82464	10.00945	-10.81281	23.88467	178.18925	0.0636805	15.7034	69.1243	69.2127	25.91747	0.33355	 	1.03887E11	 	2.17595E-11	 	2525.946	26.5882	 
185.0	1.0	0.0	2.82571	10.00566	-10.84658	23.83291	178.00993	0.0630565	15.8588	69.34002	69.33151	26.0029	0.33331	 	1.5188E11	 	1.47229E-11	 	2393.293	26.5306	 
180.0	1.0	0.0	2.82677	10.00189	-10.88022	23.78118	177.82345	0.0624337	16.01699	69.55453	69.44954	26.08788	0.33308	 	2.23913E11	 	9.87754E-12	 	2260.928	26.473	 
175.0	1.0	0.0	2.82784	9.99813	-10.91371	23.72949	177.62961	0.0618122	16.17804	69.76782	69.5668	26.17239	0.33285	 	3.32983E11	 	6.56883E-12	 	2128.853	26.415	 
170.0	1.0	0.0	2.8289	9.99439	-10.94706	23.67783	177.42823	0.0611919	16.34203	69.97991	69.6833	26.25644	0.33262	 	4.99635E11	 	4.32897E-12	 	1997.069	26.3568	 
165.0	1.0	0.0	2.82995	9.99066	-10.98028	23.6262	177.21909	0.0605729	16.50903	70.19079	69.79904	26.34003	0.3324	 	7.56668E11	 	2.82621E-12	 	1865.579	26.298	 
160.0	1.0	0.0	2.831	9.98695	-11.01336	23.57461	177.00198	0.0599551	16.67914	70.40046	69.91403	26.42315	0.33217	 	1.15696E12	 	1.82728E-12	 	1734.382	26.2394	 
155.0	1.0	0.0	2.83205	9.98325	-11.0463	23.52304	176.77668	0.0593386	16.85245	70.60892	70.02828	26.50582	0.33195	 	1.78666E12	 	1.16961E-12	 	1603.483	26.1798	 
150.0	1.0	0.0	2.8331	9.97957	-11.07911	23.47151	176.54295	0.0587232	17.02903	70.81617	70.14179	26.58802	0.33173	 	2.78755E12	 	7.40897E-13	 	1472.881	26.1204	 
145.0	1.0	0.0	2.83414	9.9759	-11.11178	23.42001	176.30054	0.0581092	17.20899	71.02222	70.25457	26.66976	0.33151	 	4.39567E12	 	4.64295E-13	 	1342.58	26.0602	 
140.0	1.0	0.0	2.83518	9.97225	-11.14431	23.36855	176.0492	0.0574963	17.39243	71.22705	70.36663	26.75103	0.3313	 	7.00832E12	 	2.87727E-13	 	1212.582	25.9996	 
135.0	1.0	0.0	2.83621	9.96861	-11.1767	23.31711	175.78865	0.0568846	17.57944	71.43067	70.47797	26.83184	0.33108	 	1.13023E13	 	1.76254E-13	 	1082.889	25.9386	 
130.0	1.0	0.0	2.83724	9.96499	-11.20896	23.26571	175.51861	0.0562742	17.77012	71.63309	70.58861	26.91219	0.33087	 	1.84445E13	 	1.06681E-13	 	953.503	25.8772	 
125.0	1.0	0.0	2.83827	9.96139	-11.24108	23.21434	175.23879	0.055665	17.9646	71.8343	70.69854	26.99206	0.33066	 	3.04727E13	 	6.37709E-14	 	824.428	25.815	 
120.0	1.0	0.0	2.83929	9.9578	-11.27306	23.163	174.94886	0.0550571	18.16296	72.0343	70.80777	27.07148	0.33045	 	5.09918E13	 	3.76309E-14	 	695.667	25.7522	 
115.0	1.0	0.0	2.84031	9.95423	-11.30491	23.1117	174.64849	0.0544504	18.36535	72.23309	70.91631	27.15042	0.33024	 	8.64669E13	 	2.19097E-14	 	567.222	25.689	 
110.0	1.0	0.0	2.84132	9.95067	-11.33662	23.06043	174.33735	0.0538449	18.57187	72.43067	71.02417	27.22891	0.33003	 	1.48657E14	 	1.25797E-14	 	439.098	25.6248	 
105.0	1.0	0.0	2.84234	9.94712	-11.36819	23.00919	174.01506	0.0532407	18.78264	72.62705	71.13136	27.30692	0.32983	 	2.5926499999999997E14	 	7.1188E-15	 	311.298	25.56	 
100.0	1.0	0.0	2.84335	9.9436	-11.39963	22.95798	173.68123	0.0526377	18.9978	72.82222	71.23787	27.38446	0.32963	 	4.58962E14	 	3.9682E-15	 	183.826	25.4944	 
95.0	1.0	0.0	2.84435	9.94008	-11.43093	22.90681	173.33547	0.0520359	19.21749	73.01619	71.34372	27.46154	0.32943	 	8.25176E14	 	2.17753E-15	 	56.686	25.428	 
90.0	1.0	0.0	2.84535	9.93659	-11.4621	22.85567	172.97734	0.0514355	19.44183	73.20895	71.4489	27.53815	0.32923	 	1.50776E15	 	1.17555E-15	 	-70.117	25.3606	 
85.0	1.0	0.0	2.84635	9.9331	-11.49313	22.80456	172.60638	0.0508363	19.67097	73.4005	71.55344	27.61429	0.32903	 	2.80173E15	 	6.23915E-16	 	-196.578	25.2922	 
80.0	1.0	0.0	2.84734	9.92964	-11.52402	22.75348	172.22212	0.0502385	19.90507	73.59085	71.65732	27.68996	0.32884	 	5.29835E15	 	3.25316E-16	 	-322.692	25.2228	 
75.0	1.0	0.0	2.84833	9.92618	-11.55478	22.70243	171.82405	0.0496419	20.14427	73.77999	71.76057	27.76516	0.32864	 	1.02048E16	 	1.66514E-16	 	-448.454	25.1524	 
70.0	1.0	0.0	2.84932	9.92275	-11.5854	22.65142	171.41163	0.0490467	20.38873	73.96793	71.86317	27.8399	0.32845	 	2.00337E16	 	8.36006E-17	 	-573.856	25.0804	 
65.0	1.0	0.0	2.8503	9.91932	-11.61589	22.60044	170.9843	0.0484528	20.63863	74.15466	71.96515	27.91416	0.32826	 	4.01221E16	 	4.11351E-17	 	-698.893	25.0074	 
60.0	1.0	0.0	2.85128	9.91592	-11.64625	22.54949	170.54145	0.0478604	20.89412	74.34019	72.06651	27.98795	0.32808	 	8.20462E16	 	1.98184E-17	 	-823.558	24.933	 
55.0	1.0	0.0	2.85226	9.91253	-11.67646	22.49858	170.08245	0.0472693	21.15539	74.52452	72.16724	28.06127	0.32789	 	1.71475E17	 	9.34023E-18	 	-947.844	24.8572	 
50.0	1.0	0.0	2.85323	9.90915	-11.70655	22.4477	169.6066	0.0466796	21.42262	74.70764	72.26737	28.13412	0.32771	 	3.6665E17	 	4.3017E-18	 	-1071.741	24.7794	 
45.0	1.0	0.0	2.8542	9.90579	-11.7365	22.39685	169.11319	0.0460915	21.69599	74.88956	72.36688	28.20649	0.32752	 	8.02925E17	 	1.93394E-18	 	-1195.243	24.7004	 
40.0	1.0	0.0	2.85516	9.90244	-11.76631	22.34603	168.60146	0.0455048	21.97571	75.07027	72.4658	28.2784	0.32734	 	1.80289E18	 	8.47753E-19	 	-1318.339	24.6192	 
35.0	1.0	0.0	2.85612	9.89911	-11.79599	22.29524	168.07057	0.0449197	22.26196	75.24979	72.56411	28.34983	0.32716	 	4.15589E18	 	3.61896E-19	 	-1441.02	24.5362	 
30.0	1.0	0.0	2.85708	9.8958	-11.82553	22.24449	167.51966	0.0443361	22.55496	75.4281	72.66184	28.42079	0.32699	 	9.84745E18	 	1.50252E-19	 	-1563.275	24.451	 
25.0	1.0	0.0	2.85803	9.8925	-11.85495	 	166.94779	0.0437542	22.85492	75.60521	72.75898	28.49127	0.32681	 	2.40187E19	 	6.05861E-20	 	-1685.093	 	 
