T (C)	Fraction solid (wt)-TOTAL	Fraction liquid (wt)-LIQUID	Density (g/(cm)^3)-TOTAL	Molar volume (cm^3)-TOTAL	Volume change (%)-  	Average expansion coeff. (10e-6 1/K)-  	Thermal conductivity (W/(m*K))-TOTAL	Electrical resistivity (10e-6 Ohm*m)-TOTAL	Electrical conductivity (10e6 1/(Ohm*m))-TOTAL	Young's modulus (GPa)-TOTAL	Bulk modulus (GPa)-TOTAL	Shear modulus(GPa)-TOTAL	Poisson's ratio-TOTAL	Liquid viscosity (mPa s)-  	Total viscosity (mPa s)-  	Liquid diffusivity (10e-9 (m^2)/s)-  	Total diffusivity (10e-9 (m^2)/s)-  	Surface Tension (mN/m)-  	Enthalpy (J/mole)-TOTAL	Specific heat (J/(mole K))-TOTAL	Latent heat (J/mole)-TOTAL
700.0	0.00458	0.99542	2.53113	11.21353	0.0	66.41856	89.27742	0.26706	3.74452	1.20227E-8	52.54775	4.0104E-9	0.49895	1.32646	1.32646	3.58073	3.58073	792.68306	28446.88	 	0.0
695.0	0.0048	0.9952	2.53288	11.20572	-0.069674	66.52096	89.10933	0.26619	3.75677	1.4615E-8	52.6252	4.87527E-9	0.49889	1.34083	1.34083	3.52415	3.52415	793.89408	28286.049	32.1662	3.918
690.0	0.00501	0.99499	2.53462	11.19806	-0.13793	66.63298	88.9422	0.26531	3.76919	1.75002E-8	52.70325	5.83789E-9	0.49885	1.35552	1.35552	3.46797	3.46797	795.10301	28125.363	32.1372	7.692
685.0	0.00521	0.99479	2.53637	11.19034	-0.20677	66.7433	88.77425	0.26443	3.7817	2.06796E-8	52.78092	6.89873E-9	0.4988	1.37053	1.37053	3.41217	3.41217	796.30953	27964.818	32.109	11.334
680.0	0.0054	0.9946	2.53811	11.18266	-0.27524	66.85751	88.60637	0.26355	3.79435	2.41513E-8	52.85865	8.05713E-9	0.49875	1.38588	1.38588	3.35678	3.35678	797.51339	27804.408	32.082	14.846
675.0	0.00559	0.99441	2.53984	11.17503	-0.3433	66.97582	88.43855	0.26266	3.80714	2.79056E-8	52.93648	9.30991E-9	0.49871	1.40157	1.40157	3.30179	3.30179	798.71448	27644.128	32.056	18.236
670.0	0.00577	0.99423	2.54157	11.16744	-0.41105	67.09782	88.27073	0.26178	3.82006	3.19422E-8	53.01429	1.06569E-8	0.49866	1.41761	1.41761	3.2472	3.2472	799.91267	27483.975	32.0306	21.507
665.0	0.00594	0.99406	2.54329	11.15988	-0.47841	67.22397	88.10296	0.26088	3.83312	3.62478E-8	53.09219	1.20937E-8	0.49862	1.43402	1.43402	3.19303	3.19303	801.10783	27323.943	32.0064	24.661
660.0	0.00611	0.99389	2.54501	11.15237	-0.54541	67.35431	87.93523	0.25999	3.84632	4.08147E-8	53.17016	1.36177E-8	0.49859	1.45081	1.45081	3.13926	3.13926	802.29977	27164.019	31.9848	27.706
655.0	0.00627	0.99373	2.54673	11.14479	-0.61303	67.48293	87.76668	0.25909	3.85963	4.56313E-8	53.2477	1.52252E-8	0.49854	1.46799	1.46799	3.08591	3.08591	803.48862	27004.405	31.9228	30.643
650.0	0.00642	0.99358	2.54844	11.13736	-0.67929	67.62189	87.59902	0.25819	3.87312	5.06829E-8	53.32583	1.69111E-8	0.49851	1.48556	1.48556	3.03297	3.03297	804.67391	26845.232	31.8346	33.473
645.0	0.00656	0.99344	2.55015	11.12985	-0.7462	67.75912	87.43054	0.25729	3.88672	5.59603E-8	53.40352	1.86725E-8	0.49847	1.50355	1.50355	2.98045	2.98045	805.43938	26686.498	31.7468	36.202
642.31	0.00664	0.99336	2.55106	11.12594	-0.78113	67.84045	87.34067	0.2568	3.89414	5.88742E-8	53.44581	1.96449E-8	0.49846	1.5134	1.5134	2.95237	2.95237	806.08687	26601.272	31.6775	37.623
642.31	0.00664	0.99336	2.55106	11.12593	-0.78115	67.8405	87.34062	0.2568	3.89414	5.88743E-8	53.44583	1.9645E-8	0.49846	1.51341	1.51341	2.95236	2.95236	806.08633	26601.225	 	37.625
640.0	0.00672	0.99328	2.55185	11.12246	-0.81216	67.90444	87.26312	0.25638	3.90052	5.90559E-8	53.48155	1.97058E-8	0.49844	1.52195	1.52195	2.92839	2.92839	806.63995	26527.91	31.7644	39.122
639.88	0.00672	0.99328	2.5519	11.12226	-0.81388	67.90752	87.25892	0.25635	3.90086	5.90649E-8	53.48342	1.97089E-8	0.49844	1.52241	1.53291	2.92711	2.90705	806.66964	26523.973	 	39.203
639.88	0.00672	0.99328	2.5519	11.12226	-0.81388	67.90751	87.25892	0.25635	3.90086	5.90649E-8	53.48342	1.97088E-8	0.49844	1.52241	1.53291	2.92711	2.90705	806.66966	26524.0	 	39.177
635.0	0.13135	0.86865	2.57506	11.02221	-1.70614	62.9188	93.94928	0.23683	4.2225	0.00977771	53.8911	0.00329595	0.48329	1.55944	3.20879	2.84234	1.38135	804.78845	24986.441	308.294	1425.258
630.0	0.2605	0.7395	2.59948	10.91869	-2.62928	57.66858	101.7157	0.21754	4.59687	0.17506	54.43764	0.0596555	0.46723	1.6071	25.9026	2.74285	0.17018	802.35919	23396.137	318.061	2860.57
629.28	0.27645	0.72355	2.60254	10.90579	-2.74435	57.01722	102.76138	0.21515	4.64784	0.22456	54.51	0.0766292	0.46521	1.61429	32.77506	2.72847	0.13439	802.02556	23196.509	 	3037.878
625.0	0.37122	0.62878	2.62107	10.82861	-3.43258	53.08611	109.31652	0.20129	4.96788	0.75902	54.89821	0.26126	0.45262	1.65871	110.65008	2.64281	0.0396172	799.9649	21996.114	280.005	4105.936
620.0	0.45721	0.54279	2.63832	10.7576	-4.06592	49.50691	116.20309	0.18831	5.3104	1.81967	55.30003	0.6314	0.44098	1.71405	277.88502	2.54324	0.0156872	797.95598	20872.919	224.639	5074.811
615.0	0.52286	0.47714	2.65187	10.70233	-4.55873	46.76774	121.95275	0.17843	5.60453	3.21883	55.658	1.12397	0.4319	1.77213	523.6234	2.44611	0.00827854	796.34705	19979.267	178.73	5814.482
610.0	0.57412	0.42588	2.66276	10.65814	-4.9528	44.62006	127.10409	0.17023	5.87434	4.81049	55.98332	1.68827	0.42468	1.83266	841.41847	2.35201	0.00512282	795.06987	19247.712	146.311	6392.388
605.0	0.61507	0.38493	2.67173	10.62188	-5.27621	42.89601	131.56738	0.16353	6.11524	6.48562	56.28431	2.28561	0.41879	1.89553	1227.73908	2.26113	0.003491	794.06215	18632.264	123.09	6854.526
604.71	0.61716	0.38284	2.67219	10.62001	-5.29284	42.80896	131.80521	0.16318	6.12831	6.58236	56.30118	2.3202	0.41849	1.89923	1251.99917	2.25598	0.00342222	794.00977	18599.756	 	6878.181
604.71	0.61716	0.38284	2.67219	10.62001	-5.29284	42.80895	131.8052	0.16318	6.12831	6.58237	56.30119	2.3202	0.41849	1.89923	1252.00936	2.25598	0.00342219	794.00987	18599.746	 	6878.179
600.0	0.65042	0.34958	2.67961	10.5901	-5.5596	41.40525	135.66266	0.15769	6.3417	8.2738	56.57036	2.92648	0.41361	1.96089	1702.40652	2.17331	0.0025033	793.22119	18071.453	112.162	7262.359
595.0	0.67931	0.32069	2.68626	10.56325	-5.79904	40.17989	139.20453	0.15279	6.54474	10.0174	56.84085	3.55404	0.4093	2.02874	2249.8685	2.0886	0.00188332	792.58463	17585.278	97.235	7595.89
590.0	0.70321	0.29679	2.69195	10.5403	-6.00369	39.16572	142.27454	0.14864	6.72783	11.68043	57.09944	4.15477	0.40567	2.09906	2873.89979	2.007	0.00146589	792.11375	17157.147	85.6262	7871.709
585.0	0.7233	0.2767	2.69691	10.52025	-6.18248	38.30802	144.95408	0.14504	6.89447	13.25272	57.34807	4.72449	0.40255	2.1719	3583.04694	1.92846	0.00116895	791.77845	16773.45	76.7394	8103.424
580.0	0.74042	0.25958	2.70129	10.50252	-6.34066	37.57537	147.31175	0.14189	7.04768	14.73359	57.58869	5.26255	0.39985	2.24729	4388.95222	1.8529	9.48749E-4	791.55474	16424.454	69.7992	8300.769
576.03	0.75227	0.24773	2.70443	10.48976	-6.45441	37.06516	148.98726	0.13964	7.16113	15.84378	57.77454	5.66682	0.39794	2.30896	5105.93858	1.79503	8.11732E-4	791.44259	16167.722	 	8437.419
575.0	0.75624	0.24376	2.70537	10.48592	-6.48862	36.89958	149.50729	0.13899	7.19488	16.21397	57.82146	5.80193	0.39729	2.32474	5331.77679	1.78068	7.76403E-4	791.37952	16090.672	66.7564	8483.226
570.0	0.77323	0.22677	2.70955	10.46899	-6.6396	36.19047	151.77336	0.13611	7.34725	17.89499	58.04681	6.41643	0.39447	2.40328	6500.25472	1.71233	6.33084E-4	791.17782	15744.06	69.3224	8678.839
565.0	0.7872	0.2128	2.71319	10.45418	-6.77172	35.60038	153.69531	0.13361	7.48467	19.40518	58.26736	6.96978	0.3921	2.48496	7807.34762	1.64623	5.23968E-4	791.10019	15432.525	62.307	8839.699
560.0	0.79897	0.20103	2.71644	10.44095	-6.8897	35.09914	155.35297	0.13139	7.6108	20.77551	58.4841	7.47289	0.39006	2.5699	9280.45693	1.58232	4.38168E-4	791.11684	15146.79	57.147	8975.079
555.0	0.80906	0.19094	2.71938	10.42892	-6.99701	34.6646	156.80273	0.1294	7.7282	22.03147	58.69703	7.93486	0.38827	2.65805	10950.75973	1.52066	3.69106E-4	791.20722	14880.678	53.2224	9091.156
550.0	0.81785	0.18215	2.72208	10.41782	-7.09594	34.2821	158.08479	0.12757	7.83872	23.19244	58.90653	8.3626	0.38668	2.74953	12853.56139	1.46119	3.12566E-4	791.35646	14629.903	50.155	9192.214
549.44	0.81876	0.18124	2.72237	10.41663	-7.10654	34.24244	158.22057	0.12738	7.85082	23.31748	58.92998	8.4087	0.38651	2.76007	13083.85	1.45462	3.06855E-4	791.376	14602.54	 	9202.751
545.0	0.83259	0.16741	2.72547	10.40392	-7.21997	33.70976	159.98426	0.12529	7.98138	25.05026	59.09987	9.04922	0.38411	2.82842	15464.15445	1.41181	2.58222E-4	791.09838	14312.344	63.5118	9360.37
540.69	0.84263	0.15737	2.72801	10.39353	-7.31261	33.31209	161.30554	0.12361	8.08991	26.41637	59.26741	9.55513	0.38231	2.90128	17937.46282	1.3691	2.21445E-4	791.0333	14069.204	 	9474.997
540.0	0.86233	0.13767	2.73091	10.38191	-7.41618	32.59624	163.02277	0.1222	8.18298	28.87834	59.21411	10.47346	0.37864	2.9078	19694.99941	1.36488	2.01512E-4	788.88734	13840.302	94.4084	9683.321
535.0	0.93733	0.0626664	2.74274	10.33527	-7.83212	29.83162	169.78582	0.11662	8.57518	40.17746	59.07544	14.7234	0.36441	2.95575	29436.25036	1.33447	1.33997E-4	779.81007	12900.584	187.944	10474.256
530.0	0.96383	0.0361735	2.7479	10.31553	-8.00814	28.80887	172.30925	0.1142	8.75681	45.11049	59.14892	16.59551	0.35912	3.00444	36616.08789	1.30473	1.07056E-4	775.51924	12471.419	85.833	10754.946
525.0	0.97703	0.0229674	2.75124	10.30316	-8.1185	28.26229	173.62913	0.11262	8.87916	47.88701	59.28459	17.65368	0.35629	3.05375	43480.29144	1.27567	8.9594E-5	773.13561	12181.301	58.0236	10896.892
520.0	0.98484	0.0151635	2.75384	10.29379	-8.20202	27.90964	174.45252	0.11139	8.97751	49.70886	59.44568	18.34995	0.35447	3.10392	50734.85752	1.24719	7.63019E-5	771.7233	11947.738	46.7126	10982.582
516.15	0.98892	0.0110829	2.75558	10.28766	-8.25671	27.70731	174.90728	0.11056	9.04481	50.75517	59.57851	18.75061	0.35343	3.14313	56813.48036	1.22565	6.78075E-5	771.03677	11788.165	 	11028.514
515.0	0.99226	0.00774244	2.75624	10.285	-8.28042	27.58938	175.25346	0.11018	9.07594	51.52653	59.61807	19.04551	0.35272	3.15777	59229.78301	1.21819	6.49465E-5	770.00739	11714.535	46.6406	11068.211
510.0	1.0	0.0	2.75841	10.2764	-8.35709	27.27602	176.09999	0.10896	9.178	53.49289	59.80119	19.79877	0.35091	 	69357.02354	 	5.51114E-5	 	11473.078	48.2914	11162.384
505.0	1.0	0.0	2.7597	10.27159	-8.39998	27.22226	176.16704	0.10822	9.2405	53.78909	59.99247	19.91352	0.35057	 	79162.87596	 	4.79765E-5	 	11233.681	47.8794	 
500.0	1.0	0.0	2.76099	10.2668	-8.44272	27.16854	176.23151	0.10748	9.30366	54.08406	60.18222	20.02785	0.35022	 	90509.77806	 	4.16922E-5	 	11082.106	30.315	 
495.0	1.0	0.0	2.76227	10.26203	-8.48531	27.11484	176.29339	0.10675	9.3675	54.37821	60.37092	20.14191	0.34988	 	103663.7133	 	3.61665E-5	 	10930.946	30.232	 
490.0	1.0	0.0	2.76356	10.25727	-8.52776	27.06118	176.35265	0.10602	9.43205	54.67072	60.55767	20.25538	0.34954	 	118940.6298	 	3.1316E-5	 	10780.193	30.1506	 
485.0	1.0	0.0	2.76483	10.25252	-8.57006	27.00756	176.40926	0.10529	9.4973	54.96206	60.74301	20.36846	0.3492	 	136716.5829	 	2.70658E-5	 	10629.839	30.0708	 
480.0	1.0	0.0	2.76611	10.24779	-8.61222	26.95396	176.4632	0.10457	9.56327	55.2521	60.92682	20.48109	0.34886	 	157440.0899	 	2.33482E-5	 	10479.876	29.9926	 
475.0	1.0	0.0	2.76738	10.24308	-8.65423	26.9004	176.51444	0.10384	9.62998	55.54091	61.10919	20.59328	0.34852	 	181647.2131	 	2.01023E-5	 	10330.296	29.916	 
470.0	1.0	0.0	2.76865	10.23839	-8.6961	26.84687	176.56295	0.10312	9.69744	55.82849	61.29012	20.70505	0.34819	 	209980.0146	 	1.72737E-5	 	10181.092	29.8408	 
465.0	1.0	0.0	2.76992	10.23371	-8.73782	26.79337	176.60871	0.1024	9.76566	56.11488	61.4697	20.81641	0.34785	 	243209.19	 	1.48133E-5	 	10032.256	29.7672	 
460.0	1.0	0.0	2.77118	10.22905	-8.77939	26.73991	176.65168	0.10168	9.83465	56.4	61.64784	20.92732	0.34752	 	282261.8907	 	1.26773E-5	 	9883.778	29.6956	 
455.0	1.0	0.0	2.77244	10.2244	-8.82082	26.68648	176.69185	0.10096	9.90443	56.68389	61.82459	21.0378	0.34719	 	328256.0078	 	1.08267E-5	 	9735.653	29.625	 
450.0	1.0	0.0	2.77369	10.21977	-8.86211	26.63308	176.72917	0.10025	9.97502	56.96654	61.99998	21.14784	0.34686	 	382542.5212	 	9.22647E-6	 	9587.871	29.5564	 
445.0	1.0	0.0	2.77495	10.21516	-8.90325	26.57971	176.76361	0.0995379	10.04643	57.24797	62.17403	21.25746	0.34654	 	446757.9398	 	7.84566E-6	 	9440.424	29.4894	 
440.0	1.0	0.0	2.7762	10.21056	-8.94425	26.52637	176.79515	0.0988272	10.11867	57.52817	62.34674	21.36664	0.34621	 	522889.4045	 	6.65668E-6	 	9293.306	29.4236	 
435.0	1.0	0.0	2.77744	10.20598	-8.9851	26.47307	176.82376	0.0981185	10.19176	57.80713	62.51813	21.47539	0.34589	 	613355.7192	 	5.63507E-6	 	9146.508	29.3596	 
430.0	1.0	0.0	2.77868	10.20142	-9.0258	26.4198	176.84939	0.0974116	10.26572	58.08487	62.68821	21.58371	0.34557	 	721108.4727	 	4.7592E-6	 	9000.022	29.2972	 
425.0	1.0	0.0	2.77992	10.19687	-9.06637	26.36656	176.87202	0.0967065	10.34057	58.36138	62.85701	21.69159	0.34525	 	849758.5737	 	4.00996E-6	 	8853.842	29.236	 
420.0	1.0	0.0	2.78116	10.19234	-9.10679	26.31335	176.89161	0.0960033	10.41631	58.63666	63.02453	21.79904	0.34494	 	1003735.019	 	3.3705E-6	 	8707.958	29.1768	 
415.0	1.0	0.0	2.78239	10.18782	-9.14706	26.26018	176.90813	0.0953019	10.49297	58.91072	63.1908	21.90605	0.34462	 	1188484.666	 	2.82603E-6	 	8562.367	29.1182	 
410.0	1.0	0.0	2.78362	10.18332	-9.18719	26.20704	176.92153	0.0946022	10.57057	59.18354	63.35581	22.01262	0.34431	 	1410724.31	 	2.36353E-6	 	8417.069	29.0596	 
405.0	1.0	0.0	2.78485	10.17884	-9.22718	26.15393	176.93179	0.0939044	10.64913	59.45514	63.51959	22.11876	0.344	 	1678759.706	 	1.97162E-6	 	8272.062	29.0014	 
400.0	1.0	0.0	2.78607	10.17437	-9.26702	26.10085	176.93886	0.0932083	10.72866	59.72551	63.68215	22.22446	0.34369	 	2002890.49	 	1.64037E-6	 	8127.347	28.943	 
395.0	1.0	0.0	2.78729	10.16992	-9.30672	26.0478	176.9427	0.092514	10.80918	59.99465	63.8435	22.32972	0.34338	 	2395925.717	 	1.36109E-6	 	7982.921	28.8852	 
390.0	1.0	0.0	2.78851	10.16548	-9.34628	25.99479	176.94327	0.0918214	10.89071	60.26256	64.00366	22.43455	0.34308	 	2873842.254	 	1.12625E-6	 	7838.785	28.8272	 
385.0	1.0	0.0	2.78972	10.16106	-9.38569	25.94181	176.94054	0.0911305	10.97328	60.52925	64.16263	22.53893	0.34277	 	3456628.278	 	9.29306E-7	 	7694.938	28.7694	 
380.0	1.0	0.0	2.79093	10.15666	-9.42496	25.88886	176.93445	0.0904413	11.0569	60.79472	64.32044	22.64287	0.34247	 	4169367.433	 	7.64592E-7	 	7551.38	28.7116	 
375.0	1.0	0.0	2.79214	10.15227	-9.46409	25.83595	176.92496	0.0897537	11.1416	61.05895	64.47708	22.74637	0.34217	 	5043636.897	 	6.27218E-7	 	7408.108	28.6544	 
370.0	1.0	0.0	2.79334	10.1479	-9.50307	25.78306	176.91203	0.0890679	11.2274	61.32196	64.63259	22.84944	0.34187	 	6119316.348	 	5.12975E-7	 	7265.124	28.5968	 
365.0	1.0	0.0	2.79454	10.14354	-9.54191	25.73021	176.89561	0.0883836	11.31431	61.58374	64.78696	22.95205	0.34157	 	7446936.685	 	4.18246E-7	 	7122.426	28.5396	 
360.0	1.0	0.0	2.79573	10.1392	-9.58061	25.67739	176.87565	0.087701	11.40238	61.8443	64.94021	23.05423	0.34128	 	9090740.293	 	3.39934E-7	 	6980.013	28.4826	 
355.0	1.0	0.0	2.79693	10.13488	-9.61917	25.62461	176.85211	0.08702	11.49161	62.10364	65.09235	23.15596	0.34099	 	1.113268282E7	 	2.75391E-7	 	6837.886	28.4254	 
350.0	1.0	0.0	2.79812	10.13057	-9.65758	25.57185	176.82492	0.0863406	11.58203	62.36174	65.2434	23.25725	0.34069	 	1.367768539E7	 	2.22365E-7	 	6696.043	28.3686	 
345.0	1.0	0.0	2.7993	10.12628	-9.69585	25.51913	176.79404	0.0856628	11.67368	62.61863	65.39335	23.3581	0.34041	 	1.686055404E7	 	1.78941E-7	 	6554.484	28.3118	 
340.0	1.0	0.0	2.80048	10.12201	-9.73398	25.46644	176.75941	0.0849866	11.76657	62.87429	65.54224	23.4585	0.34012	 	2.085513074E7	 	1.43496E-7	 	6413.208	28.2552	 
335.0	1.0	0.0	2.80166	10.11775	-9.77197	25.41379	176.72098	0.0843119	11.86073	63.12872	65.69006	23.55845	0.33983	 	2.588644336E7	 	1.14663E-7	 	6272.216	28.1984	 
330.0	1.0	0.0	2.80284	10.1135	-9.80982	25.36116	176.67869	0.0836387	11.95619	63.38193	65.83682	23.65796	0.33955	 	3.224690277E7	 	9.12902E-8	 	6131.506	28.142	 
325.0	1.0	0.0	2.80401	10.10927	-9.84752	25.30857	176.63248	0.082967	12.05298	63.63392	65.98255	23.75702	0.33927	 	4.031798416E7	 	7.24099E-8	 	5991.078	28.0856	 
320.0	1.0	0.0	2.80518	10.10506	-9.88508	25.25601	176.58228	0.0822969	12.15113	63.88468	66.12724	23.85563	0.33899	 	5.059937245E7	 	5.72145E-8	 	5850.931	28.0294	 
315.0	1.0	0.0	2.80635	10.10087	-9.9225	25.20348	176.52803	0.0816283	12.25066	64.13422	66.27092	23.95379	0.33871	 	6.374831089E7	 	4.50304E-8	 	5711.066	27.973	 
310.0	1.0	0.0	2.80751	10.09669	-9.95978	25.15098	176.46968	0.0809611	12.35161	64.38253	66.41358	24.05151	0.33843	 	8.063296064E7	 	3.52983E-8	 	5571.482	27.9168	 
305.0	1.0	0.0	2.80867	10.09252	-9.99692	25.09852	176.40714	0.0802954	12.45402	64.62963	66.55524	24.14877	0.33816	 	1.024050888E8	 	2.75553E-8	 	5432.179	27.8606	 
300.0	1.0	0.0	2.80982	10.08837	-10.03392	25.04609	176.34035	0.0796311	12.55791	64.8755	66.69591	24.24559	0.33788	 	1.30599547E8	 	2.14197E-8	 	5293.156	27.8046	 
295.0	1.0	0.0	2.81097	10.08424	-10.07077	24.99369	176.26923	0.0789683	12.66331	65.12015	66.8356	24.34196	0.33761	 	1.672710647E8	 	1.65779E-8	 	5154.413	27.7486	 
290.0	1.0	0.0	2.81212	10.08012	-10.10749	24.94133	176.19371	0.0783069	12.77027	65.36357	66.97433	24.43787	0.33734	 	2.15183272E8	 	1.27733E-8	 	5015.949	27.6928	 
285.0	1.0	0.0	2.81327	10.07602	-10.14406	24.88899	176.11372	0.0776468	12.87882	65.60577	67.11209	24.53333	0.33707	 	2.780712047E8	 	9.79674E-9	 	4877.766	27.6366	 
280.0	1.0	0.0	2.81441	10.07194	-10.1805	24.83669	176.02916	0.0769882	12.989	65.84675	67.24889	24.62835	0.33681	 	3.610077302E8	 	7.47848E-9	 	4739.862	27.5808	 
275.0	1.0	0.0	2.81554	10.06787	-10.21679	24.78442	175.93997	0.076331	13.10084	66.08651	67.38476	24.7229	0.33654	 	4.709177283E8	 	5.68121E-9	 	4602.237	27.525	 
270.0	1.0	0.0	2.81668	10.06381	-10.25295	24.73218	175.84604	0.0756751	13.21438	66.32505	67.51969	24.81701	0.33628	 	6.173035121E8	 	4.29445E-9	 	4464.892	27.469	 
265.0	1.0	0.0	2.81781	10.05977	-10.28896	24.67998	175.7473	0.0750206	13.32966	66.56237	67.6537	24.91066	0.33602	 	8.132739462E8	 	3.22963E-9	 	4327.826	27.4132	 
260.0	1.0	0.0	2.81894	10.05575	-10.32483	24.62781	175.64364	0.0743675	13.44674	66.79846	67.7868	25.00385	0.33576	 	1.077012721E9	 	2.4161E-9	 	4191.04	27.3572	 
255.0	1.0	0.0	2.82006	10.05174	-10.36057	24.57567	175.53498	0.0737157	13.56564	67.03334	67.91899	25.09659	0.33551	 	1.433885432E9	 	1.79775E-9	 	4054.533	27.3014	 
250.0	1.0	0.0	2.82118	10.04775	-10.39616	24.52356	175.4212	0.0730651	13.68642	67.26699	68.05028	25.18888	0.33525	 	1.919481549E9	 	1.33024E-9	 	3918.305	27.2456	 
245.0	1.0	0.0	2.8223	10.04378	-10.43161	24.47148	175.30221	0.0724159	13.80911	67.49943	68.18069	25.28071	0.335	 	2.584033146E9	 	9.78688E-10	 	3782.358	27.1894	 
240.0	1.0	0.0	2.82341	10.03982	-10.46693	24.41944	175.1779	0.071768	13.93378	67.73064	68.31022	25.37208	0.33475	 	3.498874197E9	 	7.15818E-10	 	3646.69	27.1336	 
235.0	1.0	0.0	2.82452	10.03587	-10.5021	24.36743	175.04816	0.0711214	14.06046	67.96063	68.43887	25.463	0.3345	 	4.765944238E9	 	5.20391E-10	 	3511.303	27.0774	 
230.0	1.0	0.0	2.82563	10.03194	-10.53714	24.31545	174.91287	0.0704761	14.18921	68.1894	68.56666	25.55345	0.33425	 	6.531864886E9	 	3.75965E-10	 	3376.197	27.0212	 
225.0	1.0	0.0	2.82673	10.02803	-10.57203	24.26351	174.77191	0.069832	14.32008	68.41696	68.6936	25.64345	0.334	 	9.008933071E9	 	2.69882E-10	 	3241.372	26.965	 
220.0	1.0	0.0	2.82783	10.02413	-10.60679	24.21159	174.62515	0.0691892	14.45312	68.64329	68.81969	25.73299	0.33376	 	1.2506699999999998E10	 	1.92453E-10	 	3106.828	26.9088	 
215.0	1.0	0.0	2.82892	10.02025	-10.64141	24.15971	174.47246	0.0685476	14.58839	68.86841	68.94494	25.82207	0.33352	 	1.74794E10	 	1.36305E-10	 	2972.567	26.8522	 
210.0	1.0	0.0	2.83002	10.01638	-10.67589	24.10786	174.3137	0.0679073	14.72595	69.0923	69.06937	25.91069	0.33328	 	2.4599299999999996E10	 	9.58619E-11	 	2838.588	26.7958	 
205.0	1.0	0.0	2.8311	10.01253	-10.71023	24.05604	174.14874	0.0672682	14.86586	69.31498	69.19297	25.99885	0.33304	 	3.48676E10	 	6.69313E-11	 	2704.893	26.739	 
200.0	1.0	0.0	2.83219	10.0087	-10.74443	24.00426	173.97743	0.0666303	15.00818	69.53644	69.31575	26.08655	0.3328	 	4.978769999999999E10	 	4.63835E-11	 	2571.483	26.682	 
195.0	1.0	0.0	2.83327	10.00488	-10.7785	23.95251	173.7996	0.0659937	15.15297	69.75668	69.43773	26.17378	0.33257	 	7.16354E10	 	3.18966E-11	 	2438.358	26.625	 
190.0	1.0	0.0	2.83435	10.00107	-10.81242	23.90079	173.61511	0.0653582	15.30029	69.9757	69.55891	26.26056	0.33233	 	1.03883E11	 	2.17603E-11	 	2305.519	26.5678	 
185.0	1.0	0.0	2.83542	9.99729	-10.84621	23.8491	173.42377	0.064724	15.45023	70.19351	69.6793	26.34687	0.3321	 	1.51874E11	 	1.47235E-11	 	2172.967	26.5104	 
180.0	1.0	0.0	2.83649	9.99351	-10.87986	23.79745	173.22542	0.0640909	15.60284	70.41009	69.7989	26.43272	0.33187	 	2.23905E11	 	9.87789E-12	 	2040.705	26.4524	 
175.0	1.0	0.0	2.83756	9.98975	-10.91337	23.74582	173.01987	0.063459	15.7582	70.62546	69.91772	26.5181	0.33165	 	3.32971E11	 	6.56907E-12	 	1908.732	26.3946	 
170.0	1.0	0.0	2.83862	9.98601	-10.94675	23.69423	172.80693	0.0628284	15.91638	70.83961	70.03578	26.60302	0.33142	 	4.99616E11	 	4.32913E-12	 	1777.05	26.3364	 
165.0	1.0	0.0	2.83968	9.98228	-10.97998	23.64267	172.5864	0.0621988	16.07747	71.05255	70.15307	26.68748	0.3312	 	7.5664E11	 	2.82631E-12	 	1645.661	26.2778	 
160.0	1.0	0.0	2.84074	9.97857	-11.01308	23.59115	172.35807	0.0615705	16.24154	71.26426	70.26961	26.77147	0.33097	 	1.15692E12	 	1.82735E-12	 	1514.567	26.2188	 
155.0	1.0	0.0	2.84179	9.97488	-11.04605	23.53965	172.12172	0.0609434	16.40868	71.47477	70.38539	26.85499	0.33075	 	1.78659E12	 	1.16965E-12	 	1383.769	26.1596	 
150.0	1.0	0.0	2.84284	9.9712	-11.07887	23.48819	171.87712	0.0603174	16.57897	71.68405	70.50044	26.93805	0.33054	 	2.78745E12	 	7.40926E-13	 	1253.27	26.0998	 
145.0	1.0	0.0	2.84389	9.96753	-11.11156	23.43676	171.62403	0.0596925	16.75251	71.89212	70.61475	27.02064	0.33032	 	4.39549E12	 	4.64313E-13	 	1123.07	26.04	 
140.0	1.0	0.0	2.84493	9.96388	-11.14411	23.38537	171.3622	0.0590689	16.92939	72.09897	70.72833	27.10277	0.3301	 	7.00804E12	 	2.87738E-13	 	993.174	25.9792	 
135.0	1.0	0.0	2.84597	9.96025	-11.17652	23.334	171.09136	0.0584464	17.10969	72.30461	70.84119	27.18442	0.32989	 	1.13018E13	 	1.76261E-13	 	863.583	25.9182	 
130.0	1.0	0.0	2.847	9.95663	-11.2088	23.28267	170.81124	0.0578251	17.29353	72.50903	70.95333	27.26561	0.32968	 	1.84438E13	 	1.06685E-13	 	734.299	25.8568	 
125.0	1.0	0.0	2.84803	9.95302	-11.24094	23.23137	170.52153	0.0572049	17.48101	72.71225	71.06478	27.34634	0.32947	 	3.04714E13	 	6.37735E-14	 	605.326	25.7946	 
120.0	1.0	0.0	2.84906	9.94943	-11.27294	23.1801	170.22195	0.056586	17.67222	72.91425	71.17551	27.42659	0.32926	 	5.09896E13	 	3.76325E-14	 	476.666	25.732	 
115.0	1.0	0.0	2.85008	9.94586	-11.30481	23.12887	169.91215	0.0559682	17.86729	73.11502	71.28554	27.50637	0.32906	 	8.64632E13	 	2.19106E-14	 	348.323	25.6686	 
110.0	1.0	0.0	2.8511	9.9423	-11.33654	23.07767	169.59181	0.0553516	18.06633	73.31459	71.39489	27.58569	0.32885	 	1.48651E14	 	1.25802E-14	 	220.301	25.6044	 
105.0	1.0	0.0	2.85212	9.93876	-11.36814	23.0265	169.26056	0.0547362	18.26945	73.51294	71.50355	27.66453	0.32865	 	2.5925399999999997E14	 	7.11911E-15	 	92.603	25.5396	 
100.0	1.0	0.0	2.85313	9.93523	-11.39959	22.97536	168.91803	0.054122	18.47679	73.71007	71.61153	27.7429	0.32845	 	4.58942E14	 	3.96837E-15	 	-34.768	25.4742	 
95.0	1.0	0.0	2.85414	9.93172	-11.43092	22.92425	168.56381	0.053509	18.68846	73.906	71.71885	27.8208	0.32825	 	8.25139E14	 	2.17763E-15	 	-161.805	25.4074	 
90.0	1.0	0.0	2.85515	9.92822	-11.46211	22.87318	168.1975	0.0528972	18.9046	74.10071	71.82549	27.89823	0.32805	 	1.50769E15	 	1.1756E-15	 	-288.506	25.3402	 
85.0	1.0	0.0	2.85615	9.92474	-11.49316	22.82214	167.81865	0.0522867	19.12534	74.2942	71.93148	27.97519	0.32786	 	2.8016E15	 	6.23944E-16	 	-414.866	25.272	 
80.0	1.0	0.0	2.85715	9.92127	-11.52407	22.77113	167.42678	0.0516774	19.35083	74.48649	72.03681	28.05167	0.32767	 	5.2981E15	 	3.25331E-16	 	-540.878	25.2024	 
75.0	1.0	0.0	2.85814	9.91782	-11.55486	22.72015	167.0214	0.0510694	19.58122	74.67756	72.1415	28.12769	0.32747	 	1.02043E16	 	1.66522E-16	 	-666.537	25.1318	 
70.0	1.0	0.0	2.85913	9.91438	-11.5855	22.66921	166.60199	0.0504626	19.81664	74.86742	72.24554	28.20323	0.32728	 	2.00327E16	 	8.36046E-17	 	-791.837	25.06	 
65.0	1.0	0.0	2.86012	9.91096	-11.61601	22.6183	166.16799	0.0498572	20.05727	75.05607	72.34895	28.27829	0.3271	 	4.01201E16	 	4.11372E-17	 	-916.772	24.987	 
60.0	1.0	0.0	2.8611	9.90756	-11.64639	22.56742	165.71881	0.0492532	20.30327	75.24351	72.45173	28.35288	0.32691	 	8.20421E16	 	1.98194E-17	 	-1041.335	24.9126	 
55.0	1.0	0.0	2.86208	9.90417	-11.67663	22.51657	165.25382	0.0486505	20.55479	75.42974	72.55388	28.427	0.32673	 	1.71467E17	 	9.34071E-18	 	-1165.518	24.8366	 
50.0	1.0	0.0	2.86306	9.90079	-11.70674	22.46576	164.77237	0.0480492	20.81202	75.61476	72.65542	28.50064	0.32654	 	3.66631E17	 	4.30192E-18	 	-1289.314	24.7592	 
45.0	1.0	0.0	2.86403	9.89743	-11.73671	22.41497	164.27373	0.0474493	21.07512	75.79857	72.75634	28.57381	0.32636	 	8.02883E17	 	1.93404E-18	 	-1412.713	24.6798	 
40.0	1.0	0.0	2.865	9.89408	-11.76655	22.36422	163.75717	0.0468509	21.3443	75.98118	72.85665	28.64651	0.32619	 	1.8028E18	 	8.47798E-19	 	-1535.707	24.5988	 
35.0	1.0	0.0	2.86596	9.89075	-11.79625	22.31351	163.22187	0.0462541	21.61972	76.16257	72.95636	28.71873	0.32601	 	4.15567E18	 	3.61916E-19	 	-1658.286	24.5158	 
30.0	1.0	0.0	2.86692	9.88744	-11.82582	22.26282	162.66698	0.0456588	21.90159	76.34275	73.05547	28.79047	0.32583	 	9.8469E18	 	1.5026E-19	 	-1780.438	24.4304	 
25.0	1.0	0.0	2.86788	9.88414	-11.85525	 	162.09158	0.0450651	22.19012	76.52173	73.15399	28.86174	0.32566	 	2.40173E19	 	6.05895E-20	 	-1902.154	 	 
