T (C)	Fraction solid (wt)-TOTAL	Fraction liquid (wt)-LIQUID	Density (g/(cm)^3)-TOTAL	Molar volume (cm^3)-TOTAL	Volume change (%)-  	Average expansion coeff. (10e-6 1/K)-  	Thermal conductivity (W/(m*K))-TOTAL	Electrical resistivity (10e-6 Ohm*m)-TOTAL	Electrical conductivity (10e6 1/(Ohm*m))-TOTAL	Young's modulus (GPa)-TOTAL	Bulk modulus (GPa)-TOTAL	Shear modulus(GPa)-TOTAL	Poisson's ratio-TOTAL	Liquid viscosity (mPa s)-  	Total viscosity (mPa s)-  	Liquid diffusivity (10e-9 (m^2)/s)-  	Total diffusivity (10e-9 (m^2)/s)-  	Surface Tension (mN/m)-  	Enthalpy (J/mole)-TOTAL	Specific heat (J/(mole K))-TOTAL	Latent heat (J/mole)-TOTAL
700.0	0.0	1.0	2.40371	11.37097	0.0	67.62635	89.35755	0.26682	3.74788	0.0	50.66032	0.0	0.5	1.24556	1.24556	3.8133	3.8133	754.52426	29250.444	 	0.0
695.0	0.0	1.0	2.40537	11.36311	-0.069124	67.74003	89.18961	0.26595	3.76015	0.0	50.7253	0.0	0.5	1.25897	1.25897	3.7533	3.7533	755.64213	29091.432	31.8024	0.0
690.0	0.0	1.0	2.40703	11.35528	-0.13803	67.85668	89.02167	0.26507	3.77256	0.0	50.79028	0.0	0.5	1.27267	1.27267	3.69373	3.69373	756.75823	28932.425	31.8014	0.0
685.0	0.0	1.0	2.40869	11.34747	-0.20671	67.97638	88.85373	0.26419	3.78509	0.0	50.85527	0.0	0.5	1.28666	1.28666	3.6346	3.6346	757.87255	28773.422	31.8006	0.0
680.0	0.0	1.0	2.41034	11.33968	-0.27517	68.09918	88.68579	0.26331	3.79775	0.0	50.92025	0.0	0.5	1.30095	1.30095	3.57591	3.57591	758.98502	28614.423	31.7998	0.0
675.0	0.0	1.0	2.412	11.33192	-0.3434	68.22517	88.51785	0.26243	3.81055	0.0	50.98523	0.0	0.5	1.31556	1.31556	3.51765	3.51765	760.09555	28455.428	31.799	0.0
670.0	0.0	1.0	2.41364	11.32419	-0.41142	68.35441	88.3499	0.26154	3.82348	0.0	51.05021	0.0	0.5	1.33049	1.33049	3.45985	3.45985	761.20409	28296.438	31.798	0.0
667.95	0.0	1.0	2.41432	11.32103	-0.43918	68.40825	88.28118	0.26118	3.82882	0.0	51.0768	0.0	0.5	1.33669	1.33669	3.43632	3.43632	761.6571	28231.381	31.7975	0.0
665.0	0.00395	0.99605	2.41608	11.3128	-0.51159	68.29527	88.19056	0.26063	3.83693	1.06313E-8	51.13127	3.54605E-9	0.49903	1.34366	1.34366	3.40775	3.40775	762.2985	28079.911	51.2759	57.543
660.0	0.01027	0.98973	2.41898	11.29921	-0.63114	68.11949	88.0358	0.25969	3.85072	4.89111E-7	51.22432	1.63311E-7	0.49749	1.35583	1.35583	3.35918	3.35918	763.38563	27828.924	50.1974	149.54
655.0	0.01615	0.98385	2.4218	11.28604	-0.74692	67.96363	87.87978	0.25876	3.8646	3.0167E-6	51.31843	1.00823E-6	0.49604	1.36845	1.36845	3.31036	3.31036	764.47435	27584.51	48.8828	235.161
650.0	0.02162	0.97838	2.42453	11.27338	-0.85826	67.83225	87.72335	0.25782	3.87862	9.76876E-6	51.41385	3.26779E-6	0.4947	1.38154	1.38154	3.26135	3.26135	765.56413	27346.39	47.624	314.829
647.68	0.02402	0.97598	2.42576	11.26763	-0.90884	67.77658	87.65041	0.25739	3.88513	1.49453E-5	51.45818	5.00138E-6	0.49411	1.38775	1.38775	3.2386	3.2386	765.78967	27238.158	 	349.809
645.0	0.30904	0.69096	2.47308	11.05207	-2.80457	56.48224	103.41154	0.21753	4.59716	0.23107	51.60637	0.0791849	0.45907	1.40049	32.04917	3.19978	0.13982	760.21168	24080.0	653.278	3423.11
640.0	0.57789	0.42211	2.52007	10.84602	-4.61661	45.77515	123.78385	0.18074	5.53294	3.76222	52.26303	1.32065	0.42438	1.42525	413.29451	3.12708	0.0107837	753.24968	21035.367	608.927	6309.981
635.0	0.70635	0.29365	2.54383	10.74471	-5.50754	40.61518	137.38458	0.16195	6.17468	9.22074	52.69539	3.27656	0.40707	1.4512	1016.08942	3.05434	0.00436227	748.59147	19506.376	305.798	7681.559
630.0	0.78003	0.21997	2.5582	10.68432	-6.03861	37.62415	146.55854	0.15098	6.62346	14.4011	53.03831	5.15502	0.3968	1.47826	1667.2104	2.98192	0.00264397	745.23926	18565.113	188.253	8465.759
625.0	0.82715	0.17285	2.56794	10.64374	-6.39556	35.68301	152.99354	0.14383	6.95277	18.78855	53.33687	6.75842	0.39001	1.50637	2328.46316	2.91007	0.00188264	742.72264	17906.929	131.637	8967.227
624.63	0.82988	0.17012	2.56853	10.64131	-6.41691	35.56999	153.38099	0.14341	6.97323	19.07248	53.35768	6.86252	0.38961	1.50849	2376.65402	2.9048	0.00184371	742.56068	17866.396	 	8996.257
624.63	0.82988	0.17012	2.56853	10.64131	-6.41691	35.56999	153.38099	0.14341	6.97323	19.07248	53.35768	6.86252	0.38961	1.50849	2376.65402	2.9048	0.00184371	742.56068	17866.396	 	8996.257
620.0	0.8623	0.1377	2.57554	10.61225	-6.67242	34.21947	158.10364	0.1384	7.22523	22.72407	53.62197	8.20478	0.38481	1.53375	3040.22024	2.84222	0.00143386	740.50489	17368.4	107.706	9349.388
615.0	0.88682	0.11318	2.58125	10.58869	-6.87961	33.17861	161.86101	0.13443	7.43858	25.88556	53.88758	9.37173	0.38104	1.56279	3764.76441	2.77377	0.00115142	738.80025	16945.105	84.659	9616.663
612.52	0.89619	0.10381	2.58359	10.57907	-6.96427	32.7728	163.35008	0.13284	7.52807	27.20273	54.01412	9.8592	0.37956	1.57795	4131.65513	2.73945	0.00104624	738.10466	16765.199	 	9719.165
610.0	0.90492	0.0950835	2.58582	10.56991	-7.04484	32.39174	164.75312	0.13133	7.61435	28.48097	54.14096	10.33297	0.37816	1.59247	4523.08197	2.70676	9.52986E-4	737.4674	16591.771	70.6668	9814.323
605.0	0.91916	0.0808412	2.5897	10.55399	-7.18482	31.75636	167.09877	0.12875	7.76673	30.70696	54.38597	11.15969	0.3758	1.62235	5341.28225	2.64186	8.02435E-4	736.43538	16280.439	62.2664	9970.327
600.0	0.93024	0.0697562	2.59301	10.54042	-7.30413	31.24611	168.98653	0.12659	7.89946	32.58222	54.6236	11.85783	0.37387	1.65357	6224.2858	2.57723	6.84677E-4	735.65431	16003.096	55.4686	10092.688
595.0	0.93909	0.0609104	2.59591	10.52853	-7.40872	30.82482	170.54191	0.12472	8.01808	34.18925	54.85542	12.45737	0.37225	1.68613	7189.25531	2.51299	5.89383E-4	735.07827	15749.893	50.6406	10191.251
590.0	0.94629	0.0537088	2.59852	10.51786	-7.50253	30.46834	171.84907	0.12306	8.12634	35.58781	55.0824	12.98013	0.37086	1.72006	8253.71895	2.44923	5.10415E-4	734.67349	15514.474	47.0838	10272.372
585.0	0.95225	0.0477544	2.6009	10.50814	-7.58806	30.16136	172.96515	0.12155	8.22673	36.82009	55.30513	13.44154	0.36964	1.75538	9435.18655	2.38606	4.43917E-4	734.41403	15292.741	 	10340.278
585.0	0.95225	0.0477544	2.6009	10.50814	-7.58806	30.16136	172.96515	0.12155	8.22673	36.82009	55.30513	13.44154	0.36964	1.75538	9435.18655	2.38606	4.43917E-4	734.41403	15292.741	 	10340.278
585.0	0.95228	0.0477202	2.6009	10.50811	-7.58829	30.15998	172.97053	0.12155	8.22703	36.82628	55.30554	13.44386	0.36963	1.75543	9437.40935	2.38597	4.4381E-4	734.41282	15292.193	44.4562	10340.696
580.0	0.97685	0.0231494	2.60564	10.48759	-7.76875	29.19945	176.99895	0.11809	8.46797	41.61064	55.68263	15.23623	0.36552	1.82023	11674.44432	2.28763	3.56678E-4	733.89781	14820.355	94.3676	10658.916
575.0	0.98675	0.0132463	2.60808	10.47638	-7.8673	28.78582	178.72472	0.11627	8.60094	43.82979	55.95229	16.07105	0.36363	1.88731	13590.07753	2.1934	3.04605E-4	734.12693	14535.987	56.8736	10790.004
570.0	0.992	0.00799638	2.6098	10.46813	-7.93987	28.54531	179.71053	0.11495	8.69967	45.1735	56.18693	16.57811	0.36244	1.95628	15538.6809	2.10358	2.64836E-4	734.62882	14311.275	44.9424	10861.77
565.0	0.99521	0.00478939	2.61121	10.46117	-8.00106	28.38013	180.37011	0.11385	8.78368	46.11998	56.40541	16.93627	0.36157	2.02684	17642.47434	2.01832	2.31872E-4	735.24923	14112.971	39.6608	10907.462
560.0	0.99735	0.00264762	2.61247	10.45489	-8.05633	28.25385	180.8576	0.11286	8.86028	46.85494	56.61478	17.21509	0.36087	2.09872	19971.85266	1.93756	2.03606E-4	735.92499	13928.68	36.8582	10939.471
555.0	0.99887	0.00112861	2.61365	10.449	-8.10813	28.15003	181.24425	0.11195	8.93283	47.46425	56.81823	17.44677	0.36026	2.17178	22583.29249	1.86115	1.78982E-4	736.62737	13752.767	35.1826	10963.431
550.0	1.0	0.0	2.6148	10.44336	-8.15774	28.05996	181.56721	0.11107	9.00311	47.99366	57.01747	17.64848	0.35971	 	25532.11227	 	1.57354E-4	 	13582.303	34.0928	10982.267
545.0	1.0	0.0	2.61606	10.4383	-8.20227	28.00529	181.70777	0.11031	9.06514	48.28531	57.21092	17.76063	0.35934	 	28777.80673	 	1.38759E-4	 	13352.919	45.8768	 
540.0	1.0	0.0	2.61733	10.43325	-8.24664	27.95065	181.84611	0.10956	9.12782	48.57579	57.40271	17.87239	0.35896	 	32483.87037	 	1.22177E-4	 	13197.294	31.125	 
535.0	1.0	0.0	2.61859	10.42822	-8.29086	27.89604	181.9822	0.1088	9.19117	48.86509	57.59286	17.98375	0.35859	 	36722.21254	 	1.07411E-4	 	13042.155	31.0278	 
530.0	1.0	0.0	2.61985	10.42321	-8.33494	27.84147	182.11603	0.10805	9.25519	49.15321	57.78139	18.09471	0.35822	 	41576.99174	 	9.42823E-5	 	12887.495	30.932	 
525.0	1.0	0.0	2.62111	10.41821	-8.37887	27.78692	182.24757	0.1073	9.3199	49.44016	57.96833	18.20527	0.35785	 	47146.87388	 	8.26263E-5	 	12733.305	30.838	 
520.0	1.0	0.0	2.62236	10.41324	-8.42265	27.73241	182.37679	0.10655	9.3853	49.72592	58.15368	18.31543	0.35749	 	53547.73834	 	7.22938E-5	 	12579.578	30.7454	 
515.0	1.0	0.0	2.62361	10.40827	-8.46628	27.67793	182.50368	0.1058	9.45141	50.01052	58.33747	18.4252	0.35712	 	60915.92694	 	6.31487E-5	 	12426.305	30.6546	 
510.0	1.0	0.0	2.62486	10.40333	-8.50976	27.62349	182.62821	0.10506	9.51824	50.29393	58.51973	18.53456	0.35676	 	69412.15237	 	5.50676E-5	 	12273.477	30.5656	 
505.0	1.0	0.0	2.6261	10.3984	-8.5531	27.56907	182.75036	0.10432	9.58581	50.57617	58.70046	18.64352	0.3564	 	79226.2093	 	4.79381E-5	 	12121.088	30.4778	 
500.0	1.0	0.0	2.62734	10.39349	-8.59629	27.51469	182.87009	0.10358	9.65412	50.85723	58.87969	18.75209	0.35604	 	90582.6645	 	4.16587E-5	 	11969.128	30.392	 
495.0	1.0	0.0	2.62858	10.3886	-8.63933	27.46033	182.98739	0.10285	9.7232	51.13712	59.05744	18.86025	0.35569	 	103747.7437	 	3.61372E-5	 	11817.59	30.3076	 
490.0	1.0	0.0	2.62981	10.38372	-8.68222	27.40601	183.10223	0.10211	9.79304	51.41583	59.23372	18.968	0.35533	 	119037.6846	 	3.12905E-5	 	11666.466	30.2248	 
485.0	1.0	0.0	2.63105	10.37886	-8.72497	27.35173	183.21458	0.10138	9.86368	51.69337	59.40856	19.07536	0.35498	 	136828.8891	 	2.70436E-5	 	11515.747	30.1438	 
480.0	1.0	0.0	2.63227	10.37401	-8.76757	27.29747	183.32442	0.10065	9.93511	51.96973	59.58196	19.1823	0.35463	 	157570.2903	 	2.33289E-5	 	11365.425	30.0644	 
475.0	1.0	0.0	2.6335	10.36919	-8.81002	27.24324	183.43171	0.0999264	10.00736	52.24491	59.75396	19.28885	0.35428	 	181798.4506	 	2.00856E-5	 	11215.493	29.9864	 
470.0	1.0	0.0	2.63472	10.36438	-8.85233	27.18905	183.53643	0.099202	10.08045	52.51892	59.92455	19.39499	0.35393	 	210156.0345	 	1.72592E-5	 	11065.942	29.9102	 
465.0	1.0	0.0	2.63594	10.35958	-8.89449	27.13489	183.63855	0.0984797	10.15437	52.79176	60.09377	19.50072	0.35359	 	243414.4653	 	1.48008E-5	 	10916.764	29.8356	 
460.0	1.0	0.0	2.63716	10.35481	-8.9365	27.08076	183.73803	0.0977597	10.22916	53.06342	60.26162	19.60604	0.35324	 	282501.7749	 	1.26666E-5	 	10767.952	29.7624	 
455.0	1.0	0.0	2.63837	10.35005	-8.97837	27.02666	183.83485	0.0970419	10.30483	53.33391	60.42813	19.71096	0.3529	 	328536.9228	 	1.08174E-5	 	10619.497	29.691	 
450.0	1.0	0.0	2.63958	10.3453	-9.02009	26.9726	183.92898	0.0963262	10.38139	53.60323	60.59331	19.81547	0.35256	 	382872.1881	 	9.21852E-6	 	10471.391	29.6212	 
445.0	1.0	0.0	2.64079	10.34057	-9.06166	26.91857	184.02038	0.0956126	10.45887	53.87137	60.75717	19.91957	0.35222	 	447145.6634	 	7.83886E-6	 	10323.626	29.553	 
440.0	1.0	0.0	2.64199	10.33586	-9.10309	26.86456	184.10902	0.0949012	10.53727	54.13834	60.91973	20.02326	0.35189	 	523346.4244	 	6.65087E-6	 	10176.195	29.4862	 
435.0	1.0	0.0	2.64319	10.33117	-9.14437	26.81059	184.19487	0.094192	10.61662	54.40413	61.08101	20.12654	0.35155	 	613895.6453	 	5.63012E-6	 	10029.089	29.4212	 
430.0	1.0	0.0	2.64439	10.32649	-9.18551	26.75666	184.27788	0.0934848	10.69693	54.66875	61.24102	20.22941	0.35122	 	721747.8258	 	4.75499E-6	 	9882.3	29.3578	 
425.0	1.0	0.0	2.64558	10.32183	-9.2265	26.70275	184.35804	0.0927797	10.77823	54.9322	61.39977	20.33187	0.35089	 	850517.4588	 	4.00638E-6	 	9735.822	29.2956	 
420.0	1.0	0.0	2.64677	10.31719	-9.26734	26.64888	184.43529	0.0920766	10.86052	55.19448	61.55729	20.43391	0.35056	 	1004637.966	 	3.36747E-6	 	9589.645	29.2354	 
415.0	1.0	0.0	2.64796	10.31256	-9.30804	26.59503	184.5096	0.0913756	10.94384	55.45558	61.71357	20.53555	0.35023	 	1189561.681	 	2.82347E-6	 	9443.766	29.1758	 
410.0	1.0	0.0	2.64915	10.30795	-9.3486	26.54122	184.58093	0.0906766	11.0282	55.71551	61.86865	20.63676	0.34991	 	1412012.2	 	2.36137E-6	 	9298.184	29.1164	 
405.0	1.0	0.0	2.65033	10.30335	-9.38901	26.48744	184.64925	0.0899796	11.11362	55.97427	62.02252	20.73757	0.34959	 	1680303.738	 	1.96981E-6	 	9152.898	29.0572	 
400.0	1.0	0.0	2.65151	10.29877	-9.42927	26.4337	184.71451	0.0892847	11.20013	56.23186	62.17522	20.83796	0.34927	 	2004746.499	 	1.63885E-6	 	9007.908	28.998	 
395.0	1.0	0.0	2.65268	10.29421	-9.46939	26.37998	184.77667	0.0885917	11.28774	56.48827	62.32674	20.93793	0.34895	 	2398162.765	 	1.35982E-6	 	8863.212	28.9392	 
390.0	1.0	0.0	2.65385	10.28967	-9.50936	26.3263	184.83569	0.0879006	11.37648	56.74352	62.4771	21.03749	0.34863	 	2876546.014	 	1.12519E-6	 	8718.811	28.8802	 
385.0	1.0	0.0	2.65502	10.28514	-9.54919	26.27265	184.89152	0.0872115	11.46637	56.99759	62.62632	21.13663	0.34831	 	3459905.35	 	9.28426E-7	 	8574.703	28.8216	 
380.0	1.0	0.0	2.65619	10.28062	-9.58888	26.21903	184.94411	0.0865244	11.55744	57.25049	62.7744	21.23535	0.348	 	4173350.859	 	7.63862E-7	 	8430.888	28.763	 
375.0	1.0	0.0	2.65735	10.27613	-9.62842	26.16544	184.99343	0.0858391	11.6497	57.50222	62.92137	21.33366	0.34769	 	5048493.236	 	6.26615E-7	 	8287.365	28.7046	 
370.0	1.0	0.0	2.65851	10.27165	-9.66781	26.11188	185.03942	0.0851558	11.74318	57.75277	63.06722	21.43155	0.34738	 	6125254.791	 	5.12478E-7	 	8144.132	28.6466	 
365.0	1.0	0.0	2.65966	10.26719	-9.70707	26.05836	185.08203	0.0844743	11.83792	58.00216	63.21199	21.52901	0.34707	 	7454220.822	 	4.17837E-7	 	8001.191	28.5882	 
360.0	1.0	0.0	2.66082	10.26274	-9.74617	26.00487	185.12121	0.0837947	11.93393	58.25038	63.35567	21.62606	0.34676	 	9099703.371	 	3.39599E-7	 	7858.539	28.5304	 
355.0	1.0	0.0	2.66196	10.25831	-9.78514	25.95141	185.15691	0.0831169	12.03124	58.49742	63.49827	21.72268	0.34646	 	1.114374758E7	 	2.75118E-7	 	7716.177	28.4724	 
350.0	1.0	0.0	2.66311	10.25389	-9.82396	25.89798	185.18908	0.082441	12.12988	58.7433	63.63982	21.81889	0.34616	 	1.369139001E7	 	2.22143E-7	 	7574.103	28.4148	 
345.0	1.0	0.0	2.66425	10.2495	-9.86263	25.84458	185.21765	0.0817669	12.22989	58.988	63.78033	21.91467	0.34586	 	1.687758608E7	 	1.7876E-7	 	7432.318	28.357	 
340.0	1.0	0.0	2.66539	10.24511	-9.90117	25.79122	185.24258	0.0810946	12.33128	59.23153	63.91979	22.01003	0.34556	 	2.08763718E7	 	1.4335E-7	 	7290.82	28.2996	 
335.0	1.0	0.0	2.66653	10.24075	-9.93956	25.73788	185.26379	0.0804241	12.43408	59.4739	64.05823	22.10497	0.34526	 	2.591302814E7	 	1.14546E-7	 	7149.61	28.242	 
330.0	1.0	0.0	2.66766	10.2364	-9.9778	25.68458	185.28124	0.0797554	12.53834	59.71509	64.19566	22.19948	0.34497	 	3.228029732E7	 	9.11957E-8	 	7008.686	28.1848	 
325.0	1.0	0.0	2.66879	10.23207	-10.01591	25.63132	185.29486	0.0790884	12.64408	59.95511	64.33208	22.29357	0.34467	 	4.036009007E7	 	7.23344E-8	 	6868.048	28.1276	 
320.0	1.0	0.0	2.66992	10.22775	-10.05387	25.57808	185.30458	0.0784232	12.75133	60.19397	64.46751	22.38723	0.34438	 	5.065266622E7	 	5.71543E-8	 	6727.696	28.0704	 
315.0	1.0	0.0	2.67104	10.22345	-10.09168	25.52487	185.31033	0.0777597	12.86013	60.43165	64.60195	22.48047	0.34409	 	6.381603105E7	 	4.49826E-8	 	6587.629	28.0134	 
310.0	1.0	0.0	2.67216	10.21917	-10.12936	25.4717	185.31205	0.0770979	12.97052	60.66817	64.73543	22.57328	0.3438	 	8.071936016E7	 	3.52606E-8	 	6447.848	27.9562	 
305.0	1.0	0.0	2.67328	10.2149	-10.16689	25.41856	185.30966	0.0764379	13.08252	60.90351	64.86794	22.66567	0.34352	 	1.02515777E8	 	2.75256E-8	 	6308.35	27.8996	 
300.0	1.0	0.0	2.67439	10.21065	-10.20428	25.36545	185.30309	0.0757795	13.19618	61.13769	64.99951	22.75762	0.34324	 	1.307419554E8	 	2.13964E-8	 	6169.137	27.8426	 
295.0	1.0	0.0	2.6755	10.20641	-10.24153	25.31237	185.29227	0.0751228	13.31154	61.3707	65.13013	22.84915	0.34295	 	1.674550833E8	 	1.65597E-8	 	6030.208	27.7858	 
290.0	1.0	0.0	2.67661	10.20219	-10.27863	25.25932	185.27711	0.0744678	13.42863	61.60254	65.25982	22.94025	0.34267	 	2.154221246E8	 	1.27591E-8	 	5891.563	27.729	 
285.0	1.0	0.0	2.67771	10.19799	-10.31559	25.20631	185.25753	0.0738144	13.54749	61.83321	65.38859	23.03092	0.3424	 	2.783826577E8	 	9.78578E-9	 	5753.202	27.6722	 
280.0	1.0	0.0	2.67881	10.1938	-10.35241	25.15333	185.23344	0.0731627	13.66817	62.06271	65.51644	23.12116	0.34212	 	3.614157701E8	 	7.47003E-9	 	5615.123	27.6158	 
275.0	1.0	0.0	2.67991	10.18963	-10.38909	25.10037	185.20477	0.0725126	13.79071	62.29104	65.6434	23.21097	0.34184	 	4.714549042E8	 	5.67474E-9	 	5477.328	27.559	 
270.0	1.0	0.0	2.681	10.18548	-10.42563	25.04746	185.17141	0.0718641	13.91516	62.5182	65.76946	23.30035	0.34157	 	6.180142209E8	 	4.28951E-9	 	5339.816	27.5024	 
265.0	1.0	0.0	2.68209	10.18134	-10.46202	24.99457	185.13327	0.0712172	14.04155	62.7442	65.89463	23.38929	0.3413	 	8.142190687E8	 	3.22588E-9	 	5202.588	27.4456	 
260.0	1.0	0.0	2.68317	10.17722	-10.49828	24.94171	185.09025	0.0705719	14.16994	62.96903	66.01893	23.47781	0.34103	 	1.0782762E9	 	2.41327E-9	 	5065.642	27.3892	 
255.0	1.0	0.0	2.68426	10.17311	-10.53439	24.88889	185.04226	0.0699282	14.30038	63.19269	66.14237	23.56589	0.34077	 	1.435583659E9	 	1.79562E-9	 	4928.98	27.3324	 
250.0	1.0	0.0	2.68534	10.16902	-10.57036	24.8361	184.98919	0.0692861	14.43291	63.41518	66.26495	23.65354	0.3405	 	1.921776843E9	 	1.32865E-9	 	4792.601	27.2758	 
245.0	1.0	0.0	2.68641	10.16495	-10.60619	24.78334	184.93093	0.0686455	14.5676	63.63651	66.38668	23.74075	0.34024	 	2.587153222E9	 	9.77507E-10	 	4656.506	27.219	 
240.0	1.0	0.0	2.68749	10.16089	-10.64188	24.73061	184.86736	0.0680065	14.70449	63.85667	66.50757	23.82753	0.33998	 	3.50314047E9	 	7.14946E-10	 	4520.694	27.1624	 
235.0	1.0	0.0	2.68856	10.15685	-10.67743	24.67792	184.79837	0.067369	14.84363	64.07566	66.62763	23.91388	0.33972	 	4.771813234E9	 	5.19751E-10	 	4385.166	27.1056	 
230.0	1.0	0.0	2.68962	10.15282	-10.71283	24.62525	184.72383	0.066733	14.98509	64.29348	66.74686	23.99979	0.33946	 	6.539989237E9	 	3.75498E-10	 	4249.923	27.0486	 
225.0	1.0	0.0	2.69068	10.14881	-10.7481	24.57262	184.64362	0.0660985	15.12893	64.51014	66.86528	24.08526	0.3392	 	9.020251977E9	 	2.69543E-10	 	4114.964	26.9918	 
220.0	1.0	0.0	2.69174	10.14482	-10.78322	24.52002	184.5576	0.0654656	15.2752	64.72563	66.9829	24.17029	0.33895	 	1.2522499999999998E10	 	1.92209E-10	 	3980.291	26.9346	 
215.0	1.0	0.0	2.6928	10.14084	-10.81821	24.46745	184.46564	0.0648342	15.42397	64.93995	67.09971	24.25489	0.3387	 	1.75018E10	 	1.36131E-10	 	3845.904	26.8774	 
210.0	1.0	0.0	2.69385	10.13688	-10.85306	24.41491	184.3676	0.0642042	15.5753	65.15311	67.21574	24.33905	0.33845	 	2.4631199999999996E10	 	9.57379E-11	 	3711.803	26.8202	 
205.0	1.0	0.0	2.6949	10.13293	-10.88776	24.36241	184.26332	0.0635757	15.72927	65.3651	67.33098	24.42278	0.3382	 	3.49132E10	 	6.68438E-11	 	3577.989	26.7628	 
200.0	1.0	0.0	2.69595	10.129	-10.92233	24.30994	184.15265	0.0629487	15.88594	65.57592	67.44545	24.50606	0.33795	 	4.985359999999999E10	 	4.63222E-11	 	3444.463	26.7052	 
195.0	1.0	0.0	2.69699	10.12508	-10.95675	24.2575	184.03543	0.0623232	16.04539	65.78558	67.55915	24.5889	0.33771	 	7.17312E10	 	3.1854E-11	 	3311.226	26.6474	 
190.0	1.0	0.0	2.69803	10.12119	-10.99104	24.20509	183.91148	0.0616991	16.20769	65.99407	67.67209	24.67131	0.33747	 	1.04023E11	 	2.17309E-11	 	3178.279	26.5894	 
185.0	1.0	0.0	2.69906	10.1173	-11.02518	24.15271	183.78064	0.0610765	16.37291	66.2014	67.78428	24.75327	0.33723	 	1.52082E11	 	1.47034E-11	 	3045.623	26.5312	 
180.0	1.0	0.0	2.7001	10.11344	-11.05919	24.10036	183.64272	0.0604553	16.54115	66.40756	67.89572	24.83479	0.33699	 	2.24215E11	 	9.86426E-12	 	2913.259	26.4728	 
175.0	1.0	0.0	2.70112	10.10958	-11.09305	24.04805	183.49752	0.0598356	16.71247	66.61256	68.00643	24.91588	0.33675	 	3.33436E11	 	6.5599E-12	 	2781.189	26.414	 
170.0	1.0	0.0	2.70215	10.10575	-11.12678	23.99577	183.34485	0.0592172	16.88698	66.8164	68.11641	24.99652	0.33651	 	5.00323E11	 	4.32302E-12	 	2649.414	26.355	 
165.0	1.0	0.0	2.70317	10.10193	-11.16037	23.94352	183.18449	0.0586003	17.06474	67.01906	68.22566	25.07671	0.33628	 	7.57722E11	 	2.82228E-12	 	2517.935	26.2958	 
160.0	1.0	0.0	2.70419	10.09813	-11.19382	23.8913	183.01623	0.0579849	17.24587	67.22057	68.3342	25.15647	0.33605	 	1.15859E12	 	1.82471E-12	 	2386.754	26.2362	 
155.0	1.0	0.0	2.7052	10.09434	-11.22713	23.83911	182.83984	0.0573708	17.43046	67.42091	68.44203	25.23578	0.33582	 	1.78921E12	 	1.16794E-12	 	2255.873	26.1762	 
150.0	1.0	0.0	2.70622	10.09057	-11.2603	23.78696	182.65508	0.0567582	17.6186	67.62008	68.54916	25.31464	0.33559	 	2.79157E12	 	7.3983E-13	 	2125.293	26.116	 
145.0	1.0	0.0	2.70722	10.08681	-11.29334	23.73484	182.46169	0.056147	17.81039	67.8181	68.65559	25.39307	0.33537	 	4.40208E12	 	4.63618E-13	 	1995.018	26.055	 
140.0	1.0	0.0	2.70823	10.08307	-11.32623	23.68274	182.25941	0.0555372	18.00595	68.01495	68.76134	25.47105	0.33514	 	7.01868E12	 	2.87302E-13	 	1865.049	25.9938	 
135.0	1.0	0.0	2.70923	10.07935	-11.35899	23.63069	182.04797	0.0549288	18.20539	68.21064	68.8664	25.54858	0.33492	 	1.13192E13	 	1.75991E-13	 	1735.389	25.932	 
130.0	1.0	0.0	2.71023	10.07564	-11.3916	23.57866	181.82707	0.0543218	18.40881	68.40516	68.97079	25.62567	0.3347	 	1.84725E13	 	1.06519E-13	 	1606.041	25.8696	 
125.0	1.0	0.0	2.71122	10.07194	-11.42408	23.52666	181.59641	0.0537162	18.61635	68.59852	69.07451	25.70231	0.33448	 	3.05194E13	 	6.36733E-14	 	1477.006	25.807	 
120.0	1.0	0.0	2.71221	10.06827	-11.45643	23.4747	181.35567	0.0531121	18.82811	68.79072	69.17756	25.7785	0.33427	 	5.1071E13	 	3.75726E-14	 	1348.289	25.7434	 
115.0	1.0	0.0	2.7132	10.0646	-11.48863	23.42277	181.10452	0.0525093	19.04424	68.98176	69.27996	25.85425	0.33405	 	8.66029E13	 	2.18753E-14	 	1219.893	25.6792	 
110.0	1.0	0.0	2.71418	10.06096	-11.5207	23.37087	180.84259	0.051908	19.26486	69.17164	69.38172	25.92955	0.33384	 	1.48894E14	 	1.25597E-14	 	1091.821	25.6144	 
105.0	1.0	0.0	2.71516	10.05733	-11.55263	23.319	180.56951	0.0513081	19.49011	69.36165	69.48412	26.00489	0.33363	 	2.5968399999999997E14	 	7.10731E-15	 	964.076	25.549	 
100.0	1.0	0.0	2.71614	10.05371	-11.58442	23.26717	180.2849	0.0507096	19.72013	69.54921	69.5846	26.0793	0.33342	 	4.59713E14	 	3.96171E-15	 	836.664	25.4824	 
95.0	1.0	0.0	2.71711	10.05011	-11.61607	23.21536	179.98834	0.0501126	19.95508	69.73561	69.68444	26.15326	0.33321	 	8.26545E14	 	2.17393E-15	 	709.588	25.4152	 
90.0	1.0	0.0	2.71808	10.04653	-11.64759	23.16359	179.67938	0.0495169	20.1951	69.92085	69.78366	26.22676	0.33301	 	1.51029E15	 	1.17358E-15	 	582.852	25.3472	 
85.0	1.0	0.0	2.71904	10.04296	-11.67897	23.11185	179.35758	0.0489228	20.44037	70.10494	69.88226	26.29983	0.3328	 	2.80651E15	 	6.22852E-16	 	456.463	25.2778	 
80.0	1.0	0.0	2.72001	10.03941	-11.71021	23.06014	179.02243	0.0483301	20.69103	70.28786	69.98025	26.37244	0.3326	 	5.30752E15	 	3.24754E-16	 	330.425	25.2076	 
75.0	1.0	0.0	2.72096	10.03587	-11.74131	23.00846	178.67343	0.0477389	20.94727	70.46963	70.07764	26.4446	0.3324	 	1.02227E16	 	1.66222E-16	 	204.744	25.1362	 
70.0	1.0	0.0	2.72192	10.03235	-11.77228	22.95682	178.31003	0.0471492	21.20927	70.65023	70.17442	26.51631	0.3322	 	2.00694E16	 	8.34519E-17	 	79.426	25.0636	 
65.0	1.0	0.0	2.72287	10.02884	-11.80312	22.9052	177.93165	0.046561	21.4772	70.82969	70.27061	26.58757	0.33201	 	4.01946E16	 	4.10609E-17	 	-45.522	24.9896	 
60.0	1.0	0.0	2.72382	10.02535	-11.83381	22.85362	177.53767	0.0459743	21.75127	71.00798	70.36622	26.65839	0.33181	 	8.21968E16	 	1.97821E-17	 	-170.093	24.9142	 
55.0	1.0	0.0	2.72476	10.02188	-11.86437	22.80207	177.12745	0.0453892	22.03167	71.18513	70.46124	26.72875	0.33162	 	1.71795E17	 	9.32287E-18	 	-294.28	24.8374	 
50.0	1.0	0.0	2.7257	10.01842	-11.89479	22.75055	176.7003	0.0448057	22.3186	71.36111	70.55568	26.79866	0.33143	 	3.67343E17	 	4.29357E-18	 	-418.075	24.759	 
45.0	1.0	0.0	2.72664	10.01498	-11.92508	22.69906	176.25547	0.0442237	22.61229	71.53595	70.64955	26.86812	0.33124	 	8.04468E17	 	1.93023E-18	 	-541.469	24.6788	 
40.0	1.0	0.0	2.72758	10.01155	-11.95523	22.6476	175.7922	0.0436434	22.91295	71.70963	70.74286	26.93713	0.33106	 	1.80641E18	 	8.46101E-19	 	-664.452	24.5966	 
35.0	1.0	0.0	2.72851	10.00813	-11.98525	22.59617	175.30964	0.0430648	23.22082	71.88216	70.83562	27.00568	0.33087	 	4.16414E18	 	3.6118E-19	 	-787.014	24.5124	 
30.0	1.0	0.0	2.72943	10.00474	-12.01513	22.54475	174.8069	0.0424879	23.53612	72.05354	70.92782	27.07379	0.33069	 	9.86731E18	 	1.4995E-19	 	-909.146	24.4264	 
25.0	1.0	0.0	2.73036	10.00135	-12.04487	 	174.28305	0.0419127	23.85911	72.22377	71.01947	27.14144	0.33051	 	2.40679E19	 	6.0462E-20	 	-1030.835	 	 
