T (C)	Fraction solid (wt)-TOTAL	Fraction liquid (wt)-LIQUID	Density (g/(cm)^3)-TOTAL	Molar volume (cm^3)-TOTAL	Volume change (%)-  	Average expansion coeff. (10e-6 1/K)-  	Thermal conductivity (W/(m*K))-TOTAL	Electrical resistivity (10e-6 Ohm*m)-TOTAL	Electrical conductivity (10e6 1/(Ohm*m))-TOTAL	Young's modulus (GPa)-TOTAL	Bulk modulus (GPa)-TOTAL	Shear modulus(GPa)-TOTAL	Poisson's ratio-TOTAL	Liquid viscosity (mPa s)-  	Total viscosity (mPa s)-  	Liquid diffusivity (10e-9 (m^2)/s)-  	Total diffusivity (10e-9 (m^2)/s)-  	Surface Tension (mN/m)-  	Enthalpy (J/mole)-TOTAL	Specific heat (J/(mole K))-TOTAL	Latent heat (J/mole)-TOTAL
700.0	0.0	1.0	2.42101	11.30686	0.0	67.46505	89.75631	0.26563	3.7646	0.0	51.07626	0.0	0.5	1.25322	1.25322	3.79001	3.79001	793.18933	29334.812	 	0.0
695.0	0.0	1.0	2.42267	11.29907	-0.0688905	67.57896	89.5914	0.26475	3.77709	0.0	51.14105	0.0	0.5	1.26673	1.26673	3.73031	3.73031	794.37607	29176.032	31.756	0.0
690.0	0.0	1.0	2.42434	11.29131	-0.13756	67.69583	89.42648	0.26387	3.78971	0.0	51.20584	0.0	0.5	1.28053	1.28053	3.67105	3.67105	795.55911	29017.256	31.7552	0.0
685.0	0.0	1.0	2.426	11.28357	-0.20601	67.81573	89.26157	0.26299	3.80246	0.0	51.27063	0.0	0.5	1.29463	1.29463	3.61221	3.61221	796.73883	28858.486	31.754	0.0
680.0	0.0	1.0	2.42766	11.27585	-0.27425	67.93873	89.09665	0.2621	3.81535	0.0	51.33542	0.0	0.5	1.30904	1.30904	3.55382	3.55382	797.91512	28699.721	31.753	0.0
675.0	0.0	1.0	2.42932	11.26816	-0.34226	68.06489	88.93173	0.26121	3.82837	0.0	51.40021	0.0	0.5	1.32376	1.32376	3.49587	3.49587	799.08784	28540.96	31.7522	0.0
674.61	0.0	1.0	2.42945	11.26756	-0.34761	68.07498	88.91873	0.26114	3.8294	0.0	51.40532	0.0	0.5	1.32493	1.32493	3.49132	3.49132	799.18031	28528.44	31.7517	0.0
670.0	2.3E-4	0.99977	2.431	11.26034	-0.41146	68.18608	88.77094	0.2603	3.8417	8.40678E-14	51.46477	2.80236E-14	0.49994	1.33856	1.33856	3.43897	3.43897	800.24258	28377.905	32.6846	4.303
665.96	4.1E-4	0.99959	2.43235	11.25411	-0.46658	68.2898	88.64178	0.25956	3.85261	9.67793E-13	51.51729	3.22619E-13	0.4999	1.35075	1.35075	3.39335	3.39335	801.17317	28246.082	 	7.911
665.0	0.0018	0.9982	2.43295	11.25131	-0.49136	68.24578	88.61331	0.25938	3.85532	1.46062E-10	51.53467	4.87017E-11	0.49956	1.35299	1.35299	3.38427	3.38427	801.38206	28195.31	36.519	28.147
660.0	0.00871	0.99129	2.43598	11.23735	-0.61478	68.04672	88.46699	0.25843	3.86958	1.87457E-7	51.62923	6.25749E-8	0.49786	1.36488	1.36488	3.3369	3.3369	802.47031	27935.624	51.9372	129.078
656.31	0.0135	0.9865	2.43815	11.22729	-0.70372	67.91021	88.35762	0.25772	3.88012	1.16915E-6	51.6995	3.90584E-7	0.49667	1.37395	1.37395	3.30179	3.30179	803.27528	27748.692	 	199.105
656.31	0.0135	0.9865	2.43815	11.22729	-0.70372	67.9102	88.35763	0.25772	3.88012	1.16915E-6	51.6995	3.90584E-7	0.49667	1.37395	1.39587	3.30179	3.24993	803.27524	27748.69	 	199.107
655.0	0.0595701	0.94043	2.44597	11.19138	-1.02138	66.14154	90.55044	0.25113	3.98205	1.20836E-4	51.59451	4.05224E-5	0.49097	1.37713	1.51751	3.2895	2.9852	802.54004	27200.415	147.042	705.734
650.0	0.43512	0.56488	2.51031	10.90458	-3.55784	51.29478	113.71059	0.1989	5.02762	1.10017	52.33531	0.38097	0.44393	1.39963	111.27286	3.21918	0.040492	793.90718	22943.224	851.438	4804.716
645.95	0.63444	0.36556	2.54621	10.75082	-4.91771	43.33232	131.76012	0.1709	5.85136	5.78091	52.82298	2.03867	0.41781	1.42499	537.83551	3.14802	0.00834062	786.50749	20650.299	 	6969.637
645.95	0.63444	0.36556	2.54621	10.75082	-4.91771	43.33232	131.76012	0.1709	5.85136	5.78091	52.82298	2.03867	0.41781	1.42499	537.83562	3.14802	0.00834062	786.50749	20650.298	 	6969.638
645.0	0.67905	0.32095	2.55436	10.71653	-5.22104	41.54488	136.79406	0.16444	6.08118	7.7984	52.93981	2.76185	0.41181	1.4299	717.81771	3.13397	0.0062429	784.41547	20123.349	563.975	7466.724
640.0	0.81813	0.18187	2.58063	10.60735	-6.18661	35.93426	155.14302	0.1442	6.93464	17.80131	53.37648	6.39121	0.39264	1.45922	1661.96304	3.05428	0.00268168	777.11186	18419.612	340.747	9012.937
635.0	0.87479	0.12521	2.59221	10.55984	-6.60682	33.61884	163.91871	0.13574	7.36724	24.04321	53.68507	8.68288	0.38452	1.49158	2393.49106	2.97165	0.00185188	773.04786	17634.432	157.036	9640.937
630.0	0.90548	0.0945181	2.59908	10.53176	-6.85517	32.34145	169.07818	0.13087	7.6412	28.15486	53.95336	10.20164	0.37992	1.52596	3031.10649	2.8887	0.00145427	770.50474	17136.105	99.6654	9982.426
625.0	0.92473	0.0752661	2.60386	10.51225	-7.02771	31.52144	172.51579	0.12755	7.83996	31.08014	54.20302	11.28643	0.37688	1.56199	3641.71561	2.80646	0.00120373	768.82201	16763.754	74.4702	10198.283
620.0	0.93793	0.0620682	2.60753	10.49728	-7.16015	30.94303	175.00042	0.12504	7.9974	33.29116	54.44197	12.10877	0.37467	1.59948	4261.53226	2.72542	0.00102293	767.6848	16457.959	61.159	10347.93
615.0	0.94754	0.0524559	2.61053	10.485	-7.26872	30.50802	176.90485	0.123	8.12994	35.04313	54.67386	12.76194	0.37295	1.63834	4913.76449	2.64587	8.82183E-4	766.92061	16191.665	53.2588	10458.416
610.0	0.95486	0.0451383	2.61312	10.47444	-7.36207	30.16425	178.42902	0.12126	8.24641	36.48388	54.9005	13.30021	0.37155	1.67851	5615.7933	2.56801	7.67556E-4	766.42586	15950.764	48.1802	10543.851
605.0	0.96063	0.039372	2.61541	10.46507	-7.445	29.88255	179.69172	0.11973	8.35205	37.70527	55.12301	13.75739	0.37036	1.71988	6382.76709	2.49206	6.71501E-4	766.1338	15727.136	44.7256	10612.355
600.0	0.96531	0.0346913	2.6175	10.45651	-7.52065	29.64395	180.76754	0.11834	8.45017	38.76849	55.34198	14.15606	0.36932	1.76223	7229.416	2.41832	5.89484E-4	765.99984	15515.658	42.2956	10669.049
599.95	0.96536	0.0346447	2.61752	10.45642	-7.52144	29.64155	180.77818	0.11833	8.4512	38.77926	55.34437	14.16011	0.36931	1.7627	7239.1595	2.41752	5.88654E-4	765.99895	15513.429	 	10669.584
599.95	0.96536	0.0346447	2.61752	10.45642	-7.52147	29.64132	180.77817	0.11833	8.4512	38.77932	55.34436	14.16013	0.36931	1.7627	7239.18093	2.41751	5.88652E-4	765.99902	15513.397	 	10669.611
595.0	0.96992	0.0300787	2.6196	10.44798	-7.59616	29.40206	181.80581	0.11699	8.54765	39.8431	55.55716	14.55973	0.36826	1.80056	8194.08128	2.35328	5.17108E-4	765.93899	15304.572	42.2172	10725.691
592.01	0.97221	0.0277923	2.62077	10.44323	-7.63813	29.27686	182.34841	0.11624	8.60283	40.41163	55.68483	14.77358	0.3677	1.82421	8819.96704	2.31476	4.78756E-4	765.96841	15183.668	 	10754.285
590.0	0.97358	0.0264171	2.62152	10.44017	-7.66518	29.19943	182.68548	0.11576	8.63877	40.76723	55.76991	14.90745	0.36734	1.84036	9262.17487	2.28913	4.54841E-4	766.01184	15104.475	40.0194	10771.682
585.0	0.97658	0.0234202	2.62331	10.43288	-7.72964	29.02401	183.45203	0.11461	8.72556	41.5841	55.9803	15.21529	0.36652	1.88161	10453.78523	2.22598	4.0066E-4	766.19841	14912.216	38.4518	10810.171
580.0	0.97908	0.0209204	2.62501	10.42598	-7.79066	28.86892	184.13348	0.11352	8.8093	42.31913	56.1885	15.4927	0.36578	1.92435	11789.49045	2.16386	3.53197E-4	766.46969	14725.948	37.2536	10843.004
575.0	0.9812	0.0187998	2.62663	10.41938	-7.84903	28.72931	184.7493	0.11247	8.89087	42.9906	56.39463	15.74648	0.36509	1.96858	13292.30038	2.10284	3.11429E-4	766.80947	14544.355	36.3186	10871.496
570.0	0.98302	0.0169768	2.6282	10.41303	-7.90527	28.60188	185.31388	0.11147	8.97092	43.61198	56.59876	15.98163	0.36444	2.01436	14988.31252	2.04293	2.74561E-4	767.20561	14366.515	35.568	10896.566
565.0	0.98461	0.0153891	2.62972	10.40686	-7.95983	28.48392	185.8366	0.1105	9.04989	44.19268	56.80095	16.20167	0.36383	2.0617	16907.0521	1.98419	2.41958E-4	767.64902	14191.763	34.9504	10918.878
563.23	0.98512	0.0148772	2.63024	10.40471	-7.97878	28.44414	186.01295	0.11016	9.07764	44.38969	56.87204	16.27638	0.36362	2.07884	17645.43199	1.96367	2.31344E-4	767.81493	14130.591	 	10926.196
560.0	0.99149	0.00851394	2.63144	10.39909	-8.02856	28.26345	187.16354	0.10906	9.16921	45.84341	57.03149	16.82485	0.36237	2.12817	19508.29773	1.91075	2.08445E-4	766.378	13945.465	49.2596	11013.063
555.0	0.99695	0.0030509	2.63285	10.39209	-8.09047	28.08752	188.25628	0.10778	9.27843	47.2471	57.25332	17.35581	0.36113	2.20903	22409.36133	1.82976	1.80371E-4	765.04124	13717.104	45.6722	11089.636
550.0	1.0	0.0	2.63402	10.38604	-8.14396	27.96894	188.97883	0.10672	9.37061	48.17229	57.46045	17.70683	0.36027	 	25529.25923	 	1.57372E-4	 	13520.824	39.256	11134.451
545.0	1.0	0.0	2.6353	10.38101	-8.18838	27.91424	189.21799	0.10593	9.43981	48.46496	57.65456	17.81933	0.3599	 	28774.57111	 	1.38775E-4	 	13249.517	54.2614	 
540.0	1.0	0.0	2.63657	10.37601	-8.23265	27.85957	189.45563	0.10515	9.50979	48.75645	57.84702	17.93143	0.35952	 	32480.19533	 	1.22191E-4	 	13093.766	31.1502	 
535.0	1.0	0.0	2.63784	10.37102	-8.27677	27.80493	189.69173	0.10438	9.58055	49.04677	58.03785	18.04314	0.35915	 	36718.03199	 	1.07423E-4	 	12938.504	31.0524	 
530.0	1.0	0.0	2.6391	10.36605	-8.32075	27.75032	189.92626	0.1036	9.65211	49.3359	58.22706	18.15445	0.35878	 	41572.2287	 	9.42931E-5	 	12783.722	30.9564	 
525.0	1.0	0.0	2.64036	10.36109	-8.36457	27.69575	190.15921	0.10283	9.72449	49.62387	58.41469	18.26536	0.35841	 	47141.43852	 	8.26358E-5	 	12629.413	30.8618	 
520.0	1.0	0.0	2.64162	10.35615	-8.40825	27.64121	190.39054	0.10206	9.7977	49.91065	58.60074	18.37587	0.35805	 	53541.52568	 	7.23022E-5	 	12475.569	30.7688	 
515.0	1.0	0.0	2.64288	10.35123	-8.45177	27.5867	190.62024	0.1013	9.87175	50.19627	58.78524	18.48598	0.35768	 	60908.81407	 	6.31561E-5	 	12322.18	30.6778	 
510.0	1.0	0.0	2.64413	10.34633	-8.49515	27.53223	190.84828	0.10054	9.94666	50.4807	58.96821	18.59569	0.35732	 	69403.9951	 	5.50741E-5	 	12169.24	30.588	 
505.0	1.0	0.0	2.64538	10.34144	-8.53839	27.47778	191.07463	0.0997761	10.02244	50.76396	59.14967	18.70501	0.35696	 	79216.83817	 	4.79438E-5	 	12016.739	30.5002	 
500.0	1.0	0.0	2.64663	10.33657	-8.58147	27.42337	191.29928	0.0990185	10.09912	51.04605	59.32964	18.81392	0.3566	 	90571.88001	 	4.16636E-5	 	11864.67	30.4138	 
495.0	1.0	0.0	2.64787	10.33171	-8.62441	27.36899	191.5222	0.0982637	10.1767	51.32696	59.50813	18.92243	0.35625	 	103735.3106	 	3.61415E-5	 	11713.024	30.3292	 
490.0	1.0	0.0	2.64911	10.32688	-8.6672	27.31464	191.74335	0.0975115	10.2552	51.60669	59.68516	19.03053	0.35589	 	119023.3246	 	3.12942E-5	 	11561.793	30.2462	 
485.0	1.0	0.0	2.65035	10.32205	-8.70984	27.26033	191.96272	0.0967619	10.33465	51.88526	59.86075	19.13824	0.35554	 	136812.2727	 	2.70469E-5	 	11410.97	30.1646	 
480.0	1.0	0.0	2.65158	10.31725	-8.75233	27.20605	192.18027	0.0960149	10.41505	52.16264	60.03492	19.24554	0.35519	 	157551.0267	 	2.33317E-5	 	11260.545	30.085	 
475.0	1.0	0.0	2.65281	10.31246	-8.79468	27.1518	192.39598	0.0952706	10.49642	52.43886	60.20769	19.35243	0.35484	 	181776.0748	 	2.00881E-5	 	11110.511	30.0068	 
470.0	1.0	0.0	2.65404	10.30769	-8.83688	27.09758	192.60981	0.0945288	10.57879	52.71459	60.37987	19.45918	0.35449	 	210129.9926	 	1.72614E-5	 	10960.86	29.9302	 
465.0	1.0	0.0	2.65527	10.30293	-8.87893	27.04339	192.82175	0.0937896	10.66216	52.98847	60.54989	19.56526	0.35415	 	243384.0955	 	1.48026E-5	 	10811.583	29.8554	 
460.0	1.0	0.0	2.65649	10.2982	-8.92084	26.98924	193.03175	0.093053	10.74657	53.26307	60.72072	19.67165	0.3538	 	282466.2854	 	1.26681E-5	 	10662.672	29.7822	 
455.0	1.0	0.0	2.65771	10.29347	-8.9626	26.93512	193.23979	0.0923189	10.83202	53.53461	60.88805	19.77692	0.35346	 	328495.3637	 	1.08188E-5	 	10514.12	29.7104	 
450.0	1.0	0.0	2.65892	10.28877	-9.00422	26.88103	193.44583	0.0915873	10.91855	53.80497	61.05406	19.88179	0.35312	 	382823.4173	 	9.2197E-6	 	10365.918	29.6404	 
445.0	1.0	0.0	2.66013	10.28408	-9.04568	26.82698	193.64984	0.0908582	11.00616	54.07415	61.21876	19.98624	0.35278	 	447088.3046	 	7.83986E-6	 	10218.059	29.5718	 
440.0	1.0	0.0	2.66134	10.27941	-9.087	26.77295	193.85179	0.0901316	11.09489	54.34217	61.38217	20.09029	0.35245	 	523278.8151	 	6.65173E-6	 	10070.533	29.5052	 
435.0	1.0	0.0	2.66255	10.27475	-9.12818	26.71896	194.05165	0.0894075	11.18474	54.60901	61.54431	20.19393	0.35211	 	613815.7725	 	5.63085E-6	 	9923.334	29.4398	 
430.0	1.0	0.0	2.66375	10.27011	-9.16921	26.665	194.24937	0.0886859	11.27575	54.87468	61.70518	20.29715	0.35178	 	721653.246	 	4.75561E-6	 	9776.452	29.3764	 
425.0	1.0	0.0	2.66495	10.26549	-9.21009	26.61108	194.44492	0.0879667	11.36794	55.13917	61.86481	20.39997	0.35145	 	850405.1983	 	4.00691E-6	 	9629.882	29.314	 
420.0	1.0	0.0	2.66615	10.26088	-9.25083	26.55718	194.63827	0.0872499	11.46133	55.40249	62.02321	20.50237	0.35112	 	1004504.397	 	3.36792E-6	 	9483.613	29.2538	 
415.0	1.0	0.0	2.66734	10.2563	-9.29142	26.50332	194.82937	0.0865356	11.55594	55.66464	62.18039	20.60436	0.3508	 	1189402.365	 	2.82385E-6	 	9337.642	29.1942	 
410.0	1.0	0.0	2.66853	10.25172	-9.33187	26.44949	195.01818	0.0858237	11.6518	55.92562	62.33637	20.70593	0.35047	 	1411821.693	 	2.36169E-6	 	9191.969	29.1346	 
405.0	1.0	0.0	2.66972	10.24717	-9.37217	26.39569	195.20467	0.0851141	11.74893	56.18544	62.49117	20.80709	0.35015	 	1680075.346	 	1.97008E-6	 	9046.593	29.0752	 
400.0	1.0	0.0	2.6709	10.24262	-9.41233	26.34193	195.38879	0.084407	11.84736	56.44407	62.64479	20.90784	0.34983	 	2004471.963	 	1.63907E-6	 	8901.514	29.0158	 
395.0	1.0	0.0	2.67208	10.2381	-9.45234	26.28819	195.57051	0.0837022	11.94712	56.70153	62.79724	21.00817	0.34951	 	2397831.872	 	1.36001E-6	 	8756.729	28.957	 
390.0	1.0	0.0	2.67326	10.23359	-9.4922	26.23449	195.74976	0.0829997	12.04823	56.95782	62.94855	21.10808	0.34919	 	2876146.094	 	1.12535E-6	 	8612.239	28.898	 
385.0	1.0	0.0	2.67443	10.2291	-9.53192	26.18083	195.92652	0.0822996	12.15073	57.21294	63.09872	21.20757	0.34888	 	3459420.637	 	9.28556E-7	 	8468.044	28.839	 
380.0	1.0	0.0	2.6756	10.22463	-9.5715	26.12719	196.10073	0.0816018	12.25463	57.46689	63.24776	21.30665	0.34857	 	4172761.678	 	7.6397E-7	 	8324.141	28.7806	 
375.0	1.0	0.0	2.67677	10.22017	-9.61093	26.07359	196.27234	0.0809063	12.35997	57.71966	63.3957	21.40531	0.34826	 	5047774.954	 	6.26704E-7	 	8180.531	28.722	 
370.0	1.0	0.0	2.67793	10.21573	-9.65022	26.02002	196.44131	0.0802131	12.46678	57.97126	63.54254	21.50355	0.34795	 	6124376.473	 	5.12551E-7	 	8037.212	28.6638	 
365.0	1.0	0.0	2.67909	10.2113	-9.68936	25.96648	196.60758	0.0795222	12.5751	58.2217	63.68829	21.60137	0.34764	 	7453143.486	 	4.17898E-7	 	7894.185	28.6054	 
360.0	1.0	0.0	2.68025	10.20689	-9.72836	25.91297	196.7711	0.0788336	12.68495	58.47096	63.83298	21.69877	0.34733	 	9098377.737	 	3.39648E-7	 	7751.449	28.5472	 
355.0	1.0	0.0	2.68141	10.2025	-9.76722	25.8595	196.93182	0.0781472	12.79636	58.71905	63.9766	21.79575	0.34703	 	1.114211114E7	 	2.75158E-7	 	7609.002	28.4894	 
350.0	1.0	0.0	2.68256	10.19812	-9.80593	25.80605	197.08967	0.0774631	12.90937	58.96597	64.11917	21.89231	0.34673	 	1.368936317E7	 	2.22175E-7	 	7466.845	28.4314	 
345.0	1.0	0.0	2.6837	10.19376	-9.8445	25.75264	197.24461	0.0767812	13.02402	59.21172	64.2607	21.98844	0.34643	 	1.687506716E7	 	1.78787E-7	 	7324.977	28.3736	 
340.0	1.0	0.0	2.68485	10.18942	-9.88292	25.69927	197.39658	0.0761015	13.14035	59.4563	64.40121	22.08415	0.34613	 	2.087323045E7	 	1.43372E-7	 	7183.397	28.316	 
335.0	1.0	0.0	2.68599	10.18509	-9.9212	25.64592	197.5455	0.075424	13.25838	59.6997	64.5407	22.17944	0.34583	 	2.590909656E7	 	1.14563E-7	 	7042.104	28.2586	 
330.0	1.0	0.0	2.68713	10.18077	-9.95934	25.59261	197.69133	0.0747487	13.37815	59.94194	64.67919	22.2743	0.34554	 	3.227535871E7	 	9.12097E-8	 	6901.099	28.201	 
325.0	1.0	0.0	2.68826	10.17648	-9.99733	25.53933	197.83398	0.0740756	13.49972	60.18301	64.81668	22.36874	0.34525	 	4.035386326E7	 	7.23455E-8	 	6760.381	28.1436	 
320.0	1.0	0.0	2.68939	10.1722	-10.03518	25.48608	197.9734	0.0734047	13.62311	60.42291	64.9532	22.46275	0.34496	 	5.064478501E7	 	5.71632E-8	 	6619.949	28.0864	 
315.0	1.0	0.0	2.69052	10.16794	-10.07289	25.43286	198.10952	0.0727359	13.74837	60.66163	65.08874	22.55634	0.34467	 	6.380601658E7	 	4.49897E-8	 	6479.803	28.0292	 
310.0	1.0	0.0	2.69164	10.16369	-10.11045	25.37968	198.24225	0.0720693	13.87554	60.89919	65.22332	22.6495	0.34438	 	8.070658355E7	 	3.52661E-8	 	6339.942	27.9722	 
305.0	1.0	0.0	2.69277	10.15946	-10.14788	25.32653	198.37154	0.0714048	14.00467	61.13558	65.35695	22.74223	0.3441	 	1.024994089E8	 	2.753E-8	 	6200.367	27.915	 
300.0	1.0	0.0	2.69388	10.15524	-10.18515	25.27341	198.4973	0.0707424	14.13579	61.3708	65.48964	22.83453	0.34382	 	1.307208969E8	 	2.13998E-8	 	6061.077	27.858	 
295.0	1.0	0.0	2.695	10.15104	-10.22229	25.22032	198.61944	0.0700821	14.26897	61.60485	65.62139	22.92641	0.34353	 	1.674278721E8	 	1.65623E-8	 	5922.072	27.801	 
290.0	1.0	0.0	2.69611	10.14686	-10.25929	25.16727	198.7379	0.069424	14.40425	61.83773	65.75223	23.01785	0.34326	 	2.153868054E8	 	1.27612E-8	 	5783.35	27.7444	 
285.0	1.0	0.0	2.69722	10.14269	-10.29614	25.11425	198.85258	0.0687679	14.54167	62.06944	65.88216	23.10887	0.34298	 	2.783366037E8	 	9.7874E-9	 	5644.913	27.6874	 
280.0	1.0	0.0	2.69832	10.13854	-10.33285	25.06126	198.9634	0.0681139	14.68129	62.29998	66.01118	23.19945	0.3427	 	3.613554349E8	 	7.47128E-9	 	5506.761	27.6304	 
275.0	1.0	0.0	2.69942	10.13441	-10.36941	25.0083	199.07025	0.067462	14.82316	62.52935	66.13932	23.28961	0.34243	 	4.713754752E8	 	5.6757E-9	 	5368.892	27.5738	 
270.0	1.0	0.0	2.70052	10.13029	-10.40584	24.95537	199.17306	0.0668121	14.96734	62.75755	66.26657	23.37933	0.34216	 	6.179091341E8	 	4.29024E-9	 	5231.307	27.517	 
265.0	1.0	0.0	2.70161	10.12619	-10.44213	24.90248	199.27172	0.0661643	15.11389	62.98458	66.39295	23.46862	0.34189	 	8.140793229E8	 	3.22644E-9	 	5094.005	27.4604	 
260.0	1.0	0.0	2.7027	10.1221	-10.47827	24.84962	199.36612	0.0655185	15.26286	63.21045	66.51846	23.55748	0.34162	 	1.078089384E9	 	2.41369E-9	 	4956.988	27.4034	 
255.0	1.0	0.0	2.70379	10.11803	-10.51427	24.79679	199.45617	0.0648748	15.41431	63.43515	66.64312	23.6459	0.34136	 	1.435332566E9	 	1.79594E-9	 	4820.254	27.3468	 
250.0	1.0	0.0	2.70488	10.11397	-10.55013	24.744	199.54174	0.0642331	15.56831	63.65868	66.76693	23.73389	0.34109	 	1.921437474E9	 	1.32888E-9	 	4683.805	27.2898	 
245.0	1.0	0.0	2.70596	10.10994	-10.58585	24.69124	199.62274	0.0635933	15.72492	63.88104	66.88991	23.82145	0.34083	 	2.586691912E9	 	9.77682E-10	 	4547.64	27.233	 
240.0	1.0	0.0	2.70703	10.10591	-10.62143	24.6385	199.69904	0.0629556	15.88421	64.10223	67.01205	23.90857	0.34057	 	3.5025097E9	 	7.15075E-10	 	4411.759	27.1762	 
235.0	1.0	0.0	2.70811	10.10191	-10.65686	24.58581	199.77051	0.0623199	16.04624	64.32225	67.13338	23.99525	0.34031	 	4.770945513E9	 	5.19845E-10	 	4276.163	27.1192	 
230.0	1.0	0.0	2.70918	10.09792	-10.69216	24.53314	199.83703	0.0616861	16.2111	64.54111	67.2539	24.0815	0.34006	 	6.53878808E9	 	3.75567E-10	 	4140.851	27.0624	 
225.0	1.0	0.0	2.71024	10.09394	-10.72731	24.48051	199.89847	0.0610544	16.37884	64.7588	67.37361	24.16731	0.3398	 	9.018578537E9	 	2.69593E-10	 	4005.826	27.005	 
220.0	1.0	0.0	2.71131	10.08998	-10.76233	24.4279	199.95469	0.0604246	16.54956	64.97532	67.49253	24.25268	0.33955	 	1.2520199999999998E10	 	1.92245E-10	 	3871.086	26.948	 
215.0	1.0	0.0	2.71237	10.08604	-10.7972	24.37533	200.00555	0.0597967	16.72333	65.19068	67.61066	24.33762	0.3393	 	1.74985E10	 	1.36157E-10	 	3736.633	26.8906	 
210.0	1.0	0.0	2.71342	10.08211	-10.83193	24.3228	200.05089	0.0591708	16.90022	65.40487	67.72801	24.42211	0.33905	 	2.4626499999999996E10	 	9.57562E-11	 	3602.467	26.8332	 
205.0	1.0	0.0	2.71448	10.0782	-10.86653	24.27029	200.09056	0.0585469	17.08033	65.61789	67.84459	24.50617	0.3388	 	3.49065E10	 	6.68567E-11	 	3468.589	26.7756	 
200.0	1.0	0.0	2.71553	10.0743	-10.90098	24.21782	200.12439	0.0579248	17.26375	65.82974	67.9604	24.58979	0.33856	 	4.984389999999999E10	 	4.63312E-11	 	3334.999	26.718	 
195.0	1.0	0.0	2.71657	10.07042	-10.93529	24.16538	200.15223	0.0573048	17.45056	66.04043	68.07546	24.67296	0.33832	 	7.1717E10	 	3.18603E-11	 	3201.7	26.6598	 
190.0	1.0	0.0	2.71762	10.06656	-10.96947	24.11297	200.17389	0.0566866	17.64086	66.24995	68.18978	24.7557	0.33807	 	1.04003E11	 	2.17352E-11	 	3068.69	26.602	 
185.0	1.0	0.0	2.71865	10.06271	-11.0035	24.06059	200.18918	0.0560703	17.83474	66.45831	68.30335	24.838	0.33784	 	1.52051E11	 	1.47063E-11	 	2935.973	26.5434	 
180.0	1.0	0.0	2.71969	10.05888	-11.0374	24.00825	200.19793	0.055456	18.03232	66.6655	68.41619	24.91985	0.3376	 	2.24169E11	 	9.86627E-12	 	2803.548	26.485	 
175.0	1.0	0.0	2.72072	10.05506	-11.07115	23.95594	200.19991	0.0548436	18.23368	66.87152	68.52831	25.00126	0.33736	 	3.33367E11	 	6.56126E-12	 	2671.417	26.4262	 
170.0	1.0	0.0	2.72175	10.05126	-11.10477	23.90366	200.19494	0.054233	18.43895	67.07638	68.6397	25.08223	0.33713	 	5.00218E11	 	4.32392E-12	 	2539.582	26.367	 
165.0	1.0	0.0	2.72278	10.04748	-11.13824	23.85142	200.18278	0.0536244	18.64824	67.28007	68.75039	25.16276	0.3369	 	7.57562E11	 	2.82287E-12	 	2408.044	26.3076	 
160.0	1.0	0.0	2.7238	10.04371	-11.17158	23.7992	200.16321	0.0530176	18.86166	67.4826	68.86037	25.24284	0.33667	 	1.15835E12	 	1.8251E-12	 	2276.804	26.248	 
155.0	1.0	0.0	2.72482	10.03995	-11.20478	23.74702	200.13598	0.0524127	19.07933	67.68397	68.96966	25.32248	0.33644	 	1.78882E12	 	1.1682E-12	 	2145.866	26.1876	 
150.0	1.0	0.0	2.72583	10.03622	-11.23784	23.69487	200.10086	0.0518097	19.30139	67.88417	69.07825	25.40168	0.33621	 	2.79096E12	 	7.39992E-13	 	2015.23	26.1272	 
145.0	1.0	0.0	2.72684	10.03249	-11.27076	23.64275	200.05756	0.0512086	19.52796	68.0832	69.18617	25.48042	0.33599	 	4.40111E12	 	4.63721E-13	 	1884.898	26.0664	 
140.0	1.0	0.0	2.72785	10.02879	-11.30354	23.59067	200.00583	0.0506094	19.75918	68.28107	69.2934	25.55873	0.33577	 	7.0171E12	 	2.87367E-13	 	1754.873	26.005	 
135.0	1.0	0.0	2.72886	10.0251	-11.33619	23.53861	199.94536	0.050012	19.99519	68.47778	69.39997	25.63659	0.33555	 	1.13166E13	 	1.76031E-13	 	1625.158	25.943	 
130.0	1.0	0.0	2.72986	10.02142	-11.36869	23.48659	199.87586	0.0494165	20.23614	68.67333	69.50588	25.714	0.33533	 	1.84682E13	 	1.06544E-13	 	1495.755	25.8806	 
125.0	1.0	0.0	2.73085	10.01776	-11.40106	23.43461	199.797	0.0488229	20.48218	68.86771	69.61113	25.79096	0.33511	 	3.05123E13	 	6.36881E-14	 	1366.667	25.8176	 
120.0	1.0	0.0	2.73185	10.01412	-11.43329	23.38265	199.70846	0.0482312	20.73348	69.06094	69.71573	25.86748	0.3349	 	5.1059E13	 	3.75814E-14	 	1237.896	25.7542	 
115.0	1.0	0.0	2.73284	10.01049	-11.46538	23.33073	199.60988	0.0476413	20.99019	69.25299	69.81969	25.94355	0.33469	 	8.65823E13	 	2.18805E-14	 	1109.447	25.6898	 
110.0	1.0	0.0	2.73382	10.00688	-11.49733	23.27884	199.50088	0.0470533	21.25249	69.44389	69.92301	26.01917	0.33448	 	1.48858E14	 	1.25627E-14	 	981.322	25.625	 
105.0	1.0	0.0	2.73481	10.00328	-11.52915	23.22698	199.38108	0.0464672	21.52057	69.63363	70.0257	26.09435	0.33427	 	2.5961999999999997E14	 	7.10905E-15	 	853.526	25.5592	 
100.0	1.0	0.0	2.73579	9.9997	-11.56083	23.17515	199.25007	0.0458829	21.7946	69.8222	70.12777	26.16907	0.33406	 	4.59599E14	 	3.9627E-15	 	726.062	25.4928	 
95.0	1.0	0.0	2.73676	9.99613	-11.59237	23.12336	199.10741	0.0453005	22.07479	70.00962	70.22922	26.24335	0.33385	 	8.26337E14	 	2.17447E-15	 	598.936	25.4252	 
90.0	1.0	0.0	2.73774	9.99258	-11.62377	23.0716	198.95265	0.0447201	22.36133	70.19587	70.33006	26.31718	0.33365	 	1.50991E15	 	1.17387E-15	 	472.15	25.3572	 
85.0	1.0	0.0	2.7387	9.98904	-11.65504	23.01987	198.7853	0.0441415	22.65443	70.38097	70.43029	26.39055	0.33345	 	2.80578E15	 	6.23013E-16	 	345.711	25.2878	 
80.0	1.0	0.0	2.73967	9.98552	-11.68617	22.96817	198.60486	0.0435648	22.95433	70.5649	70.52993	26.46348	0.33325	 	5.30613E15	 	3.24839E-16	 	219.624	25.2174	 
75.0	1.0	0.0	2.74063	9.98202	-11.71716	22.91651	198.41077	0.04299	23.26123	70.74768	70.62897	26.53596	0.33305	 	1.022E16	 	1.66266E-16	 	93.894	25.146	 
70.0	1.0	0.0	2.74159	9.97853	-11.74802	22.86487	198.20248	0.0424171	23.5754	70.9293	70.72743	26.60798	0.33286	 	2.0064E16	 	8.34745E-17	 	-31.472	25.0732	 
65.0	1.0	0.0	2.74254	9.97506	-11.77874	22.81327	197.97937	0.0418462	23.89706	71.10977	70.8253	26.67956	0.33266	 	4.01836E16	 	4.10722E-17	 	-156.469	24.9994	 
60.0	1.0	0.0	2.7435	9.9716	-11.80932	22.7617	197.74081	0.0412771	24.22649	71.28908	70.9226	26.75068	0.33247	 	8.21739E16	 	1.97876E-17	 	-281.088	24.9238	 
55.0	1.0	0.0	2.74444	9.96816	-11.83977	22.71017	197.48611	0.0407101	24.56394	71.46723	71.01933	26.82136	0.33228	 	1.71746E17	 	9.3255E-18	 	-405.323	24.847	 
50.0	1.0	0.0	2.74539	9.96473	-11.87008	22.65867	197.21455	0.040145	24.90971	71.64423	71.11551	26.89158	0.33209	 	3.67238E17	 	4.2948E-18	 	-529.164	24.7682	 
45.0	1.0	0.0	2.74633	9.96132	-11.90026	22.60719	196.92536	0.0395819	25.26409	71.82008	71.21112	26.96135	0.33191	 	8.04234E17	 	1.9308E-18	 	-652.605	24.6882	 
40.0	1.0	0.0	2.74726	9.95792	-11.93029	22.55576	196.61773	0.0390208	25.62738	71.99477	71.30618	27.03067	0.33172	 	1.80588E18	 	8.46351E-19	 	-775.635	24.606	 
35.0	1.0	0.0	2.7482	9.95454	-11.9602	22.50435	196.29077	0.0384617	25.9999	72.16831	71.4007	27.09953	0.33154	 	4.16289E18	 	3.61288E-19	 	-898.244	24.5218	 
30.0	1.0	0.0	2.74913	9.95117	-11.98996	22.45298	195.94357	0.0379047	26.38198	72.3407	71.49468	27.16795	0.33136	 	9.8643E18	 	1.49995E-19	 	-1020.422	24.4356	 
25.0	1.0	0.0	2.75005	9.94782	-12.0196	 	195.57512	0.0373497	26.77397	72.51194	71.58813	27.23591	0.33118	 	2.40605E19	 	6.04808E-20	 	-1142.158	 	 
