T (C)	Fraction solid (wt)-TOTAL	Fraction liquid (wt)-LIQUID	Density (g/(cm)^3)-TOTAL	Molar volume (cm^3)-TOTAL	Volume change (%)-  	Average expansion coeff. (10e-6 1/K)-  	Thermal conductivity (W/(m*K))-TOTAL	Electrical resistivity (10e-6 Ohm*m)-TOTAL	Electrical conductivity (10e6 1/(Ohm*m))-TOTAL	Young's modulus (GPa)-TOTAL	Bulk modulus (GPa)-TOTAL	Shear modulus(GPa)-TOTAL	Poisson's ratio-TOTAL	Liquid viscosity (mPa s)-  	Total viscosity (mPa s)-  	Liquid diffusivity (10e-9 (m^2)/s)-  	Total diffusivity (10e-9 (m^2)/s)-  	Surface Tension (mN/m)-  	Enthalpy (J/mole)-TOTAL	Specific heat (J/(mole K))-TOTAL	Latent heat (J/mole)-TOTAL
1500.0	0.0	1.0	6.91142	7.84689	0.0	25.44126	32.13608	1.79792	0.5562	0.0	101.69109	0.0	0.49975	6.5763	6.5763	1.31598	1.31598	1800.14421	65824.994	 	0.0
1495.0	0.0	1.0	6.91528	7.84251	-0.0557246	25.38721	32.05986	1.79711	0.55645	0.0	101.87505	0.0	0.49975	6.63208	6.63208	1.30124	1.30124	1802.10328	65603.365	44.3258	0.0
1490.0	0.0	1.0	6.91913	7.83815	-0.11129	25.33318	31.98364	1.7963	0.5567	0.0	102.05901	0.0	0.49975	6.68866	6.68866	1.28658	1.28658	1804.05924	65382.327	44.2076	0.0
1485.0	0.0	1.0	6.92297	7.83381	-0.16671	25.27918	31.90742	1.79549	0.55695	0.0	102.24297	0.0	0.49975	6.74604	6.74604	1.27202	1.27202	1806.01204	65161.876	44.0902	0.0
1480.0	0.0	1.0	6.9268	7.82947	-0.22197	25.2252	31.8312	1.79467	0.55721	0.0	102.42693	0.0	0.49975	6.80425	6.80425	1.25755	1.25755	1807.96165	64942.007	43.9738	0.0
1475.98	0.0	1.0	6.92988	7.82599	-0.26632	25.18178	31.76988	1.794	0.55741	0.0	102.57494	0.0	0.49975	6.85168	6.85168	1.24598	1.24598	1809.52786	64765.525	43.8712	0.0070
1475.0	0.03634	0.96366	6.93669	7.81829	-0.36446	24.94774	31.82545	1.78987	0.5587	7.19551E-5	100.76413	2.40748E-5	0.49441	6.85143	7.18734	1.24533	1.18713	1809.15915	64355.173	419.896	367.54
1470.0	0.19298	0.80702	6.96658	7.78483	-0.79085	23.93974	32.05916	1.77174	0.56442	0.0587316	92.9976	0.0199597	0.47125	6.85103	12.2842	1.24184	0.69259	1807.46638	62559.243	359.186	1944.752
1465.0	0.31124	0.68876	6.99002	7.75897	-1.12037	23.1742	32.22516	1.75756	0.56897	0.40637	87.20284	0.13978	0.45357	6.85156	34.98085	1.23818	0.24252	1805.97666	61161.473	279.554	3124.373
1460.0	0.40336	0.59664	7.00903	7.73838	-1.38283	22.57667	32.34448	1.74604	0.57273	1.16877	82.76738	0.40591	0.43967	6.85291	84.55758	1.23438	0.10004	1804.6554	60035.101	225.274	4033.163
1455.0	0.47693	0.52307	7.02491	7.72143	-1.59884	22.09539	32.42994	1.73641	0.5759	2.32524	79.30162	0.81389	0.42846	6.85477	162.08756	1.23048	0.0520377	1803.47908	59100.899	186.84	4750.343
1450.0	0.53683	0.46317	7.03838	7.70729	-1.77901	21.70404	32.49007	1.72818	0.57864	3.79344	76.55665	1.33641	0.41926	6.85754	264.80238	1.22643	0.0317605	1802.42483	58307.931	158.594	5326.847
1445.0	0.58642	0.41358	7.05008	7.69517	-1.93352	21.37693	32.53062	1.72102	0.58105	5.48342	74.35857	1.9423	0.41158	6.86067	389.02908	1.22231	0.0215559	1801.48037	57621.261	137.334	5797.61
1440.0	0.62803	0.37197	7.06038	7.68466	-2.06743	21.10149	32.55583	1.71469	0.5832	7.31664	72.58547	2.60364	0.40508	6.86438	531.37209	1.21809	0.0157356	1800.63095	57016.408	120.971	6187.11
1435.0	0.66335	0.33665	7.06955	7.67539	-2.18551	20.86573	32.56879	1.709	0.58514	9.23085	71.14878	3.29787	0.39952	6.86859	689.03614	1.21379	0.0120996	1799.86668	56475.711	108.139	6513.0
1430.0	0.69365	0.30635	7.07782	7.66712	-2.29097	20.66163	32.57176	1.70384	0.58691	11.17997	69.98244	4.00802	0.3947	6.87328	859.94976	1.20942	0.00966644	1799.1794	55986.139	97.9144	6788.311
1425.0	0.71984	0.28016	7.08536	7.65966	-2.386	20.48367	32.56672	1.6991	0.58855	13.13069	69.03737	4.72158	0.3905	6.87819	1042.63927	1.205	0.0079493	1798.56142	55537.876	89.6526	7022.853
1420.0	0.74267	0.25733	7.09227	7.65292	-2.47194	20.32862	32.55505	1.69471	0.59007	15.05831	68.27591	5.42914	0.38681	6.88381	1236.04215	1.20048	0.00668573	1798.00309	55123.399	82.8954	7224.145
1415.0	0.76274	0.23726	7.09866	7.64675	-2.55049	20.19218	32.53796	1.69059	0.59151	16.95119	67.66576	6.12606	0.38353	6.88982	1439.91177	1.19589	0.00572218	1797.49926	54736.529	77.374	7398.364
1410.0	0.78045	0.21955	7.10463	7.64099	-2.62394	20.06839	32.51593	1.68673	0.59286	18.79632	67.18377	6.80726	0.38061	6.89591	1653.69805	1.19129	0.00496768	1797.05242	54373.04	72.6978	7549.73
1405.0	0.79614	0.20386	7.1102	7.63568	-2.69165	19.95914	32.49005	1.68305	0.59416	20.58665	66.81235	7.46979	0.37799	6.90263	1877.40451	1.1866	0.00436274	1796.64893	54029.23	68.762	7681.942
1400.0	0.81014	0.18986	7.11545	7.63068	-2.75534	19.85995	32.46071	1.67956	0.5954	22.31732	66.53588	8.11163	0.37564	6.90942	2110.99929	1.1819	0.00386842	1796.29104	53702.105	65.425	7797.988
1395.0	0.82266	0.17734	7.1204	7.62599	-2.81511	19.77064	32.42846	1.6762	0.59659	23.98911	66.34073	8.73281	0.37351	6.91678	2355.04272	1.17711	0.00345719	1795.97166	53389.225	62.576	7900.307
1390.87	0.83376	0.16624	7.12489	7.62211	-2.86454	19.6962	32.40218	1.67341	0.59758	25.5463	66.15505	9.3125	0.37161	6.92285	2586.71119	1.17317	0.00313977	1795.73701	53125.95	 	7990.036
1390.87	0.83376	0.16624	7.12489	7.62211	-2.86454	19.6962	32.40218	1.67341	0.59758	25.5463	66.15505	9.3125	0.37161	6.92285	2586.71119	1.17317	0.00313977	1795.73701	53125.95	 	7990.036
1390.0	0.83628	0.16372	7.12581	7.62116	-2.87664	19.67589	32.39807	1.67275	0.59782	25.92748	66.17614	9.45406	0.37123	6.92234	2644.28217	1.17264	0.0030698	1795.58303	53062.681	65.3088	8016.803
1385.0	0.84992	0.15008	7.13099	7.61578	-2.94519	19.5613	32.37206	1.66906	0.59914	28.09387	66.32152	10.25957	0.36915	6.91879	2985.65449	1.16972	0.00271063	1794.75167	52709.474	70.6414	8160.471
1380.0	0.86207	0.13793	7.1359	7.61074	-3.00941	19.4577	32.34258	1.66554	0.60041	30.1799	66.51156	11.03653	0.36727	6.91524	3342.25196	1.16679	0.00241413	1793.96956	52373.965	67.1018	8286.947
1375.0	0.87295	0.12705	7.14057	7.60601	-3.06976	19.36399	32.31018	1.66217	0.60162	32.18765	66.73921	11.78551	0.36556	6.91199	3715.1367	1.16381	0.00216525	1793.23055	52053.646	64.0638	8398.736
1370.0	0.88273	0.11727	7.14503	7.60151	-3.12705	19.27799	32.27516	1.65892	0.6028	34.11669	66.99936	12.50615	0.364	6.9087	4104.98115	1.16083	0.00195368	1792.53558	51746.449	61.4394	8497.903
1365.0	0.89154	0.10846	7.14933	7.59722	-3.18173	19.19861	32.2379	1.65579	0.60394	35.97245	67.28703	13.20032	0.36256	6.90538	4513.3277	1.15785	0.00177151	1791.88272	51450.653	59.1592	8586.163
1360.0	0.89952	0.10048	7.15346	7.59315	-3.23367	19.12622	32.19871	1.65274	0.60505	37.75475	67.59963	13.8678	0.36124	6.90264	4941.14019	1.15478	0.00161319	1791.26146	51164.822	57.1662	8664.952
1355.0	0.90676	0.093242	7.15746	7.58922	-3.28375	19.05848	32.1578	1.64978	0.60614	39.47112	67.93302	14.5113	0.36001	6.89959	5390.32962	1.15175	0.00147423	1790.67892	50887.742	55.416	8735.479
1350.0	0.91335	0.0866539	7.16133	7.58545	-3.33178	18.99596	32.11537	1.64689	0.60721	41.12086	68.28568	15.13042	0.35888	6.89708	5861.95932	1.14863	0.00135146	1790.1248	50618.387	53.871	8798.767
1347.33	0.91665	0.0833487	7.16338	7.58347	-3.35691	18.9638	32.09219	1.64537	0.60777	41.98271	68.48023	15.4541	0.3583	6.89565	6124.54682	1.14698	0.00129139	1789.84204	50477.253	 	8830.144
1345.0	0.92004	0.0799583	7.16552	7.58142	-3.38313	18.92363	32.07231	1.64402	0.60827	42.86233	68.6441	15.78462	0.35772	6.89453	6379.35045	1.14552	0.00123802	1790.34625	50345.644	54.5486	8865.926
1340.0	0.92679	0.0732054	7.16995	7.57719	-3.43696	18.84377	32.02851	1.64118	0.60932	44.68852	69.00981	16.47133	0.35655	6.89237	6944.86667	1.14233	0.0011337	1791.42283	50070.126	55.1036	8936.339
1335.0	0.93289	0.067114	7.17419	7.57319	-3.48798	18.77128	31.98328	1.6384	0.61035	46.43103	69.39333	17.12721	0.35548	6.88998	7537.73623	1.13919	0.00104129	1792.50575	49803.119	53.4014	8998.719
1330.0	0.93839	0.061606	7.17825	7.56938	-3.53655	18.70516	31.93677	1.63569	0.61136	48.0956	69.79231	17.75431	0.35448	6.88761	8160.21105	1.13604	9.58869E-4	1793.5948	49543.588	51.9062	9054.095
1325.0	0.94339	0.0566143	7.18216	7.56574	-3.58285	18.64501	31.88914	1.63302	0.61236	49.68719	70.20518	18.3544	0.35355	6.8854	8814.68858	1.13286	8.84906E-4	1794.68558	49290.655	50.5866	9103.343
1320.0	0.94792	0.0520818	7.18593	7.56227	-3.6271	18.59029	31.84055	1.6304	0.61335	51.21092	70.63026	18.92932	0.35269	6.88342	9503.76896	1.12964	8.18177E-4	1795.77442	49043.57	49.417	9147.211
1315.0	0.95204	0.0479575	7.18958	7.55893	-3.66974	18.53976	31.79106	1.62781	0.61432	52.67198	71.06632	19.48098	0.35188	6.88151	10230.17459	1.12641	7.57696E-4	1796.86862	48801.685	48.377	9186.343
1310.0	0.9558	0.0441976	7.19312	7.55571	-3.71079	18.49343	31.74078	1.62526	0.61529	54.07462	71.51225	20.01091	0.35113	6.88021	10996.87229	1.12307	7.02651E-4	1797.95999	48564.442	47.4486	9221.293
1305.0	0.95923	0.0407654	7.19656	7.55259	-3.75054	18.45049	31.68982	1.62273	0.61625	55.42364	71.96687	20.52089	0.35042	6.87896	11807.11787	1.11973	6.52366E-4	1799.05359	48331.355	46.6174	9252.547
1300.0	0.96237	0.037627	7.19992	7.54957	-3.78902	18.41092	31.63823	1.62023	0.6172	56.72215	72.42934	21.01204	0.34975	6.87855	12664.16862	1.11625	6.0629E-4	1800.14199	48101.999	45.8712	9280.523
1295.0	0.96525	0.0347519	7.20319	7.54662	-3.82652	18.37391	31.58608	1.61774	0.61815	57.97507	72.89899	21.48618	0.34912	6.87864	13571.83947	1.11268	5.63943E-4	1801.23278	47876.003	45.1992	9305.593
1290.0	0.96788	0.0321154	7.20639	7.54376	-3.86298	18.33965	31.53346	1.61528	0.61909	59.18511	73.375	21.94431	0.34853	6.87966	14534.00959	1.10897	5.24931E-4	1802.31582	47653.038	44.593	9328.082
1285.0	0.97031	0.0296919	7.20953	7.54096	-3.89866	18.30741	31.48039	1.61282	0.62003	60.3564	73.85702	22.38796	0.34797	6.88144	15554.97511	1.10514	4.88907E-4	1803.39914	47432.813	44.045	9348.277
1280.0	0.97254	0.0274631	7.21261	7.53823	-3.93354	18.27728	31.42693	1.61038	0.62097	61.49177	74.34437	22.81819	0.34743	6.88437	16639.34511	1.10112	4.55579E-4	1804.47509	47215.07	43.5486	9366.434
1275.0	0.97459	0.0254082	7.21564	7.53554	-3.96775	18.24887	31.37313	1.60795	0.62191	62.59404	74.83661	23.23604	0.34692	6.88861	17791.98854	1.0969	4.24693E-4	1805.54709	46999.578	43.0984	9382.779
1270.41	0.97596	0.0240408	7.21817	7.53314	-3.9984	18.2248	31.32344	1.60573	0.62277	63.46524	75.29299	23.56625	0.34653	6.89334	18880.99921	1.0929	3.99012E-4	1806.52431	46806.88	 	9393.21
1270.0	0.97678	0.0232197	7.2186	7.53271	-4.00387	18.21456	31.31881	1.60554	0.62284	63.76345	75.33718	23.67991	0.34636	6.9045	19044.16529	1.09084	3.95488E-4	1806.39929	46778.659	44.1838	9404.991
1265.0	0.98452	0.0154835	7.22322	7.52798	-4.06412	18.10783	31.26373	1.60316	0.62377	66.75634	75.87126	24.8212	0.34474	7.0467	20920.61531	1.06537	3.58848E-4	1804.77995	46469.976	61.7366	9515.403
1260.0	0.98933	0.0106684	7.22716	7.5239	-4.11608	18.0251	31.20901	1.60075	0.62471	68.89733	76.40203	25.63806	0.34365	7.19722	22684.86057	1.0397	3.29864E-4	1803.09102	46204.541	53.087	9583.0
1255.0	0.99258	0.00741957	7.23072	7.52017	-4.16363	17.95501	31.15433	1.59833	0.62565	70.56716	76.93124	26.27525	0.34284	7.35461	24433.01099	1.01413	3.05264E-4	1801.35476	45962.276	48.453	9627.857
1250.0	0.99492	0.00508234	7.23408	7.51664	-4.20859	17.89218	31.09971	1.59589	0.62661	71.95815	77.46001	26.80601	0.3422	7.51808	26218.15342	0.98883	2.83548E-4	1799.58437	45733.751	45.705	9659.403
1245.0	0.99667	0.00332725	7.2373	7.51325	-4.25188	17.83392	31.04499	1.59346	0.62757	73.16921	77.98868	27.26808	0.34166	7.68658	28071.49347	0.96398	2.63959E-4	1797.79662	45514.073	43.9356	9682.525
1240.0	0.99803	0.00196622	7.24043	7.50994	-4.29399	17.77877	30.99036	1.59101	0.62853	74.25825	78.5178	27.68355	0.3412	7.85993	30015.22318	0.93961	2.46052E-4	1795.99675	45300.434	42.7278	9700.037
1235.0	0.99912	8.82124E-4	7.24349	7.50671	-4.33523	17.72585	30.93587	1.58855	0.62951	75.26117	79.04742	28.06613	0.34078	8.03815	32067.08571	0.91575	2.29547E-4	1794.18672	45091.109	41.865	9713.66
1230.0	1.0	0.0	7.2465	7.50352	-4.37578	17.67458	30.88167	1.58606	0.63049	76.20163	79.57777	28.42487	0.3404	 	34242.74562	 	2.1425E-4	 	44884.98	41.2258	9724.51
1225.0	1.0	0.0	7.24875	7.5012	-4.40538	17.65677	30.82571	1.58365	0.63145	76.80427	80.10618	28.65397	0.3402	 	36436.07227	 	2.00683E-4	 	44660.33	44.93	 
1220.0	1.0	0.0	7.25099	7.49888	-4.43492	17.63895	30.76975	1.58124	0.63242	77.40929	80.63573	28.88402	0.34	 	38786.53618	 	1.87892E-4	 	44467.509	38.5642	 
1215.0	1.0	0.0	7.25323	7.49657	-4.46442	17.62115	30.71379	1.57881	0.63339	78.01663	81.16638	29.11501	0.3398	 	41306.54504	 	1.75839E-4	 	44274.882	38.5254	 
1210.0	1.0	0.0	7.25546	7.49426	-4.49386	17.60334	30.65783	1.57638	0.63436	78.62627	81.69808	29.34692	0.3396	 	44009.57472	 	1.64484E-4	 	44082.452	38.486	 
1205.0	1.0	0.0	7.2577	7.49195	-4.52326	17.58554	30.60187	1.57394	0.63535	79.23815	82.23079	29.57974	0.3394	 	46910.26871	 	1.53793E-4	 	43890.216	38.4472	 
1200.0	1.0	0.0	7.25993	7.48965	-4.55261	17.56775	30.54591	1.57149	0.63634	79.85225	82.76446	29.81346	0.3392	 	50024.54749	 	1.43731E-4	 	43698.172	38.4088	 
1195.0	1.0	0.0	7.26216	7.48735	-4.5819	17.54995	30.48995	1.56903	0.63734	80.46852	83.29904	30.04806	0.339	 	53369.72893	 	1.34265E-4	 	43506.317	38.371	 
1190.0	1.0	0.0	7.26438	7.48506	-4.61115	17.53216	30.43399	1.56656	0.63834	81.08692	83.83449	30.28353	0.3388	 	56964.66082	 	1.25363E-4	 	43314.65	38.3334	 
1185.0	1.0	0.0	7.26661	7.48276	-4.64035	17.51438	30.37804	1.56408	0.63935	81.70741	84.37077	30.51985	0.33859	 	60829.86698	 	1.16996E-4	 	43123.168	38.2964	 
1180.0	1.0	0.0	7.26883	7.48048	-4.66951	17.49659	30.32208	1.5616	0.64037	82.32995	84.90782	30.757	0.33839	 	64987.70825	 	1.09135E-4	 	42931.868	38.26	 
1175.0	1.0	0.0	7.27105	7.47819	-4.69861	17.47882	30.26612	1.5591	0.64139	82.9545	85.44562	30.99498	0.33819	 	69462.56019	 	1.01754E-4	 	42740.748	38.224	 
1170.0	1.0	0.0	7.27327	7.47591	-4.72766	17.46104	30.21016	1.5566	0.64243	83.58102	85.98411	31.23377	0.33799	 	74281.00915	 	9.48245E-5	 	42549.806	38.1884	 
1165.0	1.0	0.0	7.27548	7.47364	-4.75667	17.44327	30.1542	1.55408	0.64347	84.20948	86.52325	31.47335	0.33779	 	79472.06884	 	8.83235E-5	 	42359.038	38.1536	 
1160.0	1.0	0.0	7.27769	7.47137	-4.78562	17.4255	30.09824	1.55156	0.64451	84.83983	87.06299	31.71371	0.33759	 	85067.41971	 	8.22271E-5	 	42168.442	38.1192	 
1155.0	1.0	0.0	7.2799	7.4691	-4.81453	17.40774	30.04228	1.54903	0.64557	85.47203	87.60331	31.95483	0.33739	 	91101.67357	 	7.65128E-5	 	41978.016	38.0852	 
1150.0	1.0	0.0	7.28211	7.46683	-4.84338	17.38998	29.98633	1.54648	0.64663	86.10605	88.14415	32.19671	0.33719	 	97612.6665	 	7.11592E-5	 	41787.755	38.0522	 
1145.0	1.0	0.0	7.28432	7.46457	-4.87219	17.37222	29.93037	1.54393	0.6477	86.74184	88.68547	32.43932	0.33699	 	104641.7831	 	6.6146E-5	 	41597.659	38.0192	 
1140.0	1.0	0.0	7.28652	7.46232	-4.90095	17.35447	29.87442	1.54137	0.64877	87.37937	89.22723	32.68266	0.33678	 	112234.3156	 	6.14539E-5	 	41407.723	37.9872	 
1135.0	1.0	0.0	7.28872	7.46006	-4.92966	17.33672	29.81846	1.5388	0.64986	88.0186	89.76939	32.9267	0.33658	 	120439.8622	 	5.70644E-5	 	41217.944	37.9558	 
1130.0	1.0	0.0	7.29092	7.45781	-4.95832	17.31898	29.76251	1.53622	0.65095	88.65949	90.3119	33.17144	0.33638	 	129312.769	 	5.29602E-5	 	41028.32	37.9248	 
1125.0	1.0	0.0	7.29311	7.45557	-4.98693	17.30123	29.70655	1.53363	0.65205	89.302	90.85474	33.41686	0.33618	 	138912.6198	 	4.91246E-5	 	40838.847	37.8946	 
1120.0	1.0	0.0	7.29531	7.45333	-5.0155	17.2835	29.6506	1.53102	0.65316	89.94609	91.39785	33.66295	0.33598	 	149304.7815	 	4.55419E-5	 	40649.523	37.8648	 
1115.0	1.0	0.0	7.2975	7.45109	-5.04401	17.26576	29.59465	1.52841	0.65427	90.59172	91.9412	33.90968	0.33578	 	160561.0088	 	4.21971E-5	 	40460.343	37.836	 
1110.0	1.0	0.0	7.29969	7.44886	-5.07248	17.24803	29.5387	1.52579	0.6554	91.23886	92.48475	34.15706	0.33558	 	172760.118	 	3.90762E-5	 	40271.304	37.8078	 
1105.0	1.0	0.0	7.30187	7.44663	-5.10089	17.2303	29.48276	1.52316	0.65653	91.88747	93.02845	34.40505	0.33538	 	185988.7362	 	3.61657E-5	 	40082.403	37.7802	 
1100.0	1.0	0.0	7.30406	7.4444	-5.12926	17.21258	29.42682	1.52052	0.65767	92.53751	93.57227	34.65366	0.33518	 	200342.1357	 	3.34528E-5	 	39893.636	37.7534	 
1095.0	1.0	0.0	7.30624	7.44218	-5.15758	17.19486	29.37088	1.51787	0.65882	93.18893	94.11618	34.90287	0.33498	 	215925.1648	 	3.09255E-5	 	39705.0	37.7272	 
1090.0	1.0	0.0	7.30841	7.43996	-5.18585	17.17715	29.31494	1.51521	0.65998	93.84171	94.66012	35.15265	0.33477	 	232853.2847	 	2.85725E-5	 	39516.49	37.702	 
1085.0	1.0	0.0	7.31059	7.43775	-5.21407	17.15943	29.25901	1.51254	0.66114	94.4958	95.20407	35.403	0.33457	 	251253.7277	 	2.63829E-5	 	39328.104	37.6772	 
1080.0	1.0	0.0	7.31276	7.43553	-5.24224	17.14173	29.20308	1.50985	0.66232	95.15117	95.74798	35.65391	0.33437	 	271266.7901	 	2.43465E-5	 	39139.836	37.6536	 
1075.0	1.0	0.0	7.31494	7.43333	-5.27037	17.12402	29.14716	1.50716	0.6635	95.80778	96.29182	35.90536	0.33417	 	293047.2781	 	2.24537E-5	 	38951.683	37.6306	 
1070.0	1.0	0.0	7.3171	7.43112	-5.29844	17.10632	29.09124	1.50446	0.66469	96.46559	96.83554	36.15733	0.33397	 	316766.1239	 	2.06953E-5	 	38763.64	37.6086	 
1065.0	1.0	0.0	7.31927	7.42893	-5.32647	17.08862	29.03533	1.50174	0.66589	97.12456	97.37912	36.40981	0.33377	 	342612.1958	 	1.90629E-5	 	38575.704	37.5872	 
1060.0	1.0	0.0	7.32143	7.42673	-5.35444	17.07093	28.97942	1.49902	0.6671	97.78466	97.92252	36.6628	0.33357	 	370794.3252	 	1.75482E-5	 	38387.87	37.5668	 
1055.0	1.0	0.0	7.32359	7.42454	-5.38237	17.05324	28.92353	1.49628	0.66832	98.44585	98.46569	36.91626	0.33337	 	401543.5786	 	1.61436E-5	 	38200.133	37.5474	 
1050.0	1.0	0.0	7.32575	7.42235	-5.41025	17.03555	28.86764	1.49354	0.66955	99.10808	99.0086	37.1702	0.33317	 	435115.8072	 	1.48419E-5	 	38012.488	37.529	 
1045.0	1.0	0.0	7.32791	7.42017	-5.43808	17.01787	28.81177	1.49078	0.67079	99.77133	99.55122	37.42459	0.33296	 	471794.509	 	1.36364E-5	 	37824.931	37.5114	 
1040.0	1.0	0.0	7.33006	7.41799	-5.46587	17.00019	28.7559	1.48801	0.67204	100.43556	100.0935	37.67943	0.33276	 	511894.0447	 	1.25205E-5	 	37637.457	37.4948	 
1035.0	1.0	0.0	7.33221	7.41581	-5.4936	16.98252	28.70005	1.48523	0.6733	101.10073	100.63542	37.9347	0.33256	 	555763.254	 	1.14883E-5	 	37450.06	37.4794	 
1030.0	1.0	0.0	7.33436	7.41364	-5.52128	16.96484	28.64421	1.48243	0.67457	101.76679	101.17694	38.19038	0.33236	 	603789.5251	 	1.05341E-5	 	37262.736	37.4648	 
1025.0	1.0	0.0	7.33651	7.41147	-5.54892	16.94718	28.58839	1.47963	0.67584	102.43373	101.71801	38.44646	0.33216	 	656403.3788	 	9.65252E-6	 	37075.479	37.4514	 
1020.0	1.0	0.0	7.33865	7.40931	-5.57651	16.92951	28.53258	1.47681	0.67713	103.10149	102.25862	38.70293	0.33196	 	714083.6351	 	8.83866E-6	 	36888.283	37.4392	 
1015.0	1.0	0.0	7.34079	7.40714	-5.60405	16.91185	28.47679	1.47399	0.67843	103.77004	102.79871	38.95978	0.33176	 	777363.2423	 	8.08778E-6	 	36701.142	37.4282	 
1010.0	1.0	0.0	7.34293	7.40499	-5.63154	16.89419	28.42103	1.47114	0.67974	104.43934	103.33827	39.21698	0.33156	 	846835.8579	 	7.39545E-6	 	36514.051	37.4182	 
1005.0	1.0	0.0	7.34507	7.40283	-5.65898	16.87654	28.36528	1.46829	0.68106	105.10936	103.87724	39.47454	0.33136	 	923163.2867	 	6.75756E-6	 	36327.003	37.4096	 
1000.0	1.0	0.0	7.3472	7.40068	-5.68637	16.85889	28.30956	1.46543	0.6824	105.78006	104.4156	39.73242	0.33116	 	1007083.891	 	6.17022E-6	 	36139.993	37.402	 
995.0	1.0	0.0	7.34933	7.39854	-5.71372	16.84125	28.25387	1.46255	0.68374	106.45141	104.95332	39.99063	0.33095	 	1099422.115	 	5.6298E-6	 	35953.013	37.396	 
990.0	1.0	0.0	7.35146	7.3964	-5.74101	16.8236	28.19821	1.45966	0.68509	107.12336	105.49036	40.24914	0.33075	 	1201099.268	 	5.1329E-6	 	35766.057	37.3912	 
985.0	1.0	0.0	7.35359	7.39426	-5.76826	16.80597	28.14258	1.45675	0.68646	107.79588	106.02669	40.50794	0.33055	 	1313145.762	 	4.67634E-6	 	35579.117	37.388	 
980.0	1.0	0.0	7.35571	7.39212	-5.79546	16.78833	28.08699	1.45384	0.68784	108.46893	106.56227	40.76703	0.33035	 	1436714.994	 	4.25715E-6	 	35392.187	37.386	 
975.0	1.0	0.0	7.35783	7.38999	-5.82261	16.7707	28.03143	1.45091	0.68922	109.14248	107.09707	41.02638	0.33015	 	1573099.12	 	3.87255E-6	 	35205.259	37.3856	 
970.0	1.0	0.0	7.35995	7.38787	-5.84972	16.75307	27.97592	1.44796	0.69063	109.8165	107.63105	41.28597	0.32995	 	1723746.986	 	3.51995E-6	 	35018.326	37.3866	 
965.0	1.0	0.0	7.36206	7.38574	-5.87677	16.73545	27.92045	1.445	0.69204	110.49093	108.16419	41.54581	0.32975	 	1890284.544	 	3.19693E-6	 	34831.378	37.3896	 
960.0	1.0	0.0	7.36418	7.38362	-5.90377	16.71783	27.86503	1.44203	0.69347	111.16576	108.69646	41.80587	0.32955	 	2074538.102	 	2.90122E-6	 	34644.408	37.394	 
955.0	1.0	0.0	7.36629	7.38151	-5.93073	16.70021	27.80967	1.43904	0.69491	111.84093	109.22781	42.06615	0.32935	 	2278560.838	 	2.63074E-6	 	34457.408	37.4	 
950.0	1.0	0.0	7.36839	7.3794	-5.95764	16.6826	27.75436	1.43604	0.69636	112.51642	109.75823	42.32662	0.32915	 	2504663.058	 	2.38351E-6	 	34270.367	37.4082	 
945.0	1.0	0.0	7.3705	7.37729	-5.9845	16.66499	27.69911	1.43302	0.69783	113.19219	110.28766	42.58727	0.32894	 	2755446.773	 	2.15772E-6	 	34083.278	37.4178	 
940.0	1.0	0.0	7.3726	7.37519	-6.01131	16.64739	27.64393	1.42999	0.69931	113.86821	110.8161	42.84809	0.32874	 	3033845.23	 	1.95168E-6	 	33896.13	37.4296	 
935.0	1.0	0.0	7.3747	7.37309	-6.03808	16.62978	27.58881	1.42694	0.7008	114.54443	111.34349	43.10907	0.32854	 	3343168.171	 	1.7638E-6	 	33708.913	37.4434	 
930.0	1.0	0.0	7.3768	7.37099	-6.06479	16.61219	27.53377	1.42387	0.70231	115.22082	111.86982	43.3702	0.32834	 	3687153.692	 	1.59263E-6	 	33521.617	37.4592	 
925.0	1.0	0.0	7.37889	7.3689	-6.09146	16.59459	27.47882	1.42079	0.70383	115.89735	112.39505	43.63145	0.32814	 	4070027.728	 	1.43681E-6	 	33334.231	37.4772	 
920.0	1.0	0.0	7.38099	7.36681	-6.11807	16.577	27.42394	1.4177	0.70537	116.57398	112.91914	43.89282	0.32794	 	4496572.351	 	1.29509E-6	 	33146.743	37.4976	 
915.0	1.0	0.0	7.38308	7.36472	-6.14464	16.55941	27.36916	1.41458	0.70692	117.25067	113.44208	44.1543	0.32774	 	4972204.281	 	1.1663E-6	 	32959.143	37.52	 
910.0	1.0	0.0	7.38516	7.36264	-6.17117	16.54183	27.31448	1.41145	0.70849	117.92738	113.96382	44.41586	0.32754	 	5503065.217	 	1.04935E-6	 	32771.416	37.5454	 
905.0	1.0	0.0	7.38725	7.36057	-6.19764	16.52425	27.25989	1.4083	0.71008	118.60409	114.48435	44.6775	0.32734	 	6096125.889	 	9.43264E-7	 	32583.551	37.573	 
900.0	1.0	0.0	7.38933	7.35849	-6.22407	16.50668	27.20542	1.40513	0.71168	119.28076	115.00362	44.9392	0.32713	 	6759306.045	 	8.47107E-7	 	32395.534	37.6034	 
895.0	1.0	0.0	7.39141	7.35642	-6.25044	16.4891	27.15105	1.40194	0.7133	119.95735	115.52161	45.20096	0.32693	 	7501612.959	 	7.6003E-7	 	32207.351	37.6366	 
890.0	1.0	0.0	7.39348	7.35436	-6.27677	16.47154	27.09681	1.39873	0.71493	120.63382	116.03828	45.46274	0.32673	 	8333301.503	 	6.81248E-7	 	32018.987	37.6728	 
885.0	1.0	0.0	7.39556	7.35229	-6.30305	16.45397	27.04269	1.39551	0.71658	121.31014	116.55362	45.72455	0.32653	 	9266059.347	 	6.10037E-7	 	31830.427	37.712	 
880.0	1.0	0.0	7.39763	7.35024	-6.32928	16.43641	26.98871	1.39226	0.71825	121.98628	117.06758	45.98637	0.32633	 	1.031322147E7	 	5.4573E-7	 	31641.655	37.7544	 
875.0	1.0	0.0	7.3997	7.34818	-6.35547	16.41885	26.93486	1.389	0.71994	122.66219	117.58015	46.24819	0.32613	 	1.149001892E7	 	4.87713E-7	 	31452.653	37.8004	 
870.0	1.0	0.0	7.40176	7.34613	-6.3816	16.4013	26.88116	1.38571	0.72165	123.33785	118.09128	46.50999	0.32593	 	1.281386762E7	 	4.35421E-7	 	31263.404	37.8498	 
865.0	1.0	0.0	7.40383	7.34408	-6.40769	16.38375	26.82761	1.3824	0.72338	124.01321	118.60096	46.77175	0.32573	 	1.430470407E7	 	3.88336E-7	 	31073.889	37.903	 
860.0	1.0	0.0	7.40589	7.34204	-6.43373	16.3662	26.77422	1.37908	0.72512	124.68825	119.10915	47.03348	0.32553	 	1.598537598E7	 	3.4598E-7	 	30884.088	37.9602	 
855.0	1.0	0.0	7.40794	7.34	-6.45972	16.34866	26.72099	1.37573	0.72689	125.36293	119.61583	47.29514	0.32533	 	1.788209752E7	 	3.07918E-7	 	30693.98	38.0216	 
850.0	1.0	0.0	7.41	7.33796	-6.48567	16.33112	26.66792	1.37235	0.72867	126.0372	120.12096	47.55674	0.32512	 	2.002498034E7	 	2.73749E-7	 	30503.543	38.0874	 
845.0	1.0	0.0	7.41205	7.33593	-6.51156	16.31359	26.61504	1.36896	0.73048	126.71105	120.62452	47.81825	0.32492	 	2.244865384E7	 	2.43106E-7	 	30312.755	38.1576	 
840.0	1.0	0.0	7.4141	7.3339	-6.53741	16.29605	26.56233	1.36554	0.73231	127.38442	121.12648	48.07966	0.32472	 	2.519299063E7	 	2.15656E-7	 	30121.589	38.2332	 
835.0	1.0	0.0	7.41615	7.33188	-6.56321	16.27853	26.50981	1.3621	0.73416	128.05729	121.62681	48.34096	0.32452	 	2.830395608E7	 	1.9109E-7	 	29930.021	38.3136	 
830.0	1.0	0.0	7.41819	7.32986	-6.58896	16.261	26.45748	1.35864	0.73603	128.72962	122.12548	48.60214	0.32432	 	3.183460444E7	 	1.6913E-7	 	29738.022	38.3998	 
825.0	1.0	0.0	7.42023	7.32784	-6.61466	16.24348	26.40535	1.35515	0.73793	129.40137	122.62247	48.86318	0.32412	 	3.584624843E7	 	1.49522E-7	 	29545.563	38.4918	 
820.0	1.0	0.0	7.42227	7.32583	-6.64031	16.22596	26.35342	1.35164	0.73984	130.07252	123.11775	49.12406	0.32392	 	4.040983423E7	 	1.32032E-7	 	29352.613	38.59	 
815.0	1.0	0.0	7.42431	7.32382	-6.66592	16.20845	26.30169	1.3481	0.74178	130.74302	123.61129	49.38479	0.32372	 	4.560756025E7	 	1.1645E-7	 	29159.139	38.6948	 
810.0	1.0	0.0	7.42634	7.32181	-6.69148	16.19094	26.25017	1.34454	0.74375	131.41283	124.10306	49.64533	0.32352	 	5.153478545E7	 	1.02583E-7	 	28965.104	38.807	 
805.0	1.0	0.0	7.42837	7.31981	-6.71699	16.17344	26.19886	1.34096	0.74574	132.08194	124.59305	49.90569	0.32332	 	5.830228211E7	 	9.02569E-8	 	28770.47	38.9268	 
800.0	1.0	0.0	7.4304	7.31781	-6.74245	16.15593	26.14777	1.33735	0.74775	132.75029	125.08121	50.16584	0.32311	 	6.603889897E7	 	7.93135E-8	 	28575.197	39.0546	 
795.0	1.0	0.0	7.43243	7.31582	-6.76787	16.13844	26.09689	1.33371	0.74979	133.41786	125.56752	50.42577	0.32291	 	7.489471406E7	 	6.96094E-8	 	28379.242	39.191	 
790.0	1.0	0.0	7.43445	7.31383	-6.79324	16.12094	26.04623	1.33005	0.75185	134.08461	126.05196	50.68547	0.32271	 	8.504477252E7	 	6.10146E-8	 	28182.557	39.337	 
785.0	1.0	0.0	7.43647	7.31184	-6.81855	16.10345	25.99579	1.32636	0.75394	134.7505	126.53451	50.94492	0.32251	 	9.669352457E7	 	5.34117E-8	 	27985.092	39.493	 
780.0	1.0	0.0	7.43849	7.30986	-6.84383	16.08596	25.94556	1.32265	0.75606	135.4155	127.01513	51.20412	0.32231	 	1.100801026E8	 	4.66948E-8	 	27786.792	39.66	 
775.0	1.0	0.0	7.4405	7.30788	-6.86905	16.06848	25.89556	1.31891	0.7582	136.07958	127.49379	51.46305	0.32211	 	1.254846053E8	 	4.0768E-8	 	27587.599	39.8386	 
770.0	1.0	0.0	7.44252	7.30591	-6.89422	16.051	25.84576	1.31515	0.76037	136.74271	127.97048	51.7217	0.32191	 	1.432355931E8	 	3.55453E-8	 	27387.45	40.0298	 
765.0	1.0	0.0	7.44452	7.30393	-6.91935	16.03352	25.79618	1.31136	0.76257	137.40484	128.44517	51.98005	0.32171	 	1.637190408E8	 	3.09491E-8	 	27186.275	40.235	 
760.0	1.0	0.0	7.44653	7.30197	-6.94443	16.01605	25.74681	1.30755	0.76479	138.06594	128.91783	52.23808	0.32151	 	1.873890497E8	 	2.69095E-8	 	26984.001	40.4548	 
755.0	1.0	0.0	7.44853	7.3	-6.96946	15.99858	25.69765	1.30371	0.76704	138.72598	129.38844	52.4958	0.32131	 	2.147806831E8	 	2.3364E-8	 	26780.545	40.6912	 
750.0	1.0	0.0	7.45054	7.29804	-6.99445	15.98112	25.64869	1.29985	0.76932	139.38492	129.85697	52.75318	0.3211	 	2.465253729E8	 	2.02565E-8	 	26575.821	40.9448	 
745.0	1.0	0.0	7.45253	7.29608	-7.01938	15.96365	25.59992	1.29596	0.77163	140.04273	130.3234	53.0102	0.3209	 	2.833694413E8	 	1.75366E-8	 	26369.731	41.218	 
740.0	1.0	0.0	7.45453	7.29413	-7.04427	15.9462	25.55134	1.29205	0.77397	140.69938	130.7877	53.26687	0.3207	 	3.261964052E8	 	1.51594E-8	 	26162.171	41.512	 
735.0	1.0	0.0	7.45652	7.29218	-7.06911	15.92874	25.50293	1.28811	0.77633	141.35483	131.24985	53.52316	0.3205	 	3.760538808E8	 	1.30846E-8	 	25953.025	41.8292	 
730.0	1.0	0.0	7.45851	7.29024	-7.09391	15.91129	25.4547	1.28415	0.77873	142.00905	131.70982	53.77906	0.3203	 	4.341860935E8	 	1.12766E-8	 	25742.166	42.1718	 
725.0	1.0	0.0	7.4605	7.28829	-7.11865	15.89384	25.40663	1.28017	0.78115	142.662	132.16759	54.03456	0.3201	 	5.020732273E8	 	9.70321E-9	 	25529.456	42.542	 
720.0	1.0	0.0	7.46248	7.28636	-7.14335	15.8764	25.35871	1.27616	0.7836	143.31365	132.62314	54.28964	0.3199	 	5.814791397E8	 	8.33619E-9	 	25314.741	42.943	 
715.0	1.0	0.0	7.46446	7.28442	-7.168	15.85896	25.31093	1.27213	0.78608	143.96397	133.07644	54.5443	0.3197	 	6.745093202E8	 	7.15026E-9	 	25097.853	43.3776	 
710.0	1.0	0.0	7.46644	7.28249	-7.1926	15.84153	25.26327	1.26808	0.78859	144.61291	133.52746	54.79851	0.3195	 	7.836814229E8	 	6.12304E-9	 	24878.604	43.8498	 
705.0	1.0	0.0	7.46842	7.28057	-7.21715	15.82409	25.21573	1.26401	0.79113	145.26046	133.97619	55.05228	0.3193	 	9.120112565E8	 	5.2347E-9	 	24656.787	44.3634	 
700.0	1.0	0.0	7.47039	7.27864	-7.24166	15.80667	25.16828	1.25992	0.7937	145.90657	134.4226	55.30557	0.31909	 	1.063117817E9	 	4.46771E-9	 	24432.173	44.9228	 
695.0	1.0	0.0	7.47236	7.27672	-7.26612	15.78924	25.12091	1.25581	0.7963	146.55121	134.86667	55.55838	0.31889	 	1.241351824E9	 	3.80658E-9	 	24189.508	48.533	 
690.0	1.0	0.0	7.47433	7.27481	-7.29053	15.77182	25.07361	1.25168	0.79892	147.19434	135.30838	55.8107	0.31869	 	1.451953318E9	 	3.23764E-9	 	23935.938	50.714	 
685.0	1.0	0.0	7.47629	7.2729	-7.31489	15.7544	25.02636	1.24754	0.80158	147.83594	135.74769	56.06252	0.31849	 	1.701245278E9	 	2.74886E-9	 	23685.387	50.1102	 
680.0	1.0	0.0	7.47826	7.27099	-7.33921	15.73699	24.97913	1.24337	0.80426	148.47597	136.1846	56.31382	0.31829	 	1.996871952E9	 	2.32969E-9	 	23437.747	49.528	 
675.0	1.0	0.0	7.48022	7.26908	-7.36348	15.71958	24.93191	1.23919	0.80698	149.1144	136.61907	56.56458	0.31809	 	2.348092821E9	 	1.97083E-9	 	23192.913	48.9668	 
670.0	1.0	0.0	7.48217	7.26718	-7.3877	15.70217	24.88469	1.235	0.80972	149.75119	137.05108	56.8148	0.31789	 	2.766145936E9	 	1.66415E-9	 	22950.786	48.4254	 
665.0	1.0	0.0	7.48413	7.26529	-7.41187	15.68477	24.83744	1.23079	0.81249	150.38631	137.48062	57.06447	0.31769	 	3.264697918E9	 	1.40254E-9	 	22711.272	47.9028	 
660.0	1.0	0.0	7.48608	7.26339	-7.436	15.66737	24.79014	1.22656	0.81529	151.01973	137.90766	57.31356	0.31749	 	3.860402467E9	 	1.17979E-9	 	22474.282	47.398	 
655.0	1.0	0.0	7.48802	7.2615	-7.46008	15.64998	24.74277	1.22233	0.81811	151.65141	138.33217	57.56207	0.31729	 	4.573595051E9	 	9.90483E-10	 	22239.731	46.9102	 
650.0	1.0	0.0	7.48997	7.25962	-7.48411	15.63258	24.69531	1.21808	0.82096	152.28132	138.75414	57.80998	0.31708	 	5.429158835E9	 	8.29901E-10	 	22007.538	46.4386	 
645.0	1.0	0.0	7.49191	7.25774	-7.50809	15.6152	24.64774	1.21382	0.82385	152.90943	139.17355	58.05729	0.31688	 	6.457606467E9	 	6.93951E-10	 	21777.627	45.9822	 
640.0	1.0	0.0	7.49385	7.25586	-7.53202	15.59781	24.60003	1.20955	0.82675	153.5357	139.59037	58.30397	0.31668	 	7.696434547E9	 	5.79081E-10	 	21549.923	45.5408	 
635.0	1.0	0.0	7.49579	7.25398	-7.55591	15.58043	24.55217	1.20527	0.82969	154.16011	140.00458	58.55002	0.31648	 	9.191823399E9	 	4.82217E-10	 	21324.358	45.113	 
630.0	1.0	0.0	7.49772	7.25211	-7.57975	15.56305	24.50413	1.20099	0.83265	154.78262	140.41616	58.79543	0.31628	 	1.10008E10	 	4.00704E-10	 	21100.864	44.6988	 
625.0	1.0	0.0	7.49965	7.25025	-7.60355	15.54568	24.45589	1.19669	0.83564	155.4032	140.82509	59.04017	0.31608	 	1.3193799999999998E10	 	3.3225E-10	 	20879.38	44.2968	 
620.0	1.0	0.0	7.50158	7.24838	-7.62729	15.52831	24.40744	1.19239	0.83865	156.02181	141.23135	59.28425	0.31588	 	1.5858399999999998E10	 	2.74886E-10	 	20659.845	43.907	 
615.0	1.0	0.0	7.5035	7.24652	-7.65099	15.51095	24.35874	1.18809	0.84169	156.63842	141.63492	59.52763	0.31568	 	1.91031E10	 	2.26918E-10	 	20442.201	43.5288	 
610.0	1.0	0.0	7.50543	7.24467	-7.67464	15.49358	24.30978	1.18378	0.84475	157.253	142.03578	59.77032	0.31548	 	2.30635E10	 	1.86894E-10	 	20226.394	43.1614	 
605.0	1.0	0.0	7.50735	7.24281	-7.69824	15.47623	24.26054	1.17947	0.84784	157.86552	142.43391	60.0123	0.31528	 	2.7908599999999996E10	 	1.53574E-10	 	20012.371	42.8046	 
600.0	1.0	0.0	7.50926	7.24097	-7.7218	15.45887	24.211	1.17515	0.85095	158.47595	142.82928	60.25356	0.31508	 	3.3850199999999996E10	 	1.25897E-10	 	19800.084	42.4574	 
595.0	1.0	0.0	7.51118	7.23912	-7.74531	15.44152	24.16114	1.17083	0.85409	159.08425	143.22188	60.49409	0.31487	 	4.11539E10	 	1.0296E-10	 	19589.485	42.1198	 
590.0	1.0	0.0	7.51309	7.23728	-7.76877	15.42417	24.11094	1.16651	0.85726	159.69039	143.6117	60.73386	0.31467	 	5.015409999999999E10	 	8.39975E-11	 	19380.528	41.7914	 
585.0	1.0	0.0	7.51499	7.23544	-7.79219	15.40683	24.06038	1.16219	0.86044	160.29434	143.9987	60.97288	0.31447	 	6.127279999999999E10	 	6.83569E-11	 	19173.17	41.4716	 
580.0	1.0	0.0	7.5169	7.23361	-7.81555	15.38949	24.00945	1.15787	0.86365	160.89607	144.38287	61.21112	0.31427	 	7.50433E10	 	5.54881E-11	 	18967.371	41.1598	 
575.0	1.0	0.0	7.5188	7.23178	-7.83887	15.37215	23.95814	1.15355	0.86689	161.49555	144.76419	61.44858	0.31407	 	9.21426E10	 	4.49261E-11	 	18763.09	40.8562	 
570.0	1.0	0.0	7.5207	7.22995	-7.86214	15.35482	23.90642	1.14923	0.87015	162.09274	145.14264	61.68524	0.31387	 	1.13431E11	 	3.62793E-11	 	18560.29	40.56	 
565.0	1.0	0.0	7.5226	7.22813	-7.88537	15.33749	23.85429	1.14491	0.87343	162.68761	145.5182	61.9211	0.31367	 	1.40007E11	 	2.92186E-11	 	18358.935	40.271	 
560.0	1.0	0.0	7.52449	7.22631	-7.90855	15.32017	23.80174	1.1406	0.87673	163.28014	145.89086	62.15613	0.31347	 	1.73273E11	 	2.34682E-11	 	18158.99	39.989	 
555.0	1.0	0.0	7.52638	7.2245	-7.93168	15.30284	23.74875	1.13628	0.88006	163.87028	146.2606	62.39033	0.31327	 	2.1503E11	 	1.87974E-11	 	17960.422	39.7136	 
550.0	1.0	0.0	7.52827	7.22269	-7.95476	15.28553	23.69531	1.13197	0.88342	164.45802	146.62739	62.62368	0.31307	 	2.67594E11	 	1.50138E-11	 	17763.2	39.4444	 
545.0	1.0	0.0	7.53015	7.22088	-7.9778	15.26821	23.64142	1.12766	0.88679	165.04332	146.99122	62.85617	0.31286	 	3.33953E11	 	1.19573E-11	 	17567.294	39.1812	 
540.0	1.0	0.0	7.53203	7.21907	-8.00078	15.2509	23.58707	1.12335	0.8902	165.62614	147.35207	63.08779	0.31266	 	4.17974E11	 	9.49529E-12	 	17372.674	38.924	 
535.0	1.0	0.0	7.53391	7.21727	-8.02373	15.2336	23.53226	1.11904	0.89362	166.20646	147.70993	63.31853	0.31246	 	5.24676E11	 	7.51774E-12	 	17179.312	38.6724	 
530.0	1.0	0.0	7.53579	7.21548	-8.04662	15.21629	23.47698	1.11474	0.89707	166.78425	148.06477	63.54838	0.31226	 	6.60596E11	 	5.934E-12	 	16987.182	38.426	 
525.0	1.0	0.0	7.53766	7.21369	-8.06947	15.19899	23.42123	1.11043	0.90055	167.35948	148.41658	63.77732	0.31206	 	8.34272E11	 	4.66943E-12	 	16796.258	38.1848	 
520.0	1.0	0.0	7.53953	7.2119	-8.09227	15.1817	23.36501	1.10613	0.90405	167.93211	148.76534	64.00534	0.31186	 	1.0569E12	 	3.66277E-12	 	16606.516	37.9484	 
515.0	1.0	0.0	7.5414	7.21011	-8.11502	15.1644	23.30833	1.10183	0.90758	168.50212	149.11104	64.23243	0.31166	 	1.34318E12	 	2.86392E-12	 	16417.931	37.717	 
510.0	1.0	0.0	7.54326	7.20833	-8.13773	15.14712	23.25118	1.09753	0.91113	169.06947	149.45365	64.45858	0.31146	 	1.71255E12	 	2.23197E-12	 	16230.482	37.4898	 
505.0	1.0	0.0	7.54512	7.20655	-8.16039	15.12983	23.19356	1.09324	0.91472	169.63414	149.79317	64.68377	0.31126	 	2.19071E12	 	1.73367E-12	 	16044.145	37.2674	 
500.0	1.0	0.0	7.54698	7.20478	-8.183	15.11255	23.1355	1.08894	0.91833	170.19609	150.12957	64.908	0.31106	 	2.81181E12	 	1.34204E-12	 	15858.901	37.0488	 
495.0	1.0	0.0	7.54884	7.20301	-8.20556	15.09527	23.07698	1.08464	0.92197	170.75531	150.46284	65.13125	0.31086	 	3.62139E12	 	1.03528E-12	 	15674.728	36.8346	 
490.0	1.0	0.0	7.55069	7.20124	-8.22808	15.078	23.01803	1.08034	0.92564	171.31175	150.79296	65.35351	0.31065	 	4.68042E12	 	7.95815E-13	 	15491.608	36.624	 
485.0	1.0	0.0	7.55254	7.19948	-8.25055	15.06073	22.95865	1.07604	0.92934	171.86538	151.11993	65.57477	0.31045	 	6.07075E12	 	6.09536E-13	 	15309.521	36.4174	 
480.0	1.0	0.0	7.55438	7.19772	-8.27297	15.04346	22.89884	1.07173	0.93307	172.41619	151.44371	65.79501	0.31025	 	7.90276E12	 	4.65146E-13	 	15128.449	36.2144	 
475.0	1.0	0.0	7.55623	7.19596	-8.29535	15.0262	22.83864	1.06742	0.93684	172.96414	151.7643	66.01424	0.31005	 	1.03259E13	 	3.5363E-13	 	14948.374	36.015	 
470.0	1.0	0.0	7.55807	7.19421	-8.31768	15.00894	22.77804	1.06311	0.94064	173.5092	152.08168	66.23242	0.30985	 	1.35431E13	 	2.67821E-13	 	14769.281	35.8186	 
465.0	1.0	0.0	7.5599	7.19246	-8.33996	14.99169	22.71706	1.05879	0.94447	174.05134	152.39584	66.44957	0.30965	 	1.78314E13	 	2.02044E-13	 	14591.151	35.626	 
460.0	1.0	0.0	7.56174	7.19072	-8.3622	14.97443	22.65572	1.05447	0.94835	174.59054	152.70677	66.66565	0.30945	 	2.35703E13	 	1.51815E-13	 	14413.971	35.436	 
455.0	1.0	0.0	7.56357	7.18897	-8.38439	14.95719	22.59403	1.05013	0.95226	175.12676	153.01444	66.88066	0.30925	 	3.12817E13	 	1.1361E-13	 	14237.723	35.2496	 
450.0	1.0	0.0	7.5654	7.18724	-8.40653	14.93994	22.53201	1.04579	0.95621	175.65999	153.31884	67.0946	0.30905	 	4.16867E13	 	8.46677E-14	 	14062.394	35.0658	 
445.0	1.0	0.0	7.56722	7.1855	-8.42862	14.9227	22.46969	1.04144	0.96021	176.19019	153.61997	67.30744	0.30885	 	5.57857E13	 	6.28317E-14	 	13887.969	34.885	 
440.0	1.0	0.0	7.56905	7.18377	-8.45067	14.90547	22.40707	1.03708	0.96424	176.71733	153.9178	67.51918	0.30865	 	7.49731E13	 	4.64261E-14	 	13714.435	34.7068	 
435.0	1.0	0.0	7.57087	7.18205	-8.47267	14.88823	22.34418	1.03271	0.96833	177.24138	154.21233	67.72981	0.30844	 	1.01201E14	 	3.41529E-14	 	13541.777	34.5316	 
430.0	1.0	0.0	7.57268	7.18032	-8.49463	14.871	22.28104	1.02832	0.97246	177.76233	154.50354	67.93931	0.30824	 	1.3721399999999998E14	 	2.50113E-14	 	13369.983	34.3588	 
425.0	1.0	0.0	7.5745	7.1786	-8.51653	14.85378	22.21766	1.02392	0.97663	178.28014	154.79142	68.14768	0.30804	 	1.86891E14	 	1.82325E-14	 	13199.041	34.1884	 
420.0	1.0	0.0	7.57631	7.17689	-8.53839	14.83656	22.15408	1.01951	0.98086	178.79479	155.07596	68.35491	0.30784	 	2.5573999999999997E14	 	1.32287E-14	 	13028.937	34.0208	 
415.0	1.0	0.0	7.57811	7.17518	-8.56021	14.81934	22.0903	1.01508	0.98515	179.30626	155.35714	68.56098	0.30764	 	3.51617E14	 	9.55211E-15	 	12859.661	33.8552	 
410.0	1.0	0.0	7.57992	7.17347	-8.58197	14.80212	22.02636	1.01063	0.98948	179.8145	155.63495	68.76588	0.30744	 	4.85791E14	 	6.86362E-15	 	12691.201	33.692	 
405.0	1.0	0.0	7.58172	7.17177	-8.60369	14.78491	21.96227	1.00616	0.99388	180.31951	155.90938	68.96961	0.30724	 	6.745E14	 	4.90717E-15	 	12523.544	33.5314	 
400.0	1.0	0.0	7.58352	7.17006	-8.62537	14.7677	21.89804	1.00167	0.99833	180.82126	156.18042	69.17215	0.30704	 	9.4127E14	 	3.49048E-15	 	12356.682	33.3724	 
395.0	1.0	0.0	7.58531	7.16837	-8.64699	14.7505	21.83371	0.99716	1.00285	181.31971	156.44806	69.37349	0.30684	 	1.32037E15	 	2.46982E-15	 	12190.602	33.216	 
390.0	1.0	0.0	7.58711	7.16667	-8.66857	14.7333	21.7693	0.99262	1.00743	181.81485	156.7123	69.57363	0.30664	 	1.86198E15	 	1.7383E-15	 	12025.295	33.0614	 
385.0	1.0	0.0	7.58889	7.16498	-8.69011	14.7161	21.70482	0.98807	1.01208	182.30665	156.9731	69.77255	0.30644	 	2.64E15	 	1.21677E-15	 	11860.75	32.909	 
380.0	1.0	0.0	7.59068	7.1633	-8.71159	14.69891	21.64029	0.98348	1.01679	182.79509	157.23048	69.97025	0.30623	 	3.7639E15	 	8.46958E-16	 	11696.959	32.7582	 
375.0	1.0	0.0	7.59246	7.16162	-8.73303	14.68172	21.57573	0.97888	1.02158	183.28015	157.48442	70.16671	0.30603	 	5.39671E15	 	5.86183E-16	 	11533.911	32.6096	 
370.0	1.0	0.0	7.59424	7.15994	-8.75443	14.66454	21.51117	0.97424	1.02644	183.7618	157.73491	70.36192	0.30583	 	7.78276E15	 	4.03335E-16	 	11371.597	32.4628	 
365.0	1.0	0.0	7.59602	7.15826	-8.77577	14.64736	21.44661	0.96958	1.03138	184.24002	157.98194	70.55589	0.30563	 	1.12904E16	 	2.75867E-16	 	11210.009	32.3176	 
360.0	1.0	0.0	7.5978	7.15659	-8.79707	14.63018	21.38208	0.96488	1.0364	184.71478	158.2255	70.74859	0.30543	 	1.64785E16	 	1.87532E-16	 	11049.137	32.1744	 
355.0	1.0	0.0	7.59957	7.15492	-8.81832	14.613	21.3176	0.96016	1.0415	185.18607	158.46559	70.94002	0.30523	 	2.42003E16	 	1.26686E-16	 	10888.973	32.0328	 
350.0	1.0	0.0	7.60133	7.15326	-8.83953	14.59583	21.25317	0.9554	1.04668	185.65387	158.7022	71.13017	0.30503	 	3.5766700000000004E16	 	8.50356E-17	 	10729.509	31.8928	 
345.0	1.0	0.0	7.6031	7.1516	-8.86069	14.57867	21.18883	0.95062	1.05195	186.11815	158.93532	71.31903	0.30483	 	5.32059E16	 	5.6705E-17	 	10570.736	31.7546	 
340.0	1.0	0.0	7.60486	7.14994	-8.8818	14.5615	21.12457	0.94579	1.05731	186.5789	159.16495	71.50659	0.30463	 	7.96765E16	 	3.75598E-17	 	10412.647	31.6178	 
335.0	1.0	0.0	7.60662	7.14829	-8.90287	14.54434	21.06041	0.94094	1.06277	187.03609	159.39107	71.69285	0.30443	 	1.20132E17	 	2.4708E-17	 	10255.234	31.4826	 
330.0	1.0	0.0	7.60837	7.14664	-8.92389	14.52719	20.99637	0.93605	1.06832	187.4897	159.61369	71.87779	0.30423	 	1.82399E17	 	1.61395E-17	 	10098.489	31.349	 
325.0	1.0	0.0	7.61013	7.14499	-8.94486	14.51004	20.93246	0.93112	1.07397	187.93973	159.8328	72.06142	0.30402	 	2.78927E17	 	1.04666E-17	 	9942.406	31.2166	 
320.0	1.0	0.0	7.61188	7.14335	-8.96579	14.49289	20.86869	0.92616	1.07972	188.38614	160.0484	72.24371	0.30382	 	4.29677E17	 	6.73766E-18	 	9786.977	31.0858	 
315.0	1.0	0.0	7.61362	7.14171	-8.98667	14.47574	20.80507	0.92116	1.08558	188.82892	160.26047	72.42467	0.30362	 	6.66894E17	 	4.30445E-18	 	9632.195	30.9564	 
310.0	1.0	0.0	7.61537	7.14008	-9.0075	14.4586	20.7416	0.91613	1.09155	189.26806	160.46902	72.60429	0.30342	 	1.04308E18	 	2.72867E-18	 	9478.054	30.8282	 
305.0	1.0	0.0	7.61711	7.13845	-9.02829	14.44146	20.67831	0.91105	1.09763	189.70354	160.67405	72.78256	0.30322	 	1.64439E18	 	1.71602E-18	 	9324.546	30.7016	 
300.0	1.0	0.0	7.61884	7.13682	-9.04903	14.42433	20.61519	0.90594	1.10383	190.13534	160.87555	72.95947	0.30302	 	2.61344E18	 	1.07039E-18	 	9171.665	30.5762	 
295.0	1.0	0.0	7.62058	7.1352	-9.06973	14.4072	20.55225	0.90079	1.11014	190.56345	161.07352	73.13502	0.30282	 	4.18822E18	 	6.62095E-19	 	9019.406	30.4518	 
290.0	1.0	0.0	7.62231	7.13358	-9.09037	14.39007	20.48949	0.89559	1.11658	190.98786	161.26797	73.30921	0.30262	 	6.76938E18	 	4.06034E-19	 	8867.762	30.3288	 
285.0	1.0	0.0	7.62404	7.13196	-9.11098	14.37295	20.42693	0.89036	1.12314	191.40856	161.45888	73.48202	0.30242	 	1.10375E19	 	2.46813E-19	 	8716.727	30.207	 
280.0	1.0	0.0	7.62576	7.13035	-9.13153	14.35583	20.36456	0.88509	1.12983	191.82552	161.64627	73.65345	0.30222	 	1.8159E19	 	1.48675E-19	 	8566.295	30.0864	 
275.0	1.0	0.0	7.62748	7.12874	-9.15204	14.33872	20.30239	0.87977	1.13666	192.23875	161.83013	73.8235	0.30202	 	3.01524E19	 	8.87286E-20	 	8416.462	29.9666	 
270.0	1.0	0.0	7.6292	7.12713	-9.1725	14.32161	20.24042	0.87442	1.14362	192.64822	162.01047	73.99216	0.30182	 	5.05438E19	 	5.24491E-20	 	8267.22	29.8484	 
265.0	1.0	0.0	7.63092	7.12553	-9.19292	14.3045	20.17865	0.86902	1.15072	193.05394	162.18728	74.15943	0.30161	 	8.55543E19	 	3.07007E-20	 	8118.566	29.7308	 
260.0	1.0	0.0	7.63263	7.12393	-9.21329	14.28739	20.11709	0.86358	1.15797	193.45589	162.36058	74.32531	0.30141	 	1.4627199999999998E20	 	1.77899E-20	 	7970.493	29.6146	 
255.0	1.0	0.0	7.63434	7.12234	-9.23361	14.27029	20.05573	0.8581	1.16537	193.85407	162.53036	74.48979	0.30121	 	2.5266599999999997E20	 	1.02023E-20	 	7822.997	29.4992	 
250.0	1.0	0.0	7.63604	7.12075	-9.25389	14.2532	19.99457	0.85257	1.17292	194.24847	162.69664	74.65286	0.30101	 	4.4108899999999997E20	 	5.78877E-21	 	7676.074	29.3846	 
245.0	1.0	0.0	7.63774	7.11916	-9.27412	14.2361	19.93361	0.84701	1.18063	194.63909	162.85942	74.81453	0.30081	 	7.784469999999999E20	 	3.24873E-21	 	7529.718	29.2712	 
240.0	1.0	0.0	7.63944	7.11757	-9.2943	14.21901	19.87285	0.8414	1.1885	195.02592	163.01871	74.9748	0.30061	 	1.38928E21	 	1.80277E-21	 	7383.925	29.1586	 
235.0	1.0	0.0	7.64114	7.11599	-9.31444	14.20193	19.81229	0.83575	1.19653	195.40896	163.17451	75.13365	0.30041	 	2.50816E21	 	9.88835E-22	 	7238.691	29.0468	 
230.0	1.0	0.0	7.64283	7.11442	-9.33453	14.18485	19.75193	0.83005	1.20474	195.78822	163.32684	75.2911	0.30021	 	4.5821200000000003E21	 	5.35942E-22	 	7094.011	28.936	 
225.0	1.0	0.0	7.64452	7.11284	-9.35458	14.16777	19.69176	0.82432	1.21313	196.16368	163.47572	75.44715	0.30001	 	8.47381E21	 	2.86925E-22	 	6949.881	28.826	 
220.0	1.0	0.0	7.64621	7.11128	-9.37458	14.15069	19.63178	0.81853	1.2217	196.53536	163.62114	75.60178	0.29981	 	1.5869099999999998E22	 	1.51675E-22	 	6806.298	28.7166	 
215.0	1.0	0.0	7.6479	7.10971	-9.39453	14.13362	19.57198	0.81271	1.23045	196.90326	163.76312	75.75501	0.29961	 	3.01058E22	 	7.91389E-23	 	6663.258	28.608	 
210.0	1.0	0.0	7.64958	7.10815	-9.41443	14.11656	19.51236	0.80684	1.2394	197.26739	163.90169	75.90683	0.2994	 	5.788249999999999E22	 	4.074E-23	 	6520.757	28.5002	 
205.0	1.0	0.0	7.65125	7.10659	-9.4343	14.09949	19.45292	0.80093	1.24854	197.62774	164.03686	76.05725	0.2992	 	1.1283E23	 	2.06837E-23	 	6378.792	28.393	 
200.0	1.0	0.0	7.65293	7.10503	-9.45411	14.08243	19.39365	0.79498	1.25789	197.98434	164.16863	76.20626	0.299	 	2.2308199999999998E23	 	1.03519E-23	 	6237.36	28.2864	 
195.0	1.0	0.0	7.6546	7.10348	-9.47388	14.06538	19.33454	0.78899	1.26745	198.33719	164.29705	76.35388	0.2988	 	4.47577E23	 	5.1051E-24	 	6096.457	28.1806	 
190.0	1.0	0.0	7.65627	7.10194	-9.4936	14.04832	19.2756	0.78295	1.27723	198.68631	164.42212	76.50011	0.2986	 	9.116669999999999E23	 	2.47955E-24	 	5956.082	28.075	 
185.0	1.0	0.0	7.65793	7.10039	-9.51328	14.03127	19.21681	0.77686	1.28723	199.03171	164.54387	76.64496	0.2984	 	1.88618E24	 	1.18553E-24	 	5816.23	27.9704	 
180.0	1.0	0.0	7.65959	7.09885	-9.5329	14.01423	19.15818	0.77074	1.29746	199.37342	164.66232	76.78842	0.2982	 	3.96581E24	 	5.57695E-25	 	5676.901	27.8658	 
175.0	1.0	0.0	7.66125	7.09731	-9.55249	13.99719	19.09968	0.76457	1.30793	199.71145	164.77751	76.93052	0.298	 	8.47839E24	 	2.57986E-25	 	5538.091	27.762	 
170.0	1.0	0.0	7.66291	7.09578	-9.57203	13.98015	19.04133	0.75835	1.31865	200.04582	164.88946	77.07124	0.2978	 	1.84404E25	 	1.17291E-25	 	5399.799	27.6584	 
165.0	1.0	0.0	7.66456	7.09425	-9.59152	13.96312	18.98311	0.7521	1.32962	200.37657	164.9982	77.21062	0.2976	 	4.08282E25	 	5.23781E-26	 	5262.022	27.5554	 
160.0	1.0	0.0	7.66621	7.09273	-9.61096	13.94609	18.92502	0.7458	1.34085	200.70372	165.10377	77.34865	0.2974	 	9.20756E25	 	2.29604E-26	 	5124.759	27.4526	 
155.0	1.0	0.0	7.66785	7.0912	-9.63036	13.92906	18.86705	0.73945	1.35235	201.0273	165.2062	77.48535	0.2972	 	2.1164300000000003E26	 	9.87366E-27	 	4988.009	27.35	 
150.0	1.0	0.0	7.6695	7.08969	-9.64971	13.91204	18.8092	0.73306	1.36414	201.34736	165.30553	77.62073	0.29699	 	4.961700000000001E26	 	4.16246E-27	 	4851.77	27.2478	 
145.0	1.0	0.0	7.67114	7.08817	-9.66902	13.89502	18.75146	0.72663	1.37621	201.66392	165.4018	77.75481	0.29679	 	1.18721E27	 	1.71906E-27	 	4716.041	27.1458	 
140.0	1.0	0.0	7.67277	7.08666	-9.68828	13.878	18.69382	0.72016	1.38859	201.97704	165.49506	77.8876	0.29659	 	2.9014799999999996E27	 	6.94984E-28	 	4580.823	27.0436	 
135.0	1.0	0.0	7.6744	7.08515	-9.7075	13.86099	18.63629	0.71364	1.40127	202.28676	165.58536	78.01912	0.29639	 	7.24836E27	 	2.74832E-28	 	4446.113	26.942	 
130.0	1.0	0.0	7.67603	7.08365	-9.72667	13.84398	18.57885	0.70708	1.41428	202.59313	165.67274	78.14939	0.29619	 	1.8524300000000002E28	 	1.06221E-28	 	4311.913	26.84	 
125.0	1.0	0.0	7.67766	7.08215	-9.74579	13.82697	18.5215	0.70047	1.42762	202.89621	165.75726	78.27842	0.29599	 	4.84725E28	 	4.00902E-29	 	4178.222	26.7382	 
120.0	1.0	0.0	7.67928	7.08065	-9.76487	13.80997	18.46424	0.69382	1.4413	203.19605	165.83898	78.40626	0.29579	 	1.29985E29	 	1.47623E-29	 	4045.04	26.6364	 
115.0	1.0	0.0	7.6809	7.07916	-9.7839	13.79298	18.40705	0.68712	1.45535	203.49274	165.91795	78.53291	0.29559	 	3.57553E29	 	5.29841E-30	 	3912.369	26.5342	 
110.0	1.0	0.0	7.68252	7.07767	-9.80289	13.77598	18.34994	0.68038	1.46977	203.78632	165.99426	78.6584	0.29539	 	1.0098899999999999E30	 	1.85175E-30	 	3780.21	26.4318	 
105.0	1.0	0.0	7.68413	7.07618	-9.82182	13.75899	18.29291	0.6736	1.48457	204.07689	166.06796	78.78277	0.29519	 	2.93187E30	 	6.29516E-31	 	3648.563	26.3294	 
100.0	1.0	0.0	7.68574	7.0747	-9.84072	13.74201	18.23594	0.66677	1.49978	204.36453	166.13913	78.90604	0.29499	 	8.75854E30	 	2.0794E-31	 	3517.43	26.2266	 
95.0	1.0	0.0	7.68735	7.07322	-9.85957	13.72502	18.17903	0.65989	1.5154	204.64932	166.20786	79.02826	0.29479	 	2.69551E31	 	6.66609E-32	 	3386.815	26.123	 
90.0	1.0	0.0	7.68895	7.07174	-9.87837	13.70805	18.12218	0.65297	1.53146	204.93137	166.27422	79.14945	0.29458	 	8.55664E31	 	2.07143E-32	 	3256.718	26.0194	 
85.0	1.0	0.0	7.69056	7.07027	-9.89712	13.69107	18.06538	0.646	1.54798	205.21078	166.33832	79.26966	0.29438	 	2.80532E32	 	6.23116E-33	 	3127.144	25.9148	 
80.0	1.0	0.0	7.69215	7.0688	-9.91583	13.6741	18.00864	0.63899	1.56496	205.48765	166.40024	79.38893	0.29418	 	9.51202E32	 	1.81206E-33	 	2998.095	25.8098	 
75.0	1.0	0.0	7.69375	7.06734	-9.9345	13.65713	17.95194	0.63194	1.58244	205.76212	166.4601	79.5073	0.29398	 	3.34043E33	 	5.08687E-34	 	2869.576	25.7038	 
70.0	1.0	0.0	7.69534	7.06588	-9.95312	13.64017	17.89528	0.62483	1.60043	206.03432	166.51801	79.62484	0.29378	 	1.2168500000000002E34	 	1.37636E-34	 	2741.591	25.597	 
65.0	1.0	0.0	7.69693	7.06442	-9.97169	13.62321	17.83867	0.61768	1.61896	206.30438	166.57407	79.74158	0.29358	 	4.60555E34	 	3.58356E-35	 	2614.144	25.4894	 
60.0	1.0	0.0	7.69851	7.06297	-9.99022	13.60625	17.78209	0.61048	1.63804	206.57245	166.62844	79.85759	0.29338	 	1.81419E35	 	8.96281E-36	 	2487.242	25.3804	 
55.0	1.0	0.0	7.70009	7.06152	-10.0087	13.5893	17.72555	0.60324	1.65771	206.83871	166.68123	79.97294	0.29318	 	7.4513E35	 	2.14945E-36	 	2360.89	25.2704	 
50.0	1.0	0.0	7.70167	7.06007	-10.02713	13.57235	17.66904	0.59595	1.678	207.10333	166.7326	80.08769	0.29298	 	3.19723E36	 	4.93307E-37	 	2235.096	25.1588	 
45.0	1.0	0.0	7.70324	7.05863	-10.04552	13.5554	17.61255	0.58861	1.69892	207.36649	166.7827	80.20191	0.29278	 	1.43615E37	 	1.08123E-37	 	2109.866	25.046	 
40.0	1.0	0.0	7.70481	7.05719	-10.06387	13.53846	17.5561	0.58122	1.72051	207.6284	166.8317	80.31568	0.29258	 	6.76808E37	 	2.25826E-38	 	1985.21	24.9312	 
35.0	1.0	0.0	7.70638	7.05575	-10.08217	13.52152	17.49966	0.57379	1.74281	207.88929	166.87979	80.42909	0.29238	 	3.3541499999999997E38	 	4.48401E-39	 	1861.136	24.8148	 
30.0	1.0	0.0	7.70795	7.05432	-10.10042	13.50458	17.44325	0.5663	1.76584	208.14938	166.92715	80.54223	0.29218	 	1.7524E39	 	8.4433E-40	 	1737.654	24.6964	 
25.0	1.0	0.0	7.70951	7.05289	-10.11863	 	17.38686	0.55877	1.78965	208.40894	166.97399	80.6552	0.29197	 	9.677590000000001E39	 	1.50368E-40	 	1614.775	 	 
