T (C)	Fraction solid (wt)-TOTAL	Fraction liquid (wt)-LIQUID	Density (g/(cm)^3)-TOTAL	Molar volume (cm^3)-TOTAL	Volume change (%)-  	Average expansion coeff. (10e-6 1/K)-  	Thermal conductivity (W/(m*K))-TOTAL	Electrical resistivity (10e-6 Ohm*m)-TOTAL	Electrical conductivity (10e6 1/(Ohm*m))-TOTAL	Young's modulus (GPa)-TOTAL	Bulk modulus (GPa)-TOTAL	Shear modulus(GPa)-TOTAL	Poisson's ratio-TOTAL	Liquid viscosity (mPa s)-  	Total viscosity (mPa s)-  	Liquid diffusivity (10e-9 (m^2)/s)-  	Total diffusivity (10e-9 (m^2)/s)-  	Surface Tension (mN/m)-  	Enthalpy (J/mole)-TOTAL	Specific heat (J/(mole K))-TOTAL	Latent heat (J/mole)-TOTAL
700.0	0.0	1.0	2.47472	11.15397	0.0	45.20108	78.78089	0.30264	3.30427	0.0	51.03179	0.0	0.5	1.49517	1.49517	3.17669	3.17669	753.08393	31802.707	 	0.0
695.0	0.0	1.0	2.47645	11.14618	-0.0697808	45.15946	78.62107	0.3017	3.31459	0.0	51.09741	0.0	0.5	1.51244	1.51244	3.12429	3.12429	754.1458	31647.745	30.9924	0.0
690.0	0.0	1.0	2.47818	11.13842	-0.13936	45.11831	78.46124	0.30075	3.32503	0.0	51.16302	0.0	0.5	1.53009	1.53009	3.07231	3.07231	755.20567	31492.801	30.9888	0.0
685.0	0.0	1.0	2.4799	11.13068	-0.20874	45.07765	78.30141	0.2998	3.33557	0.0	51.22864	0.0	0.5	1.54813	1.54813	3.02074	3.02074	756.26348	31337.873	30.9856	0.0
680.0	0.0	1.0	2.48162	11.12297	-0.27791	45.03749	78.14157	0.29884	3.34622	0.0	51.29426	0.0	0.5	1.56657	1.56657	2.96959	2.96959	757.31916	31182.963	30.982	0.0
675.0	0.0	1.0	2.48334	11.11528	-0.34689	44.99785	77.98172	0.29789	3.35699	0.0	51.35987	0.0	0.5	1.58544	1.58544	2.91887	2.91887	758.37263	31028.071	30.9784	0.0
670.0	0.0	1.0	2.48505	11.1076	-0.41566	44.95872	77.82186	0.29692	3.36787	0.0	51.42549	0.0	0.5	1.60473	1.60473	2.86857	2.86857	759.42384	30873.196	30.975	0.0
665.0	0.0	1.0	2.48676	11.09996	-0.48423	44.92013	77.662	0.29596	3.37886	0.0	51.49111	0.0	0.5	1.62447	1.62447	2.81869	2.81869	760.4727	30718.338	30.9716	0.0
660.0	0.0	1.0	2.48847	11.09233	-0.5526	44.88209	77.50213	0.29499	3.38997	0.0	51.55672	0.0	0.5	1.64467	1.64467	2.76923	2.76923	761.51912	30563.489	30.9698	0.0
655.0	0.0	1.0	2.49018	11.08473	-0.62077	44.84461	77.34226	0.29401	3.4012	0.0	51.62234	0.0	0.5	1.66534	1.66534	2.72021	2.72021	762.56306	30408.829	30.932	0.0
650.0	0.0	1.0	2.49188	11.07715	-0.68873	44.8077	77.18238	0.29304	3.41256	0.0	51.68795	0.0	0.5	1.6865	1.6865	2.67161	2.67161	763.60444	30254.474	30.871	0.0
645.0	0.0	1.0	2.49359	11.06959	-0.7565	44.77139	77.02249	0.29205	3.42403	0.0	51.75357	0.0	0.5	1.70816	1.70816	2.62344	2.62344	764.40472	30100.43	30.8088	0.0
640.0	0.0	1.0	2.49528	11.06205	-0.82406	44.73567	76.8626	0.29107	3.43563	0.0	51.81919	0.0	0.5	1.73034	1.73034	2.57571	2.57571	765.4547	29946.702	30.7456	0.0
635.0	0.0	1.0	2.49698	11.05454	-0.89142	44.70057	76.7027	0.29008	3.44736	0.0	51.8848	0.0	0.5	1.75306	1.75306	2.52841	2.52841	766.50138	29793.29	30.6824	0.0
631.98	0.0	1.0	2.498	11.05001	-0.93201	44.67967	76.6061	0.28948	3.45451	0.0	51.92444	0.0	0.5	1.76705	1.76705	2.50005	2.50005	767.13204	29700.773	30.6314	0.0
630.0	1.5E-4	0.99985	2.49869	11.04697	-0.95924	44.66214	76.54603	0.28907	3.45937	2.80435E-14	51.95108	9.34807E-15	0.49996	1.7761	1.7761	2.48187	2.48187	767.54734	29636.023	32.7075	4.173
625.0	5.1E-4	0.99949	2.50041	11.03947	-1.02654	44.62621	76.39381	0.28804	3.47171	3.49709E-12	52.01902	1.16579E-12	0.49988	1.79941	1.79941	2.43616	2.43616	768.59328	29473.488	32.507	13.93
620.0	8.3E-4	0.99917	2.50213	11.03184	-1.09488	44.58333	76.2404	0.28702	3.48413	2.45542E-11	52.08614	8.18585E-12	0.4998	1.82333	1.82333	2.39082	2.39082	769.63531	29312.307	32.2362	22.65
615.0	0.00111	0.99889	2.50385	11.02429	-1.16259	44.54357	76.08603	0.28599	3.49665	8.03846E-11	52.1534	2.67997E-11	0.49973	1.84791	1.84791	2.34581	2.34581	770.6732	29152.378	31.9858	30.432
610.0	0.00137	0.99863	2.50555	11.01674	-1.23034	44.50295	75.93138	0.28496	3.5093	1.83557E-10	52.22032	6.11995E-11	0.49966	1.87314	1.87314	2.30119	2.30119	771.70698	28993.611	31.7534	37.369
605.0	0.00159	0.99841	2.50725	11.00925	-1.29745	44.46561	75.77585	0.28393	3.52205	3.39968E-10	52.28739	1.13352E-10	0.49961	1.89907	1.89907	2.25692	2.25692	772.73654	28835.92	31.5382	43.544
600.0	0.00179	0.99821	2.50895	11.00184	-1.36384	44.43212	75.62016	0.28289	3.53494	5.48961E-10	52.35457	1.8304E-10	0.49956	1.9257	1.9257	2.21303	2.21303	773.76181	28679.23	31.338	49.032
595.0	0.00197	0.99803	2.51064	10.99439	-1.43072	44.39498	75.4635	0.28185	3.54794	8.05322E-10	52.42132	2.68528E-10	0.49952	1.95305	1.95305	2.16954	2.16954	774.78285	28523.469	31.1522	53.903
590.0	0.00213	0.99787	2.51232	10.98699	-1.49698	44.36114	75.3067	0.28081	3.56108	1.10081E-9	52.48815	3.67064E-10	0.49948	1.98115	1.98115	2.12645	2.12645	775.79951	28368.574	30.979	58.219
585.0	0.00226	0.99774	2.514	10.97976	-1.56181	44.33604	75.1499	0.27977	3.57437	1.42583E-9	52.55558	4.75453E-10	0.49945	2.01004	2.01004	2.08375	2.08375	776.81162	28214.486	30.8176	62.04
581.73	0.00235	0.99765	2.51509	10.97497	-1.60476	44.31558	75.04729	0.27909	3.58313	1.64928E-9	52.59918	5.49972E-10	0.49943	2.02933	2.02933	2.05608	2.05608	777.4708	28114.184	 	64.291
580.0	0.00356	0.99644	2.51506	10.97513	-1.60336	44.46306	74.98257	0.27876	3.58731	2.18348E-9	52.67339	7.28283E-10	0.49906	2.03742	2.03742	2.04377	2.04377	777.82209	28015.926	39.712	110.641
575.0	0.00701	0.99299	2.51495	10.97551	-1.59991	44.89011	74.80883	0.27777	3.6001	9.3757E-8	52.89031	3.12938E-8	0.49801	2.06118	2.06118	2.00837	2.00837	778.83509	27734.263	56.3326	242.653
571.47	0.00941	0.99059	2.51489	10.97591	-1.59637	45.20332	74.69347	0.27704	3.60955	4.86266E-7	53.04246	1.62381E-7	0.49729	2.07835	2.07835	1.9835	1.9835	779.54823	27537.392	 	334.172
571.47	0.00941	0.99059	2.51489	10.97591	-1.59637	45.20333	74.69346	0.27704	3.60955	4.86294E-7	53.04247	1.62391E-7	0.49729	2.07835	2.07835	1.9835	1.9835	779.54825	27537.386	 	334.175
570.0	0.01064	0.98936	2.5149	10.97577	-1.59766	45.31697	74.64634	0.27673	3.61358	8.31572E-7	53.10716	2.77759E-7	0.49693	2.08535	2.08535	1.97339	1.97339	779.84721	27450.762	56.7002	376.808
565.46	0.01442	0.98558	2.51494	10.97565	-1.59869	45.69108	74.50557	0.27576	3.62631	3.0528E-6	53.30691	1.02043E-6	0.49584	2.10735	2.10735	1.94226	1.94226	780.76803	27184.781	 	507.315
565.0	0.05337	0.94663	2.51822	10.96137	-1.72668	44.86726	75.88528	0.2706	3.69547	7.28113E-5	53.25764	2.44312E-5	0.49013	2.11634	2.41493	1.93296	1.69396	780.19959	26633.145	163.523	1045.383
560.0	0.34975	0.65025	2.54392	10.85058	-2.71996	38.53141	88.48784	0.23068	4.33505	0.45367	54.87222	0.15688	0.44594	2.22122	318.07665	1.83071	0.0127843	775.52897	22387.784	849.072	5142.004
555.0	0.50297	0.49703	2.55787	10.79138	-3.25079	35.25081	96.64268	0.20995	4.76315	2.39687	55.83455	0.84246	0.42255	2.3309	1519.73755	1.73409	0.00265967	772.37236	20120.422	453.472	7260.928
550.0	0.59503	0.40497	2.56669	10.75427	-3.58347	33.28094	99.45438	0.20278	4.9315	5.25012	56.49506	1.86409	0.40822	2.44426	3348.04615	1.64369	0.00119998	770.1001	18698.824	284.32	8534.385
545.0	0.65593	0.34407	2.57286	10.72844	-3.81503	31.9807	103.49246	0.19368	5.16309	8.3095	56.99864	2.97068	0.39858	2.56067	5571.28132	1.55943	7.16745E-4	768.39504	17708.213	198.122	9377.151
541.75	0.68541	0.31459	2.57601	10.71527	-3.9331	31.35076	105.64614	0.18898	5.29158	10.23395	57.27398	3.67112	0.39385	2.6378	7185.11317	1.50781	5.53548E-4	767.49434	17204.13	 	9785.174
540.34	0.70891	0.29109	2.57822	10.70603	-4.01596	30.85142	107.41766	0.18554	5.38963	12.03239	57.50831	4.32815	0.39002	2.69727	8514.47085	1.47202	4.66316E-4	767.11416	16813.696	 	10134.069
540.34	0.70891	0.29109	2.57822	10.70603	-4.01595	30.85153	107.41746	0.18554	5.38962	12.03243	57.50834	4.32816	0.39002	2.69727	8514.50401	1.47202	4.66314E-4	767.11409	16813.633	 	10134.127
540.0	0.7167	0.2833	2.57887	10.70333	-4.04015	30.70071	107.97781	0.1845	5.41998	12.6673	57.57814	4.56087	0.38869	2.70967	8964.45448	1.46467	4.42724E-4	766.98403	16687.494	204.144	10250.319
538.45	0.74846	0.25154	2.58153	10.69222	-4.13978	30.08772	110.34031	0.18021	5.54918	15.5428	57.86841	5.61814	0.38327	2.76676	11056.18472	1.43171	3.58279E-4	766.47752	16167.818	 	10724.171
536.66	0.81383	0.18617	2.58611	10.67313	-4.31089	28.97586	115.38665	0.17195	5.81576	22.84925	58.37252	8.32656	0.37207	2.77838	16004.43837	1.42258	2.46962E-4	765.3806	15141.352	 	11698.068
535.0	0.85165	0.14835	2.58893	10.66135	-4.41649	28.31686	118.58664	0.16696	5.98932	28.17036	58.6862	10.3147	0.36554	2.79104	19902.9326	1.41323	1.98181E-4	764.72898	14529.818	431.535	12260.736
530.66	0.90574	0.0942645	2.59343	10.64249	-4.58561	27.34327	123.59366	0.15934	6.27595	37.40394	59.20771	13.79085	0.35611	2.8342	28183.29351	1.38423	1.39202E-4	764.03301	13601.009	 	13061.822
530.0	0.98694	0.0130646	2.61156	10.60092	-4.95829	24.6936	130.73603	0.15051	6.64404	54.60392	59.86763	20.34907	0.34168	2.83275	39537.29995	1.3838	9.91463E-5	760.06809	12124.805	481.003	14518.777
520.0	1.0	0.0	2.61463	10.58724	-5.0809	24.29123	132.51414	0.14664	6.81932	58.28723	60.25855	21.76869	0.33879	 	53514.23885	 	7.2339E-5	 	11638.831	48.5974	14711.665
515.0	1.0	0.0	2.61572	10.58281	-5.12067	24.24386	132.75533	0.14545	6.87507	58.58163	60.44336	21.88386	0.33847	 	60877.56828	 	6.31885E-5	 	11466.645	34.4372	 
510.0	1.0	0.0	2.61681	10.57839	-5.16029	24.19651	132.99651	0.14427	6.93153	58.87456	60.62655	21.9985	0.33815	 	69368.15558	 	5.51025E-5	 	11315.851	30.1588	 
505.0	1.0	0.0	2.6179	10.57398	-5.19979	24.14918	133.23765	0.14309	6.98872	59.16603	60.80813	22.11262	0.33783	 	79175.65885	 	4.79687E-5	 	11165.454	30.0794	 
500.0	1.0	0.0	2.61899	10.56959	-5.23915	24.10189	133.47872	0.14191	7.04664	59.45603	60.98813	22.22622	0.33752	 	90524.48235	 	4.16854E-5	 	11015.449	30.001	 
495.0	1.0	0.0	2.62008	10.56522	-5.27838	24.05462	133.7197	0.14074	7.10531	59.74458	61.16656	22.3393	0.33721	 	103680.658	 	3.61605E-5	 	10865.827	29.9244	 
490.0	1.0	0.0	2.62116	10.56086	-5.31747	24.00738	133.96055	0.13957	7.16475	60.03169	61.34344	22.45187	0.3369	 	118960.1919	 	3.13109E-5	 	10716.583	29.8488	 
485.0	1.0	0.0	2.62224	10.55651	-5.35643	23.96016	134.20126	0.13841	7.22496	60.31735	61.5188	22.56392	0.33659	 	136739.2086	 	2.70613E-5	 	10567.71	29.7746	 
480.0	1.0	0.0	2.62331	10.55218	-5.39526	23.91297	134.4418	0.13725	7.28596	60.60157	61.69266	22.67546	0.33628	 	157466.3086	 	2.33443E-5	 	10419.199	29.7022	 
475.0	1.0	0.0	2.62439	10.54787	-5.43395	23.86581	134.68212	0.1361	7.34776	60.88436	61.86502	22.78648	0.33598	 	181677.654	 	2.0099E-5	 	10271.046	29.6306	 
470.0	1.0	0.0	2.62546	10.54356	-5.47251	23.81868	134.92222	0.13495	7.41039	61.16572	62.03592	22.897	0.33567	 	210015.4275	 	1.72708E-5	 	10123.242	29.5608	 
465.0	1.0	0.0	2.62653	10.53928	-5.51094	23.77157	135.16204	0.1338	7.47384	61.44566	62.20536	23.007	0.33537	 	243250.4697	 	1.48108E-5	 	9975.781	29.4922	 
460.0	1.0	0.0	2.62759	10.53501	-5.54924	23.72449	135.40157	0.13266	7.53815	61.72418	62.37337	23.11649	0.33507	 	282310.1078	 	1.26752E-5	 	9828.656	29.425	 
455.0	1.0	0.0	2.62865	10.53075	-5.5874	23.67744	135.64078	0.13152	7.60332	62.00129	62.53996	23.22548	0.33477	 	328312.4462	 	1.08248E-5	 	9681.861	29.359	 
450.0	1.0	0.0	2.62971	10.52651	-5.62543	23.63041	135.87961	0.13039	7.66937	62.27699	62.70516	23.33396	0.33447	 	382608.7237	 	9.22487E-6	 	9535.387	29.2948	 
445.0	1.0	0.0	2.63077	10.52228	-5.66333	23.58341	136.11806	0.12926	7.73632	62.53819	62.8558	23.43702	0.33418	 	446835.7652	 	7.8443E-6	 	9389.229	29.2316	 
440.0	1.0	0.0	2.63182	10.51807	-5.7011	23.53644	136.35607	0.12814	7.80418	62.81116	63.01834	23.54451	0.33388	 	522981.0971	 	6.65551E-6	 	9243.38	29.1698	 
435.0	1.0	0.0	2.63287	10.51387	-5.73873	23.48949	136.59361	0.12702	7.87298	63.08273	63.17954	23.65149	0.33359	 	613463.9954	 	5.63408E-6	 	9097.833	29.1094	 
430.0	1.0	0.0	2.63392	10.50969	-5.77624	23.44257	136.83065	0.1259	7.94272	63.35291	63.33939	23.75798	0.3333	 	721236.6287	 	4.75836E-6	 	8952.581	29.0504	 
425.0	1.0	0.0	2.63497	10.50552	-5.81361	23.39568	137.06715	0.12479	8.01343	63.62171	63.49793	23.86395	0.33301	 	849910.6193	 	4.00924E-6	 	8807.619	28.9924	 
420.0	1.0	0.0	2.63601	10.50137	-5.85084	23.34881	137.30307	0.12368	8.08513	63.88912	63.65517	23.96943	0.33272	 	1003915.845	 	3.3699E-6	 	8662.937	28.9364	 
415.0	1.0	0.0	2.63705	10.49723	-5.88795	23.30197	137.53837	0.12258	8.15783	64.15516	63.81113	24.07441	0.33243	 	1188700.251	 	2.82551E-6	 	8518.535	28.8804	 
410.0	1.0	0.0	2.63808	10.4931	-5.92493	23.25516	137.77301	0.12148	8.23156	64.41983	63.96581	24.17889	0.33215	 	1410981.987	 	2.3631E-6	 	8374.411	28.8248	 
405.0	1.0	0.0	2.63912	10.48899	-5.96177	23.20838	138.00695	0.12039	8.30633	64.68312	64.11923	24.28286	0.33187	 	1679068.488	 	1.97126E-6	 	8230.564	28.7694	 
400.0	1.0	0.0	2.64015	10.4849	-5.99848	23.16162	138.24015	0.1193	8.38217	64.94505	64.27142	24.38634	0.33159	 	2003261.49	 	1.64006E-6	 	8086.995	28.7138	 
395.0	1.0	0.0	2.64118	10.48082	-6.03506	23.11489	138.47256	0.11822	8.45909	65.20562	64.42237	24.48933	0.33131	 	2396372.677	 	1.36084E-6	 	7943.702	28.6586	 
390.0	1.0	0.0	2.6422	10.47675	-6.07151	23.06819	138.70414	0.11714	8.53712	65.46484	64.57212	24.59181	0.33103	 	2874382.213	 	1.12604E-6	 	7800.685	28.6034	 
385.0	1.0	0.0	2.64322	10.4727	-6.10783	23.02151	138.93484	0.11606	8.61629	65.7227	64.72066	24.6938	0.33075	 	3457282.428	 	9.29131E-7	 	7657.945	28.548	 
380.0	1.0	0.0	2.64424	10.46867	-6.14402	22.97486	139.16461	0.11499	8.69661	65.97921	64.86802	24.7953	0.33048	 	4170162.214	 	7.64446E-7	 	7515.479	28.4932	 
375.0	1.0	0.0	2.64526	10.46464	-6.18008	22.92824	139.39342	0.11392	8.7781	66.23438	65.01421	24.8963	0.33021	 	5044605.394	 	6.27097E-7	 	7373.289	28.438	 
370.0	1.0	0.0	2.64627	10.46064	-6.216	22.88164	139.6212	0.11286	8.8608	66.48821	65.15924	24.99681	0.32993	 	6120500.099	 	5.12876E-7	 	7231.373	28.3832	 
365.0	1.0	0.0	2.64728	10.45664	-6.2518	22.83507	139.84791	0.1118	8.94473	66.7407	65.30313	25.09682	0.32966	 	7448388.01	 	4.18165E-7	 	7089.732	28.3282	 
360.0	1.0	0.0	2.64829	10.45267	-6.28747	22.78853	140.07349	0.11074	9.02991	66.99185	65.44589	25.19634	0.3294	 	9092525.31	 	3.39867E-7	 	6948.364	28.2736	 
355.0	1.0	0.0	2.64929	10.4487	-6.323	22.74201	140.2979	0.10969	9.11637	67.24168	65.58752	25.29537	0.32913	 	1.113488537E7	 	2.75337E-7	 	6807.27	28.2188	 
350.0	1.0	0.0	2.6503	10.44475	-6.35841	22.69552	140.52107	0.10865	9.20413	67.49017	65.72806	25.39391	0.32887	 	1.368041216E7	 	2.22321E-7	 	6666.45	28.164	 
345.0	1.0	0.0	2.65129	10.44082	-6.39368	22.64906	140.74296	0.10761	9.29323	67.73735	65.86749	25.49197	0.3286	 	1.686394129E7	 	1.78905E-7	 	6525.902	28.1096	 
340.0	1.0	0.0	2.65229	10.4369	-6.42883	22.60263	140.9635	0.10657	9.38369	67.98321	66.00585	25.58953	0.32834	 	2.08593531E7	 	1.43467E-7	 	6385.627	28.055	 
335.0	1.0	0.0	2.65328	10.43299	-6.46384	22.55622	141.18264	0.10553	9.47555	68.22775	66.14314	25.6866	0.32808	 	2.58917255E7	 	1.1464E-7	 	6245.625	28.0004	 
330.0	1.0	0.0	2.65427	10.4291	-6.49873	22.50984	141.40032	0.10451	9.56883	68.47097	66.27937	25.78318	0.32782	 	3.225353486E7	 	9.12714E-8	 	6105.896	27.9458	 
325.0	1.0	0.0	2.65526	10.42522	-6.53348	22.46349	141.61646	0.10348	9.66357	68.71289	66.41455	25.87928	0.32757	 	4.032634243E7	 	7.23949E-8	 	5966.439	27.8914	 
320.0	1.0	0.0	2.65624	10.42136	-6.56811	22.41716	141.83102	0.10246	9.75979	68.9535	66.5487	25.97489	0.32731	 	5.060994665E7	 	5.72025E-8	 	5827.254	27.837	 
315.0	1.0	0.0	2.65723	10.41751	-6.6026	22.37086	142.04392	0.10145	9.85754	69.19281	66.68183	26.07002	0.32706	 	6.376174123E7	 	4.50209E-8	 	5688.341	27.7826	 
310.0	1.0	0.0	2.6582	10.41368	-6.63697	22.32459	142.25511	0.10043	9.95684	69.43082	66.81394	26.16466	0.32681	 	8.065008751E7	 	3.52909E-8	 	5549.7	27.7282	 
305.0	1.0	0.0	2.65918	10.40986	-6.67121	22.27834	142.4645	0.099426	10.05773	69.66754	66.94506	26.25881	0.32656	 	1.024270202E8	 	2.75494E-8	 	5411.332	27.6736	 
300.0	1.0	0.0	2.66015	10.40606	-6.70532	22.23212	142.67203	0.0984228	10.16025	69.90296	67.07518	26.35248	0.32631	 	1.306277502E8	 	2.14151E-8	 	5273.236	27.6192	 
295.0	1.0	0.0	2.66112	10.40227	-6.7393	22.18593	142.87763	0.0974238	10.26444	70.13709	67.20433	26.44567	0.32606	 	1.673074915E8	 	1.65743E-8	 	5135.413	27.5646	 
290.0	1.0	0.0	2.66209	10.39849	-6.77315	22.13976	143.08122	0.096429	10.37033	70.36993	67.33251	26.53837	0.32581	 	2.152305312E8	 	1.27705E-8	 	4997.861	27.5104	 
285.0	1.0	0.0	2.66305	10.39473	-6.80687	22.09362	143.28273	0.0954384	10.47796	70.60149	67.45973	26.63059	0.32557	 	2.781327999E8	 	9.79457E-9	 	4860.583	27.4556	 
280.0	1.0	0.0	2.66401	10.39098	-6.84046	22.04751	143.48208	0.094452	10.58738	70.83177	67.586	26.72233	0.32533	 	3.610883894E8	 	7.47681E-9	 	4723.577	27.4012	 
275.0	1.0	0.0	2.66497	10.38725	-6.87393	22.00142	143.67918	0.0934699	10.69863	71.06077	67.71134	26.81358	0.32509	 	4.710238649E8	 	5.67993E-9	 	4586.845	27.3464	 
270.0	1.0	0.0	2.66592	10.38353	-6.90726	21.95537	143.87396	0.0924919	10.81176	71.28849	67.83575	26.90436	0.32485	 	6.174438703E8	 	4.29348E-9	 	4450.386	27.2918	 
265.0	1.0	0.0	2.66687	10.37983	-6.94047	21.90934	144.06633	0.0915181	10.9268	71.51495	67.95924	26.99465	0.32461	 	8.134605115E8	 	3.22889E-9	 	4314.201	27.237	 
260.0	1.0	0.0	2.66782	10.37614	-6.97355	21.86333	144.25619	0.0905485	11.04381	71.74013	68.08183	27.08447	0.32438	 	1.077262012E9	 	2.41554E-9	 	4178.291	27.182	 
255.0	1.0	0.0	2.66877	10.37246	-7.0065	21.81735	144.44347	0.089583	11.16284	71.96405	68.20351	27.1738	0.32414	 	1.434220346E9	 	1.79733E-9	 	4042.655	27.1272	 
250.0	1.0	0.0	2.66971	10.3688	-7.03932	21.7714	144.62807	0.0886216	11.28393	72.1867	68.32431	27.26266	0.32391	 	1.919934E9	 	1.32992E-9	 	3907.294	27.0722	 
245.0	1.0	0.0	2.67065	10.36516	-7.07202	21.72548	144.80989	0.0876644	11.40714	72.40809	68.44423	27.35103	0.32368	 	2.584647891E9	 	9.78455E-10	 	3772.21	27.0168	 
240.0	1.0	0.0	2.67158	10.36152	-7.10459	21.67959	144.98883	0.0867113	11.53252	72.62823	68.56327	27.43893	0.32345	 	3.499714383E9	 	7.15646E-10	 	3637.403	26.9614	 
235.0	1.0	0.0	2.67252	10.35791	-7.13703	21.63371	145.16479	0.0857624	11.66013	72.8471	68.68146	27.52635	0.32322	 	4.767099517E9	 	5.20265E-10	 	3502.873	26.906	 
230.0	1.0	0.0	2.67345	10.3543	-7.16934	21.58787	145.33767	0.0848175	11.79002	73.06473	68.79879	27.6133	0.323	 	6.533463368E9	 	3.75873E-10	 	3368.621	26.8504	 
225.0	1.0	0.0	2.67438	10.35071	-7.20152	21.54206	145.50735	0.0838767	11.92226	73.2811	68.91528	27.69976	0.32277	 	9.011159044E9	 	2.69815E-10	 	3234.649	26.7944	 
220.0	1.0	0.0	2.6753	10.34714	-7.23358	21.49627	145.67373	0.08294	12.05691	73.49623	69.03094	27.78575	0.32255	 	1.2509799999999998E10	 	1.92405E-10	 	3100.957	26.7384	 
215.0	1.0	0.0	2.67622	10.34357	-7.26551	21.45051	145.83668	0.0820073	12.19403	73.71011	69.14577	27.87127	0.32233	 	1.74838E10	 	1.36271E-10	 	2967.546	26.6822	 
210.0	1.0	0.0	2.67714	10.34003	-7.29731	21.40477	145.99609	0.0810787	12.33369	73.92275	69.25978	27.9563	0.32211	 	2.4605599999999996E10	 	9.58375E-11	 	2834.418	26.6256	 
205.0	1.0	0.0	2.67805	10.33649	-7.32899	21.35906	146.15184	0.0801541	12.47596	74.13415	69.37298	28.04087	0.32189	 	3.48765E10	 	6.69141E-11	 	2701.574	26.5688	 
200.0	1.0	0.0	2.67897	10.33297	-7.36054	21.31338	146.30379	0.0792336	12.62091	74.34431	69.48539	28.12495	0.32168	 	4.980059999999999E10	 	4.63714E-11	 	2569.015	26.5118	 
195.0	1.0	0.0	2.67987	10.32947	-7.39196	21.26773	146.45181	0.0783171	12.76861	74.55324	69.59699	28.20857	0.32146	 	7.16542E10	 	3.18882E-11	 	2436.743	26.4544	 
190.0	1.0	0.0	2.68078	10.32598	-7.42326	21.2221	146.59577	0.0774045	12.91914	74.76093	69.70782	28.29171	0.32125	 	1.03911E11	 	2.17545E-11	 	2304.759	26.3968	 
185.0	1.0	0.0	2.68168	10.3225	-7.45443	21.1765	146.73552	0.076496	13.07259	74.96739	69.81786	28.37437	0.32104	 	1.51915E11	 	1.47195E-11	 	2173.065	26.3388	 
180.0	1.0	0.0	2.68258	10.31904	-7.48547	21.13093	146.87091	0.0755914	13.22902	75.17263	69.92714	28.45656	0.32083	 	2.23966E11	 	9.87522E-12	 	2041.664	26.2802	 
175.0	1.0	0.0	2.68348	10.31559	-7.51639	21.08538	147.00178	0.0746908	13.38854	75.37663	70.03566	28.53828	0.32062	 	3.33062E11	 	6.56728E-12	 	1910.556	26.2216	 
170.0	1.0	0.0	2.68437	10.31216	-7.54718	21.03986	147.12798	0.0737941	13.55122	75.57942	70.14342	28.61953	0.32042	 	4.99755E11	 	4.32793E-12	 	1779.744	26.1624	 
165.0	1.0	0.0	2.68526	10.30874	-7.57784	20.99437	147.24934	0.0729013	13.71717	75.78098	70.25043	28.7003	0.32021	 	7.56852E11	 	2.82552E-12	 	1649.23	26.1028	 
160.0	1.0	0.0	2.68615	10.30533	-7.60838	20.9489	147.36568	0.0720125	13.88647	75.98132	70.35671	28.7806	0.32001	 	1.15725E12	 	1.82683E-12	 	1519.018	26.0424	 
155.0	1.0	0.0	2.68704	10.30194	-7.63879	20.90346	147.47683	0.0711276	14.05924	76.18045	70.46225	28.86043	0.31981	 	1.7871E12	 	1.16932E-12	 	1389.108	25.982	 
150.0	1.0	0.0	2.68792	10.29856	-7.66907	20.85805	147.58258	0.0702466	14.23556	76.37836	70.56707	28.93979	0.31961	 	2.78825E12	 	7.40711E-13	 	1259.505	25.9206	 
145.0	1.0	0.0	2.6888	10.2952	-7.69924	20.81267	147.68275	0.0693695	14.41556	76.57506	70.67117	29.01868	0.31941	 	4.39678E12	 	4.64177E-13	 	1130.211	25.8588	 
140.0	1.0	0.0	2.68967	10.29185	-7.72927	20.76731	147.77712	0.0684962	14.59934	76.77055	70.77456	29.09709	0.31921	 	7.01012E12	 	2.87653E-13	 	1001.229	25.7964	 
135.0	1.0	0.0	2.69054	10.28851	-7.75918	20.72198	147.86549	0.0676268	14.78703	76.96483	70.87725	29.17504	0.31902	 	1.13052E13	 	1.76209E-13	 	872.562	25.7334	 
130.0	1.0	0.0	2.69141	10.28519	-7.78896	20.67667	147.94761	0.0667613	14.97874	77.15791	70.97924	29.25251	0.31883	 	1.84494E13	 	1.06653E-13	 	744.215	25.6694	 
125.0	1.0	0.0	2.69228	10.28188	-7.81862	20.6314	148.02326	0.0658996	15.1746	77.34978	71.08054	29.32952	0.31863	 	3.04808E13	 	6.3754E-14	 	616.191	25.6048	 
120.0	1.0	0.0	2.69314	10.27859	-7.84815	20.58614	148.09217	0.0650418	15.37474	77.54044	71.18116	29.40606	0.31844	 	5.10055E13	 	3.76208E-14	 	488.494	25.5394	 
115.0	1.0	0.0	2.694	10.27531	-7.87756	20.54092	148.1541	0.0641877	15.5793	77.72991	71.2811	29.48212	0.31825	 	8.64904E13	 	2.19037E-14	 	361.128	25.4732	 
110.0	1.0	0.0	2.69486	10.27204	-7.90685	20.49572	148.20875	0.0633375	15.78843	77.91818	71.38037	29.55772	0.31807	 	1.48698E14	 	1.25762E-14	 	234.099	25.4058	 
105.0	1.0	0.0	2.69571	10.26879	-7.93601	20.45055	148.25585	0.0624911	16.00227	78.10525	71.47897	29.63285	0.31788	 	2.5933799999999997E14	 	7.11681E-15	 	107.41	25.3378	 
100.0	1.0	0.0	2.69656	10.26555	-7.96504	20.40541	148.29507	0.0616485	16.22098	78.29113	71.57692	29.70751	0.3177	 	4.59092E14	 	3.96708E-15	 	-18.932	25.2684	 
95.0	1.0	0.0	2.69741	10.26232	-7.99395	20.36029	148.3261	0.0608098	16.44473	78.47582	71.67422	29.7817	0.31752	 	8.25412E14	 	2.17691E-15	 	-144.923	25.1982	 
90.0	1.0	0.0	2.69825	10.25911	-8.02273	20.31521	148.34859	0.0599748	16.67367	78.65932	71.77087	29.85543	0.31734	 	1.5082E15	 	1.17521E-15	 	-270.555	25.1264	 
85.0	1.0	0.0	2.69909	10.25592	-8.05139	20.27014	148.36217	0.0591436	16.908	78.84163	71.86688	29.92869	0.31716	 	2.80255E15	 	6.23732E-16	 	-395.823	25.0536	 
80.0	1.0	0.0	2.69993	10.25273	-8.07993	20.22511	148.36646	0.0583162	17.14788	79.02275	71.96226	30.00148	0.31698	 	5.29993E15	 	3.25219E-16	 	-520.721	24.9796	 
75.0	1.0	0.0	2.70077	10.24957	-8.10834	20.1801	148.36105	0.0574927	17.39352	79.20269	72.05702	30.0738	0.31681	 	1.02079E16	 	1.66463E-16	 	-645.24	24.9038	 
70.0	1.0	0.0	2.7016	10.24641	-8.13663	20.13512	148.34551	0.0566729	17.64511	79.38144	72.15115	30.14566	0.31663	 	2.00398E16	 	8.3575E-17	 	-769.373	24.8266	 
65.0	1.0	0.0	2.70243	10.24327	-8.1648	20.09016	148.31936	0.055857	17.90286	79.55902	72.24466	30.21705	0.31646	 	4.01345E16	 	4.11224E-17	 	-893.111	24.7476	 
60.0	1.0	0.0	2.70325	10.24014	-8.19284	20.04524	148.28211	0.0550449	18.16698	79.73542	72.33757	30.28797	0.31629	 	8.20721E16	 	1.98121E-17	 	-1016.447	24.6672	 
55.0	1.0	0.0	2.70407	10.23703	-8.22075	20.00034	148.23324	0.0542367	18.43771	79.91063	72.42987	30.35843	0.31612	 	1.7153E17	 	9.33725E-18	 	-1139.37	24.5846	 
50.0	1.0	0.0	2.70489	10.23393	-8.24855	19.95545	148.17217	0.0534323	18.71528	80.08468	72.52158	30.42842	0.31595	 	3.66768E17	 	4.3003E-18	 	-1261.87	24.5	 
45.0	1.0	0.0	2.70571	10.23084	-8.27622	19.9106	148.09831	0.0526318	18.99993	80.25755	72.61269	30.49794	0.31579	 	8.03189E17	 	1.93331E-18	 	-1383.937	24.4134	 
40.0	1.0	0.0	2.70652	10.22777	-8.30376	19.8658	148.011	0.0518352	19.29192	80.42924	72.70321	30.567	0.31562	 	1.80349E18	 	8.4747E-19	 	-1505.559	24.3244	 
35.0	1.0	0.0	2.70733	10.22471	-8.33118	19.82098	147.90956	0.0510425	19.59151	80.59977	72.79316	30.6356	0.31546	 	4.15731E18	 	3.61774E-19	 	-1626.723	24.2328	 
30.0	1.0	0.0	2.70814	10.22166	-8.35848	19.77623	147.79322	0.0502538	19.89898	80.76913	72.88252	30.70373	0.3153	 	9.85084E18	 	1.502E-19	 	-1747.417	24.1388	 
25.0	1.0	0.0	2.70894	10.21863	-8.38566	 	147.66118	0.0494692	20.21461	80.93733	72.97132	30.7714	0.31514	 	2.40271E19	 	6.05648E-20	 	-1867.626	 	 
