T (C)	Fraction solid (wt)-TOTAL	Fraction liquid (wt)-LIQUID	Density (g/(cm)^3)-TOTAL	Molar volume (cm^3)-TOTAL	Volume change (%)-  	Average expansion coeff. (10e-6 1/K)-  	Thermal conductivity (W/(m*K))-TOTAL	Electrical resistivity (10e-6 Ohm*m)-TOTAL	Electrical conductivity (10e6 1/(Ohm*m))-TOTAL	Young's modulus (GPa)-TOTAL	Bulk modulus (GPa)-TOTAL	Shear modulus(GPa)-TOTAL	Poisson's ratio-TOTAL	Liquid viscosity (mPa s)-  	Total viscosity (mPa s)-  	Liquid diffusivity (10e-9 (m^2)/s)-  	Total diffusivity (10e-9 (m^2)/s)-  	Surface Tension (mN/m)-  	Enthalpy (J/mole)-TOTAL	Specific heat (J/(mole K))-TOTAL	Latent heat (J/mole)-TOTAL
700.0	0.00198	0.99802	2.3514	11.50553	0.0	65.7996	88.06294	0.27074	3.69358	4.24761E-10	49.54867	1.41631E-10	0.49953	1.2263	1.2263	3.87318	3.87318	745.45189	29332.207	 	0.0
695.0	0.00219	0.99781	2.35306	11.49749	-0.0698808	65.89665	87.89386	0.26987	3.70553	6.35471E-10	49.61255	2.11896E-10	0.49949	1.23928	1.23928	3.81295	3.81295	746.70594	29168.806	32.6802	4.179
690.0	0.00238	0.99762	2.35471	11.4894	-0.14024	65.99243	87.72385	0.26899	3.71756	9.01352E-10	49.67612	3.00563E-10	0.49944	1.25254	1.25254	3.7531	3.7531	747.95898	29005.616	32.638	8.146
687.69	0.00247	0.99753	2.35547	11.48576	-0.1719	66.04222	87.64579	0.26859	3.72319	1.0438E-9	49.70592	3.48067E-10	0.49942	1.25877	1.25877	3.72556	3.72556	748.53781	28930.228	32.6078	9.912
685.0	0.00341	0.99659	2.35649	11.48068	-0.21606	66.05841	87.56505	0.26808	3.73019	1.26009E-9	49.74238	4.2026E-10	0.49918	1.26548	1.26548	3.69543	3.69543	749.21926	28828.01	38.027	26.532
680.0	0.00507	0.99493	2.35837	11.47155	-0.29542	66.10502	87.41492	0.26714	3.74333	3.1083E-9	49.81269	1.03695E-9	0.49878	1.27824	1.27824	3.63945	3.63945	750.4849	28639.7	37.662	55.624
675.0	0.0066	0.9934	2.36023	11.46256	-0.37354	66.15954	87.26299	0.2662	3.75653	1.14249E-8	49.88397	3.81237E-9	0.4984	1.29136	1.29136	3.58356	3.58356	751.74846	28453.641	37.2118	82.464
670.0	0.00801	0.99199	2.36206	11.45367	-0.45075	66.22022	87.10925	0.26527	3.76979	3.27712E-8	49.9556	1.09379E-8	0.49806	1.30486	1.30486	3.5278	3.5278	753.0099	28269.663	36.7956	107.227
665.0	0.00931	0.99069	2.36388	11.44488	-0.52719	66.28639	86.95372	0.26433	3.78312	7.3207E-8	50.02739	2.44392E-8	0.49774	1.31873	1.31873	3.4722	3.4722	754.26918	28087.61	36.4106	130.066
660.0	0.0105	0.9895	2.36567	11.43618	-0.60276	66.35875	86.79654	0.2634	3.79651	1.37279E-7	50.0992	4.58378E-8	0.49744	1.33298	1.33298	3.41677	3.41677	755.52615	27907.329	36.0562	151.125
655.0	0.0116	0.9884	2.36745	11.42756	-0.67775	66.43578	86.63774	0.26247	3.80998	2.27754E-7	50.17094	7.60616E-8	0.49717	1.34762	1.34762	3.36154	3.36154	756.78086	27728.888	35.6882	170.54
650.0	0.01262	0.98738	2.36921	11.41911	-0.75119	66.52341	86.47825	0.26154	3.82357	3.45594E-7	50.24305	1.15435E-7	0.49692	1.36265	1.36265	3.30655	3.30655	758.03301	27552.3	35.3176	188.429
645.0	0.01355	0.98645	2.37095	11.41071	-0.82417	66.61523	86.31727	0.2606	3.83723	4.90317E-7	50.31496	1.63801E-7	0.49669	1.37809	1.37809	3.2518	3.2518	759.00982	27377.465	34.967	204.907
641.83	0.0141	0.9859	2.37205	11.40545	-0.86991	66.67727	86.21489	0.26001	3.84595	5.95028E-7	50.3606	1.98799E-7	0.49655	1.38808	1.38808	3.21724	3.21724	759.81036	27267.572	 	214.65
635.0	0.21099	0.78901	2.40404	11.25366	-2.18919	59.25428	96.12372	0.23147	4.32023	0.0506172	50.70443	0.0171736	0.4737	1.41299	9.69985	3.13694	0.45696	755.79089	24994.01	238.346	2272.718
630.0	0.35545	0.64455	2.42802	11.1425	-3.15527	53.71202	104.71934	0.2113	4.73261	0.47947	51.17044	0.16461	0.45636	1.43471	73.08093	3.07243	0.0603174	751.76852	23332.518	332.298	3776.928
625.0	0.47057	0.52943	2.4477	11.05294	-3.93373	49.2586	112.93756	0.19484	5.13243	1.59448	51.6019	0.55281	0.44215	1.45877	244.44425	3.00503	0.0179331	747.84814	21981.253	270.253	4971.268
620.0	0.55603	0.44397	2.46281	10.98509	-4.52346	45.92847	119.91101	0.18249	5.47985	3.26673	51.9822	1.14116	0.43132	1.48437	525.90639	2.93677	0.00828901	744.42068	20940.615	208.128	5855.34
618.55	0.57597	0.42403	2.46643	10.96898	-4.66341	45.14968	121.72993	0.17947	5.57199	3.80318	52.08288	1.33095	0.42875	1.49195	623.44376	2.91712	0.00698088	743.52719	20688.962	 	6061.785
615.0	0.62873	0.37127	2.476	10.92658	-5.03193	43.06225	126.70882	0.17173	5.8231	5.535	52.32659	1.94656	0.42174	1.50579	949.62629	2.87879	0.00456478	741.13109	20022.681	183.587	6617.063
610.0	0.68749	0.31251	2.48698	10.87836	-5.45109	40.72365	132.73912	0.16301	6.13477	8.14643	52.64272	2.88112	0.41376	1.52585	1502.07474	2.82494	0.00286965	738.15618	19249.883	154.56	7234.004
605.0	0.73211	0.26789	2.49567	10.84047	-5.7804	38.92999	137.66846	0.15628	6.39882	10.72833	52.9323	3.811	0.40755	1.54672	2141.43652	2.77104	0.00200148	735.6157	18626.581	124.66	7701.804
600.0	0.76675	0.23325	2.50272	10.80993	-6.04584	37.52466	141.70089	0.15097	6.62396	13.16732	53.20233	4.6939	0.4026	1.56846	2860.82657	2.71708	0.00148965	733.44294	18108.647	103.587	8064.588
595.0	0.79421	0.20579	2.50858	10.78469	-6.26524	36.39987	145.01944	0.14667	6.81813	15.41891	53.45752	5.51236	0.39858	1.5911	3661.77808	2.66308	0.00115715	731.57867	17666.407	88.448	8352.028
590.0	0.81639	0.18361	2.51357	10.76329	-6.45124	35.47841	147.77604	0.1431	6.98798	17.47681	53.70114	6.26305	0.39523	1.61469	4552.25757	2.60907	9.25435E-4	729.97475	17279.813	77.3188	8584.175
585.0	0.8346	0.1654	2.51789	10.74481	-6.61184	34.71181	150.08439	0.14009	7.13849	19.34835	53.93541	6.94781	0.39241	1.63924	5543.49393	2.55509	7.55555E-4	728.59185	16935.078	68.947	8774.809
580.0	0.84977	0.15023	2.52171	10.72854	-6.75323	34.06223	152.03777	0.13748	7.27378	21.05188	54.16217	7.57274	0.38998	1.6648	6651.29935	2.50121	6.26045E-4	727.39841	16622.48	62.5196	8933.652
576.28	0.85947	0.14053	2.52428	10.71763	-6.84801	33.64281	153.29942	0.13575	7.36629	22.21733	54.32684	8.00115	0.38838	1.68448	7561.26029	2.4612	5.483E-4	726.61646	16406.546	 	9035.307
575.0	0.86606	0.13394	2.52561	10.71198	-6.89714	33.38348	154.14337	0.13481	7.41799	23.02601	54.41307	8.29868	0.38733	1.68962	8023.66593	2.45002	5.15925E-4	725.94398	16287.833	66.9294	9114.888
570.0	0.88629	0.11371	2.52996	10.69354	-7.05742	32.57885	156.74004	0.13179	7.58768	25.68748	54.71452	9.28006	0.38402	1.71105	9856.41991	2.40507	4.17515E-4	723.72645	15893.441	78.8784	9356.21
565.0	0.9004	0.099598	2.5334	10.67903	-7.18354	31.99825	158.56568	0.1295	7.72185	27.73514	54.97691	10.03741	0.38159	1.7342	11772.94518	2.3589	3.47475E-4	721.99164	15574.513	63.7856	9522.407
560.0	0.91094	0.089064	2.53629	10.66685	-7.28939	31.54994	159.93107	0.12763	7.83508	29.39257	55.21646	10.65195	0.37968	1.7588	13847.21319	2.31203	2.93662E-4	720.58985	15299.326	55.0374	9645.201
555.0	0.91918	0.080825	2.53883	10.65619	-7.3821	31.1868	160.99612	0.12603	7.93488	30.78394	55.44113	11.16894	0.3781	1.78473	16137.97074	2.26477	2.50465E-4	719.4351	15052.078	49.4496	9740.39
550.0	0.92584	0.074158	2.54113	10.64656	-7.46577	30.88179	161.85275	0.1246	8.02555	31.98486	55.65537	11.616	0.37676	1.8119	18700.12422	2.21734	2.14843E-4	718.47311	14823.94	45.6276	9816.801
545.0	0.93138	0.068625	2.54325	10.63769	-7.54284	30.61888	162.55706	0.12331	8.10974	33.04352	55.86186	12.01078	0.37558	1.84026	21589.84762	2.1699	1.84957E-4	717.66714	14609.558	42.8764	9879.785
540.0	0.93606	0.063939	2.54523	10.6294	-7.61487	30.38781	163.14595	0.12211	8.18916	33.99281	56.06227	12.36533	0.37452	1.86979	24868.6009	2.12258	1.5959E-4	716.99083	14405.48	40.8156	9932.791
535.0	0.94009	0.059906	2.54711	10.62155	-7.68309	30.1804	163.64439	0.12099	8.265	34.85581	56.25773	12.68815	0.37356	1.90048	28605.17859	2.07547	1.3789E-4	716.42529	14209.37	39.222	9978.151
530.0	0.94361	0.056388	2.5489	10.61408	-7.74807	29.99313	164.07068	0.11993	8.33812	35.64911	56.44909	12.9853	0.37267	1.93233	32878.76568	2.02863	1.19225E-4	715.95492	14019.587	37.9566	10017.505
525.0	0.94672	0.053285	2.55063	10.60689	-7.81052	29.82126	164.43778	0.11892	8.40913	36.38529	56.63689	13.26143	0.37185	1.96535	37780.76791	1.98212	1.0311E-4	715.56851	13834.938	36.9298	10052.041
520.0	0.94948	0.050521	2.5523	10.59995	-7.87087	29.66194	164.75548	0.11795	8.47849	37.07424	56.82156	13.52017	0.37107	1.99957	43418.20508	1.936	8.916E-5	715.25671	13654.536	36.0804	10082.643
515.0	0.95196	0.048039	2.55392	10.59321	-7.92942	29.51327	165.03139	0.11701	8.54656	37.7231	57.00342	13.76416	0.37034	2.03501	49916.19259	1.8903	7.70645E-5	715.01169	13477.704	35.3664	10109.986
510.0	0.95421	0.045794	2.55551	10.58665	-7.98643	29.37347	165.27169	0.11609	8.61365	38.33778	57.18276	13.99556	0.36964	2.07169	57422.0954	1.84504	6.6566E-5	714.82712	13303.914	34.758	10134.592
505.0	0.95625	0.04375	2.55705	10.58025	-8.04211	29.24127	165.48053	0.11521	8.67996	38.92351	57.35973	14.21632	0.36897	2.10967	66110.51699	1.80026	5.74486E-5	714.69756	13132.752	34.2324	10156.873
500.0	0.95812	0.041878	2.55857	10.57398	-8.09657	29.11595	165.6621	0.11434	8.74567	39.48364	57.53456	14.42765	0.36833	2.14897	76187.10763	1.75598	4.95301E-5	714.61817	12963.882	33.774	10177.161
495.0	0.95985	0.040155	2.56006	10.56783	-8.15004	28.99599	165.81903	0.1135	8.81094	40.02167	57.70731	14.63087	0.36771	2.18965	87896.51405	1.71221	4.26541E-5	714.58533	12797.032	33.37	10195.723
490.0	0.96144	0.038561	2.56153	10.56178	-8.20262	28.88066	165.95433	0.11266	8.8759	40.5401	57.87815	14.82688	0.36712	2.23176	101529.3846	1.66897	3.66864E-5	714.59544	12631.978	33.0108	10212.779
485.0	0.96292	0.03708	2.56297	10.55583	-8.25433	28.76994	166.06935	0.11185	8.94063	41.04152	58.04712	15.01665	0.36653	2.27535	117433.155	1.62627	3.15102E-5	714.64517	12468.534	32.6888	10228.516
480.0	0.9643	0.035699	2.56439	10.54996	-8.30533	28.66262	166.16654	0.11105	9.00526	41.52776	58.21435	15.20084	0.36597	2.32048	136021.839	1.58413	2.70246E-5	714.73198	12306.543	32.3982	10243.079
475.0	0.96559	0.034406	2.5658	10.54418	-8.3556	28.55916	166.24652	0.11026	9.0698	42.00026	58.37988	15.38	0.36542	2.36722	157790.9764	1.54254	2.31416E-5	714.85301	12145.87	32.1346	10256.603
470.0	0.96681	0.03319	2.56719	10.53846	-8.40527	28.4584	166.31146	0.10948	9.13439	42.46069	58.5438	15.55474	0.36488	2.41564	183336.2114	1.50152	1.9784E-5	715.00618	11986.4	31.894	10269.197
465.0	0.96796	0.032044	2.56857	10.53282	-8.45436	28.36033	166.36185	0.10871	9.19905	42.91	58.70615	15.7254	0.36435	2.46581	213371.7846	1.46107	1.68847E-5	715.18935	11828.036	31.6728	10280.955
460.0	0.96904	0.03096	2.56993	10.52722	-8.50295	28.26438	166.39798	0.10795	9.2638	43.3499	58.86694	15.89264	0.36384	2.51781	248762.0912	1.42121	1.43845E-5	715.40076	11670.69	31.4692	10291.959
455.0	0.97007	0.029931	2.57128	10.52169	-8.55104	28.17059	166.42161	0.1072	9.32874	43.78087	59.02629	16.05661	0.36333	2.57173	290547.5004	1.38192	1.22318E-5	715.63816	11514.287	31.2806	10302.281
450.0	0.97105	0.028951	2.57262	10.51621	-8.59866	28.07872	166.43325	0.10645	9.39389	44.20405	59.18422	16.21775	0.36283	2.62767	339990.7405	1.34321	1.03812E-5	715.89976	11358.76	31.1054	10311.984
445.87	0.97182	0.028176	2.57372	10.51172	-8.6377	28.00403	166.43359	0.10584	9.4479	44.54817	59.31366	16.34887	0.36242	2.67549	387712.757	1.31166	9.05141E-6	716.13331	11230.839	 	10319.567
445.81	0.97251	0.027495	2.57382	10.51133	-8.64114	27.97687	166.47027	0.10581	9.45071	44.73281	59.31533	16.41959	0.36218	2.67745	389493.0651	1.3106	9.00934E-6	716.16053	11223.553	 	10325.246
445.76	1.0	5.7455E-9	2.5772	10.49752	-8.7611	26.90308	168.02259	0.10483	9.53948	52.44324	59.31998	19.38531	0.35265	2.678	436572.247	1.31025	8.03725E-6	716.46102	10988.78	 	10558.622
440.0	1.0	5.7455E-9	2.57856	10.49202	-8.80897	26.84104	167.93362	0.10404	9.61149	52.74556	59.50413	19.50269	0.35226	2.74131	523307.6325	1.26972	6.65136E-6	721.35198	10818.954	53.9806	 
435.0	1.0	5.7455E-9	2.57973	10.48726	-8.85033	26.78725	167.85261	0.10336	9.67468	53.00656	59.66247	19.60408	0.35193	2.79831	613849.8171	1.23514	5.63054E-6	725.53859	10671.991	29.3926	 
430.0	1.0	5.7455E-9	2.58089	10.48251	-8.89155	26.73349	167.76801	0.10268	9.73857	53.26639	59.81953	19.70506	0.35159	2.85733	721693.5593	1.20109	4.75534E-6	729.67485	10525.345	29.3292	 
425.0	1.0	5.7455E-9	2.58206	10.47779	-8.93263	26.67977	167.67977	0.10201	9.80315	53.52507	59.97533	19.80564	0.35126	2.91846	850453.0479	1.16757	4.00668E-6	733.76253	10379.008	29.2674	 
420.0	1.0	5.7455E-9	2.58322	10.47308	-8.97356	26.62607	167.58788	0.10133	9.86846	53.78258	60.12989	19.90581	0.35093	2.98182	1004561.329	1.13457	3.36773E-6	737.80357	10232.971	29.2074	 
415.0	1.0	5.7455E-9	2.58438	10.46839	-9.01434	26.57241	167.49229	0.10066	9.93449	54.03894	60.2832	20.00558	0.3506	3.0475	1189470.272	1.10211	2.82368E-6	741.8001	10087.231	29.148	 
410.0	1.0	5.7455E-9	2.58553	10.46371	-9.05498	26.51877	167.39297	0.0999873	10.00127	54.29414	60.4353	20.10493	0.35027	3.11562	1411902.895	1.07018	2.36155E-6	745.75446	9941.787	29.0888	 
405.0	1.0	5.7455E-9	2.58668	10.45905	-9.09547	26.46517	167.28989	0.0993167	10.0688	54.54819	60.5862	20.20388	0.34994	3.1863	1680172.696	1.03879	1.96997E-6	749.66914	9796.639	29.0296	 
400.0	1.0	5.7455E-9	2.58783	10.45441	-9.13582	26.4116	167.18301	0.0986474	10.13711	54.80107	60.7359	20.30242	0.34962	3.25967	2004588.982	1.00792	1.63898E-6	753.54686	9651.785	28.9708	 
395.0	1.0	5.7455E-9	2.58898	10.44978	-9.17602	26.35806	167.0723	0.0979796	10.20621	55.0528	60.88442	20.40055	0.3493	3.33586	2397972.913	0.97758	1.35993E-6	757.39053	9507.225	28.912	 
390.0	1.0	5.7455E-9	2.59012	10.44518	-9.21608	26.30455	166.95772	0.0973131	10.27611	55.30337	61.03177	20.49827	0.34898	3.41503	2876316.558	0.94777	1.12528E-6	761.20323	9362.958	28.8534	 
385.0	1.0	5.7455E-9	2.59126	10.44058	-9.256	26.25107	166.83922	0.096648	10.34683	55.55279	61.17798	20.59558	0.34866	3.49732	3459627.245	0.91849	9.28501E-7	764.98824	9218.983	28.795	 
380.0	1.0	5.7455E-9	2.5924	10.43601	-9.29577	26.19762	166.71677	0.0959842	10.41838	55.80105	61.32304	20.69248	0.34834	3.58291	4173012.815	0.88974	7.63924E-7	768.74901	9075.3	28.7366	 
375.0	1.0	5.7455E-9	2.59353	10.43145	-9.33539	26.1442	166.59033	0.0953217	10.49079	56.04815	61.46697	20.78897	0.34803	3.67195	5048081.121	0.86152	6.26666E-7	772.48918	8931.908	28.6784	 
370.0	1.0	5.7455E-9	2.59466	10.42691	-9.37487	26.09082	166.45986	0.0946605	10.56407	56.29409	61.60979	20.88504	0.34771	3.76465	6124750.855	0.83382	5.1252E-7	776.21254	8788.805	28.6206	 
365.0	1.0	5.7455E-9	2.59579	10.42238	-9.41421	26.03746	166.3253	0.0940006	10.63823	56.53888	61.75151	20.9807	0.3474	3.86119	7453602.702	0.80666	4.17872E-7	779.92303	8645.992	28.5626	 
360.0	1.0	5.7455E-9	2.59691	10.41787	-9.4534	25.98413	166.18662	0.0933419	10.7133	56.78252	61.89213	21.07595	0.34709	3.96179	9098942.791	0.78001	3.39627E-7	783.62475	8503.468	28.5048	 
355.0	1.0	5.7455E-9	2.59803	10.41338	-9.49245	25.93084	166.04377	0.0926844	10.7893	57.02499	62.03168	21.17078	0.34679	4.06668	1.114280868E7	0.75389	2.75141E-7	787.3219	8361.232	28.4472	 
350.0	1.0	5.7455E-9	2.59915	10.4089	-9.53136	25.87758	165.8967	0.0920282	10.86623	57.26632	62.17016	21.2652	0.34648	4.1761	1.369022712E7	0.7283	2.22161E-7	791.0188	8219.283	28.3898	 
345.0	1.0	5.7455E-9	2.60026	10.40444	-9.57012	25.82434	165.74536	0.0913731	10.94413	57.50648	62.30758	21.3592	0.34618	4.2903	1.687614086E7	0.70322	1.78775E-7	794.71987	8077.621	28.3324	 
340.0	1.0	5.7455E-9	2.60137	10.4	-9.60874	25.77114	165.5897	0.0907193	11.02302	57.74549	62.44396	21.45279	0.34587	4.40956	2.087456947E7	0.67867	1.43363E-7	798.42959	7936.245	28.2752	 
335.0	1.0	5.7455E-9	2.60248	10.39557	-9.64721	25.71797	165.42966	0.0900665	11.1029	57.98335	62.57931	21.54596	0.34557	4.53419	2.591077242E7	0.65463	1.14556E-7	802.15247	7795.156	28.2178	 
330.0	1.0	5.7455E-9	2.60358	10.39116	-9.68554	25.66483	165.2652	0.0894149	11.18382	58.22005	62.71363	21.63871	0.34528	4.66449	3.227746383E7	0.63111	9.12037E-8	805.89306	7654.351	28.161	 
325.0	1.0	5.7455E-9	2.60469	10.38677	-9.72373	25.61172	165.09626	0.0887644	11.26577	58.4556	62.84695	21.73105	0.34498	4.80081	4.03565175E7	0.60811	7.23408E-8	809.65589	7513.831	28.104	 
320.0	1.0	5.7455E-9	2.60578	10.38239	-9.76178	25.55864	164.92277	0.088115	11.3488	58.68999	62.97926	21.82296	0.34468	4.94352	5.064814447E7	0.58562	5.71594E-8	813.44545	7373.595	28.0472	 
315.0	1.0	5.7455E-9	2.60688	10.37803	-9.79968	25.50559	164.74468	0.0874667	11.43292	58.92323	63.11058	21.91446	0.34439	5.093	6.381028537E7	0.56364	4.49867E-8	817.26615	7233.643	27.9904	 
310.0	1.0	5.7455E-9	2.60797	10.37368	-9.83744	25.45257	164.56193	0.0868194	11.51816	59.15531	63.24092	22.00554	0.3441	5.24968	8.071202975E7	0.54217	3.52638E-8	821.12232	7093.974	27.9338	 
305.0	1.0	5.7455E-9	2.60906	10.36936	-9.87506	25.39958	164.37444	0.0861732	11.60453	59.38624	63.3703	22.09619	0.34381	5.41402	1.025063861E8	0.5212	2.75281E-8	825.01813	6954.589	27.877	 
300.0	1.0	5.7455E-9	2.61014	10.36504	-9.91253	25.34663	164.18216	0.085528	11.69207	59.61601	63.49871	22.18643	0.34352	5.58651	1.307298734E8	0.50074	2.13983E-8	828.95759	6815.486	27.8206	 
295.0	1.0	5.7455E-9	2.61123	10.36075	-9.94987	25.2937	163.98501	0.0848838	11.78081	59.84463	63.62617	22.27624	0.34324	5.76768	1.674394713E8	0.48078	1.65612E-8	832.94449	6676.665	27.7642	 
290.0	1.0	5.7455E-9	2.61231	10.35647	-9.98706	25.24081	163.78292	0.0842406	11.87076	60.0721	63.7527	22.36564	0.34296	5.9581	2.154018608E8	0.46132	1.27603E-8	836.98238	6538.127	27.7076	 
285.0	1.0	5.7455E-9	2.61338	10.35221	-10.02411	25.18794	163.57582	0.0835984	11.96195	60.29842	63.87829	22.45461	0.34267	6.15838	2.783562351E8	0.44236	9.78671E-9	841.07454	6399.87	27.6514	 
280.0	1.0	5.7455E-9	2.61445	10.34796	-10.06101	25.13511	163.36363	0.0829571	12.05442	60.52358	64.00297	22.54315	0.34239	6.36921	3.61381154E8	0.42388	7.47075E-9	845.22392	6261.896	27.5948	 
275.0	1.0	5.7455E-9	2.61552	10.34373	-10.09778	25.08231	163.14628	0.0823168	12.14819	60.74759	64.12673	22.63128	0.34212	6.5913	4.714093334E8	0.4059	5.67529E-9	849.43316	6124.202	27.5388	 
270.0	1.0	5.7455E-9	2.61659	10.33952	-10.1344	25.02954	162.92367	0.0816774	12.24329	60.97044	64.24959	22.71897	0.34184	6.82544	6.179539297E8	0.3884	4.28993E-9	853.70449	5986.79	27.4824	 
265.0	1.0	5.7455E-9	2.61765	10.33532	-10.17088	24.9768	162.69572	0.0810389	12.33976	61.19214	64.37156	22.80625	0.34157	7.07248	8.141388927E8	0.37138	3.2262E-9	858.03977	5849.66	27.426	 
260.0	1.0	5.7455E-9	2.61871	10.33114	-10.20722	24.92409	162.46234	0.0804012	12.43762	61.41269	64.49265	22.8931	0.34129	7.33335	1.078169019E9	0.35484	2.41351E-9	862.44043	5712.811	27.3698	 
255.0	1.0	5.7455E-9	2.61977	10.32697	-10.24342	24.87141	162.22344	0.0797645	12.5369	61.63209	64.61286	22.97952	0.34102	7.60906	1.435439601E9	0.33878	1.7958E-9	866.90748	5576.243	27.3136	 
250.0	1.0	5.7455E-9	2.62082	10.32283	-10.27947	24.81876	161.97893	0.0791287	12.63765	61.85033	64.73221	23.06552	0.34075	7.90071	1.921582139E9	0.32318	1.32878E-9	871.44147	5439.957	27.2572	 
245.0	1.0	5.7455E-9	2.62187	10.31869	-10.31539	24.76614	161.72869	0.0784936	12.73988	62.06743	64.8507	23.15108	0.34049	8.2095	2.586888558E9	0.30805	9.77607E-10	876.0425	5303.952	27.201	 
240.0	1.0	5.7455E-9	2.62292	10.31458	-10.35116	24.71355	161.47264	0.0778595	12.84365	62.28337	64.96834	23.23623	0.34022	8.53673	3.502778584E9	0.29339	7.1502E-10	880.71022	5168.229	27.1446	 
235.0	1.0	5.7455E-9	2.62396	10.31048	-10.3868	24.661	161.21065	0.0772261	12.94898	62.49815	65.08514	23.32094	0.33996	8.88383	4.771315404E9	0.27918	5.19805E-10	885.44381	5032.788	27.0882	 
230.0	1.0	5.7455E-9	2.625	10.30639	-10.42229	24.60847	160.94263	0.0765936	13.05592	62.71179	65.20111	23.40522	0.3397	9.25238	6.53930011E9	0.26542	3.75537E-10	890.24202	4897.63	27.0316	 
225.0	1.0	5.7455E-9	2.62603	10.30233	-10.45764	24.55598	160.66844	0.0759619	13.1645	62.92428	65.31626	23.48908	0.33944	9.64407	9.019291893E9	0.25211	2.69572E-10	895.10319	4762.755	26.975	 
220.0	1.0	5.7455E-9	2.62707	10.29828	-10.49285	24.50352	160.38797	0.0753309	13.27476	63.13561	65.43059	23.5725	0.33918	10.06081	1.2521199999999998E10	0.23924	1.9223E-10	900.0252	4628.163	26.9184	 
215.0	1.0	5.7455E-9	2.6281	10.29424	-10.52792	24.45108	160.10109	0.0747008	13.38674	63.34579	65.54411	23.6555	0.33892	10.50465	1.74999E10	0.22681	1.36146E-10	905.00559	4493.854	26.8618	 
210.0	1.0	5.7455E-9	2.62912	10.29022	-10.56285	24.39868	159.80766	0.0740714	13.50049	63.55482	65.65684	23.73806	0.33867	10.97788	2.4628499999999996E10	0.21481	9.57484E-11	910.04152	4359.83	26.8048	 
205.0	1.0	5.7455E-9	2.63015	10.28622	-10.59764	24.34631	159.50756	0.0734428	13.61605	63.7627	65.76877	23.82019	0.33842	11.48301	3.49093E10	0.20323	6.68512E-11	915.12983	4226.091	26.7478	 
200.0	1.0	5.7455E-9	2.63117	10.28223	-10.63229	24.29397	159.20063	0.0728149	13.73346	63.96943	65.87992	23.90189	0.33817	12.0228	4.984799999999999E10	0.19208	4.63274E-11	920.26704	4092.639	26.6904	 
195.0	1.0	5.7455E-9	2.63218	10.27826	-10.6668	24.24166	158.88672	0.0721878	13.85277	64.17501	65.99029	23.98316	0.33792	12.60032	7.17231E10	0.18134	3.18576E-11	925.44944	3959.472	26.6334	 
190.0	1.0	5.7455E-9	2.6332	10.27431	-10.70118	24.18938	158.56568	0.0715614	13.97402	64.37944	66.09989	24.064	0.33767	13.21897	1.04012E11	0.17101	2.17334E-11	930.67308	3826.594	26.5756	 
185.0	1.0	5.7455E-9	2.63421	10.27037	-10.73541	24.13713	158.23734	0.0709357	14.09728	64.58272	66.20874	24.1444	0.33743	13.88252	1.52064E11	0.16107	1.47051E-11	935.93382	3694.005	26.5178	 
180.0	1.0	5.7455E-9	2.63521	10.26645	-10.7695	24.08491	157.90153	0.0703107	14.22258	64.78485	66.31682	24.22437	0.33718	14.59513	2.24189E11	0.15154	9.86541E-12	941.22737	3561.705	26.46	 
175.0	1.0	5.7455E-9	2.63622	10.26254	-10.80345	24.03273	157.55807	0.0696865	14.34998	64.98582	66.42416	24.3039	0.33694	15.36147	3.33397E11	0.14239	6.56068E-12	946.5493	3429.697	26.4016	 
170.0	1.0	5.7455E-9	2.63722	10.25865	-10.83726	23.98057	157.20677	0.069063	14.47953	65.18565	66.53077	24.383	0.3367	16.18674	5.00263E11	0.13362	4.32354E-12	951.89513	3297.982	26.343	 
165.0	1.0	5.7455E-9	2.63821	10.25478	-10.87094	23.92845	156.84744	0.0684402	14.61129	65.38433	66.63663	24.46166	0.33647	17.07672	7.57631E11	0.12523	2.82262E-12	957.2603	3166.56	26.2844	 
160.0	1.0	5.7455E-9	2.6392	10.25092	-10.90447	23.87635	156.47987	0.0678181	14.74532	65.58186	66.74177	24.53989	0.33623	18.03791	1.15845E12	0.1172	1.82493E-12	962.64022	3035.435	26.225	 
155.0	1.0	5.7455E-9	2.64019	10.24707	-10.93787	23.82429	156.10384	0.0671968	14.88167	65.77824	66.8462	24.61768	0.336	19.07759	1.78898E12	0.10954	1.16809E-12	968.0303	2904.607	26.1656	 
150.0	1.0	5.7455E-9	2.64118	10.24325	-10.97112	23.77225	155.71913	0.0665761	15.0204	65.97347	66.94991	24.69503	0.33576	20.20393	2.79122E12	0.10222	7.39923E-13	973.426	2774.079	26.1056	 
145.0	1.0	5.7455E-9	2.64216	10.23944	-11.00424	23.72025	155.3255	0.0659562	15.16158	66.16755	67.05291	24.77195	0.33553	21.42614	4.40152E12	0.0952522	4.63677E-13	978.82277	2643.853	26.0452	 
140.0	1.0	5.7455E-9	2.64314	10.23564	-11.03722	23.66828	154.92269	0.0653369	15.30528	66.36048	67.15522	24.84842	0.33531	22.75461	7.01777E12	0.0886186	2.87339E-13	984.21617	2513.931	25.9844	 
135.0	1.0	5.7455E-9	2.64412	10.23187	-11.07006	23.61634	154.51046	0.0647184	15.45155	66.55227	67.25683	24.92446	0.33508	24.2011	1.13177E13	0.0823136	1.76014E-13	989.60181	2384.316	25.923	 
130.0	1.0	5.7455E-9	2.64509	10.2281	-11.10276	23.56443	154.08853	0.0641007	15.60047	66.7429	67.35776	25.00006	0.33485	25.77892	1.847E13	0.0763288	1.06533E-13	994.97536	2255.009	25.8614	 
125.0	1.0	5.7455E-9	2.64606	10.22436	-11.13533	23.51255	153.65659	0.0634836	15.7521	66.93239	67.45801	25.07522	0.33463	27.5032	3.05154E13	0.0706562	6.36817E-14	1000.33264	2126.015	25.7988	 
120.0	1.0	5.7455E-9	2.64703	10.22063	-11.16775	23.4607	153.21437	0.0628673	15.90652	67.12073	67.55758	25.14995	0.33441	29.39117	5.10641E13	0.0652872	3.75776E-14	1005.66951	1997.335	25.736	 
115.0	1.0	5.7455E-9	2.64799	10.21691	-11.20004	23.40889	152.76152	0.0622518	16.0638	67.30792	67.65649	25.22423	0.33419	31.46251	8.65911E13	0.0602134	2.18783E-14	1010.98196	1868.974	25.6722	 
110.0	1.0	5.7455E-9	2.64895	10.21321	-11.23219	23.3571	152.29772	0.061637	16.22402	67.49397	67.75473	25.29807	0.33397	33.73975	1.48873E14	0.055426	1.25614E-14	1016.2661	1740.935	25.6078	 
105.0	1.0	5.7455E-9	2.6499	10.20953	-11.2642	23.30534	151.82261	0.061023	16.38726	67.67886	67.85233	25.37147	0.33376	36.24874	2.5964799999999997E14	0.0509164	7.10831E-15	1021.51813	1613.221	25.5428	 
100.0	1.0	5.7455E-9	2.65086	10.20586	-11.29608	23.25362	151.33582	0.0604099	16.55359	67.86261	67.94927	25.44442	0.33355	39.01923	4.59648E14	0.0466758	3.96228E-15	1026.73434	1485.837	25.4768	 
95.0	1.0	5.7455E-9	2.6518	10.20221	-11.32781	23.20193	150.83695	0.0597975	16.7231	68.04522	68.04557	25.51694	0.33333	42.08559	8.26426E14	0.0426951	2.17424E-15	1031.91115	1358.787	25.41	 
90.0	1.0	5.7455E-9	2.65275	10.19857	-11.35941	23.15026	150.32558	0.059186	16.89588	68.22668	68.14123	25.58901	0.33312	45.48757	1.51007E15	0.0389655	1.17375E-15	1037.04507	1232.076	25.3422	 
85.0	1.0	5.7455E-9	2.65369	10.19495	-11.39088	23.09863	149.80128	0.0585754	17.072	68.40699	68.23626	25.66065	0.33292	49.27138	2.80609E15	0.0354778	6.22945E-16	1042.13271	1105.709	25.2734	 
80.0	1.0	5.7455E-9	2.65463	10.19135	-11.4222	23.04703	149.26358	0.0579657	17.25157	68.58615	68.33067	25.73183	0.33271	53.49083	5.30672E15	0.032223	3.24803E-16	1047.17077	979.69	25.2038	 
75.0	1.0	5.7455E-9	2.65557	10.18776	-11.45339	22.99545	148.71198	0.057357	17.43466	68.76417	68.42445	25.80258	0.33251	58.20884	1.02211E16	0.029192	1.66247E-16	1052.15604	854.026	25.1328	 
70.0	1.0	5.7455E-9	2.6565	10.18419	-11.48444	22.94392	148.14596	0.0567493	17.62137	68.94105	68.51763	25.87288	0.3323	63.49921	2.00663E16	0.0263756	8.34649E-17	1057.08543	728.723	25.0606	 
65.0	1.0	5.7455E-9	2.65743	10.18063	-11.51536	22.89241	147.56497	0.0561426	17.8118	69.11678	68.61019	25.94273	0.3321	69.44883	4.01883E16	0.0237646	4.10674E-17	1061.95588	603.787	24.9872	 
60.0	1.0	5.7455E-9	2.65835	10.17709	-11.54613	22.84093	146.96842	0.0555369	18.00604	69.29136	68.70215	26.01215	0.3319	76.16038	8.21836E16	0.02135	1.97852E-17	1066.76447	479.226	24.9122	 
55.0	1.0	5.7455E-9	2.65927	10.17356	-11.57678	22.78948	146.35569	0.0549324	18.20418	69.4648	68.79351	26.08111	0.33171	83.75566	1.71767E17	0.0191225	9.32438E-18	1071.50833	355.047	24.8358	 
50.0	1.0	5.7455E-9	2.66019	10.17005	-11.60728	22.73806	145.72611	0.0543291	18.40633	69.6371	68.88429	26.14963	0.33151	92.37976	3.67283E17	0.0170732	4.29428E-18	1076.1847	231.258	24.7578	 
45.0	1.0	5.7455E-9	2.6611	10.16656	-11.63765	22.68667	145.07897	0.0537271	18.61258	69.80825	68.97447	26.21771	0.33132	102.20621	8.04334E17	0.0151929	1.93056E-18	1080.79088	107.868	24.678	 
40.0	1.0	5.7455E-9	2.66201	10.16308	-11.66788	22.63531	144.41353	0.0531264	18.82302	69.97826	69.06408	26.28534	0.33113	113.44351	1.80611E18	0.0134728	8.46245E-19	1085.3243	-15.114	24.5964	 
35.0	1.0	5.7455E-9	2.66292	10.15962	-11.69798	22.58398	143.72898	0.0525272	19.03777	70.14713	69.1531	26.35252	0.33094	126.34329	4.16342E18	0.0119041	3.61242E-19	1089.78246	-137.678	24.5128	 
30.0	1.0	5.7455E-9	2.66382	10.15617	-11.72794	22.5327	143.02447	0.0519294	19.25691	70.31485	69.24156	26.41926	0.33075	141.21069	9.86558E18	0.010478	1.49976E-19	1094.16297	-259.813	24.427	 
25.0	1.0	5.7455E-9	2.66473	10.15274	-11.75777	 	142.29908	0.0513333	19.48055	70.48144	69.32946	26.48555	0.33056	158.41761	2.40636E19	0.00918582	6.04728E-20	1098.46356	-381.508	 	 
