T (C)	Fraction solid (wt)-TOTAL	Fraction liquid (wt)-LIQUID	Density (g/(cm)^3)-TOTAL	Molar volume (cm^3)-TOTAL	Volume change (%)-  	Average expansion coeff. (10e-6 1/K)-  	Thermal conductivity (W/(m*K))-TOTAL	Electrical resistivity (10e-6 Ohm*m)-TOTAL	Electrical conductivity (10e6 1/(Ohm*m))-TOTAL	Young's modulus (GPa)-TOTAL	Bulk modulus (GPa)-TOTAL	Shear modulus(GPa)-TOTAL	Poisson's ratio-TOTAL	Liquid viscosity (mPa s)-  	Total viscosity (mPa s)-  	Liquid diffusivity (10e-9 (m^2)/s)-  	Total diffusivity (10e-9 (m^2)/s)-  	Surface Tension (mN/m)-  	Enthalpy (J/mole)-TOTAL	Specific heat (J/(mole K))-TOTAL	Latent heat (J/mole)-TOTAL
700.0	0.0057	0.9943	2.32428	11.63028	0.0	65.19443	86.29041	0.2763	3.61923	2.79352E-8	48.69717	9.31996E-9	0.49868	1.22974	1.22974	3.86237	3.86237	731.39769	28739.733	 	0.0
695.0	0.00586	0.99414	2.32592	11.62205	-0.0707499	65.2825	86.1136	0.27545	3.63047	3.13654E-8	48.76214	1.04646E-8	0.49864	1.24284	1.24284	3.802	3.802	732.73617	28576.682	32.6102	3.343
690.0	0.00601	0.99399	2.32756	11.61388	-0.14104	65.37449	85.93674	0.27459	3.64182	3.49173E-8	48.82726	1.16499E-8	0.4986	1.25624	1.25624	3.74204	3.74204	734.07372	28413.811	32.5742	6.506
685.0	0.00615	0.99385	2.3292	11.60574	-0.21104	65.46955	85.75981	0.27373	3.65329	3.85756E-8	48.89247	1.28708E-8	0.49857	1.26992	1.26992	3.6825	3.6825	735.41025	28251.11	32.5402	9.5
680.0	0.00628	0.99372	2.33083	11.59763	-0.28073	65.56785	85.58281	0.27286	3.66488	4.23201E-8	48.9578	1.41204E-8	0.49854	1.28392	1.28392	3.62336	3.62336	736.74568	28088.573	32.5074	12.335
675.0	0.0064	0.9936	2.33245	11.58946	-0.35096	65.66454	85.40491	0.27199	3.67654	4.61343E-8	49.02274	1.53934E-8	0.49851	1.29822	1.29822	3.56464	3.56464	738.08015	27926.192	32.4762	15.016
670.0	0.00652	0.99348	2.33408	11.58144	-0.41993	65.77002	85.2278	0.27112	3.68837	4.99962E-8	49.08827	1.66823E-8	0.49848	1.31284	1.31284	3.50635	3.50635	739.41315	27763.959	32.4466	17.551
665.0	0.00663	0.99337	2.3357	11.57348	-0.48837	65.88034	85.0507	0.27025	3.70032	5.38888E-8	49.15393	1.79814E-8	0.49846	1.3278	1.3278	3.44848	3.44848	740.74478	27601.868	32.4182	19.946
660.0	0.00673	0.99327	2.33731	11.56543	-0.55765	65.98739	84.87264	0.26937	3.71236	5.77985E-8	49.21912	1.92863E-8	0.49843	1.34309	1.34309	3.39104	3.39104	742.07528	27439.903	32.393	22.209
655.0	0.00683	0.99317	2.33892	11.55742	-0.62653	66.09858	84.69455	0.26849	3.72453	6.17114E-8	49.28441	2.05923E-8	0.49841	1.35874	1.35874	3.33403	3.33403	743.40434	27278.254	32.3298	24.345
650.0	0.00692	0.99308	2.34053	11.54956	-0.69406	66.21964	84.51728	0.2676	3.73686	6.56117E-8	49.3503	2.18941E-8	0.49839	1.37474	1.37474	3.27746	3.27746	744.73161	27117.044	32.242	26.357
645.0	0.00701	0.99299	2.34213	11.54164	-0.7622	66.33894	84.33913	0.26672	3.74929	6.94877E-8	49.41573	2.31878E-8	0.49837	1.39112	1.39112	3.22133	3.22133	745.81448	26956.294	32.15	28.252
642.98	0.00704	0.99296	2.34278	11.53839	-0.79012	66.38574	84.26665	0.26636	3.75435	7.10462E-8	49.44203	2.3708E-8	0.49836	1.39786	1.39786	3.19874	3.19874	746.35656	26891.365	32.0824	28.987
640.0	0.00948	0.99052	2.34418	11.53154	-0.84899	66.34577	84.1653	0.26581	3.76205	7.5731E-8	49.49053	2.52811E-8	0.49778	1.40653	1.40653	3.1687	3.1687	747.16826	26760.174	44.0803	65.887
635.0	0.01332	0.98668	2.34647	11.5203	-0.94563	66.29182	83.99437	0.26489	3.77508	1.37522E-7	49.57373	4.59367E-8	0.49687	1.42148	1.42148	3.11821	3.11821	748.53082	26543.903	43.2542	124.042
630.0	0.01686	0.98314	2.3487	11.50932	-1.04003	66.2509	83.82252	0.26398	3.78822	4.31383E-7	49.65785	1.44177E-7	0.49602	1.43692	1.43692	3.06771	3.06771	749.89193	26332.517	42.2772	177.68
625.0	0.02011	0.97989	2.35089	11.49869	-1.1315	66.22776	83.65049	0.26305	3.80149	1.18732E-6	49.74279	3.97029E-7	0.49525	1.45287	1.45287	3.01723	3.01723	751.25113	26125.685	41.3664	227.133
623.81	0.02085	0.97915	2.3514	11.49615	-1.15329	66.22234	83.60909	0.26284	3.80466	1.46017E-6	49.76292	4.88327E-7	0.49507	1.45675	1.45675	3.00519	3.00519	751.57515	26076.989	 	238.341
623.81	0.02085	0.97915	2.3514	11.49615	-1.15331	66.22222	83.60919	0.26284	3.80466	1.46022E-6	49.76287	4.88343E-7	0.49507	1.45675	1.49243	3.00519	2.93336	751.5751	26076.963	 	238.365
620.0	0.09307	0.90693	2.36326	11.43845	-1.64939	63.49988	86.61761	0.25263	3.95836	7.81893E-4	49.73966	2.63033E-4	0.4863	1.46979	2.01076	2.96589	2.16796	750.3563	25202.716	184.594	993.089
615.0	0.21899	0.78101	2.38365	11.34059	-2.49082	58.6566	92.35896	0.2356	4.2445	0.0485691	50.10341	0.0165102	0.47088	1.48905	15.05046	2.91114	0.28802	747.26259	23743.578	291.828	2295.576
610.0	0.32974	0.67026	2.40197	11.2541	-3.23451	54.36093	97.94502	0.22091	4.5267	0.30652	50.48785	0.10519	0.45703	1.50966	78.37046	2.85523	0.0550008	744.03581	22447.239	259.268	3435.633
605.0	0.4177	0.5823	2.41694	11.18444	-3.83348	50.93275	102.91607	0.20905	4.78353	0.87776	50.84381	0.30356	0.44577	1.53119	221.93142	2.79916	0.0193124	741.14892	21388.941	211.66	4338.013
600.0	0.48742	0.51258	2.42918	11.12807	-4.31818	48.19483	107.2924	0.19938	5.0155	1.74421	51.17058	0.60704	0.43666	1.55351	457.05038	2.74322	0.0093242	738.63496	20520.239	173.74	5051.157
595.0	0.54358	0.45642	2.43935	11.08167	-4.71707	45.97699	110.77834	0.192	5.20828	2.83743	51.47431	0.99269	0.42917	1.57661	787.21631	2.68756	0.00538254	736.44673	19792.189	145.61	5624.009
590.0	0.58963	0.41037	2.44795	11.04275	-5.05176	44.14858	114.13555	0.18528	5.3972	4.08512	51.75974	1.43549	0.4229	1.60047	1215.20495	2.63224	0.00346676	734.53283	19168.887	124.66	6092.472
585.0	0.62798	0.37202	2.45536	11.00946	-5.338	42.614	117.09977	0.17954	5.56964	5.42682	52.0306	1.91412	0.41758	1.62511	1745.66134	2.57732	0.00239933	732.85198	18625.173	108.743	6481.701
581.45	0.6514	0.3486	2.46002	10.98854	-5.51782	41.66662	118.98474	0.17597	5.68281	6.40546	52.21517	2.26458	0.41427	1.64308	2186.79561	2.53858	0.0019074	731.78279	18278.323	 	6719.044
581.45	0.65141	0.34859	2.46002	10.98859	-5.51746	41.66911	118.98568	0.17597	5.68286	6.40578	52.21534	2.26469	0.41427	1.64308	2186.96424	2.53857	0.00190725	731.78229	18278.255	 	6719.09
580.0	0.66064	0.33936	2.46187	10.98031	-5.58859	41.29422	119.74942	0.17455	5.72904	6.82732	52.29126	2.41596	0.41296	1.65016	2389.48295	2.52341	0.00174264	731.35265	18139.681	97.0984	6813.063
575.0	0.68957	0.31043	2.46776	10.95405	-5.81445	40.12006	122.18939	0.17006	5.88024	8.29599	52.54717	2.9443	0.40882	1.67522	3172.91326	2.47108	0.00130467	729.98909	17692.747	89.3868	7106.218
571.06	0.70927	0.29073	2.47192	10.93569	-5.97228	39.31894	123.89603	0.16694	5.9902	9.43704	52.7419	3.35609	0.40596	1.69566	3883.06884	2.42996	0.00106111	729.03371	17372.556	 	7305.454
570.0	0.71802	0.28198	2.47347	10.9288	-6.0315	38.98537	124.6701	0.16569	6.0352	9.9851	52.82842	3.55429	0.40466	1.70004	4179.48363	2.42065	9.84621E-4	728.51353	17238.132	90.923	7407.404
565.0	0.75263	0.24737	2.47986	10.90068	-6.27329	37.65672	127.7744	0.16071	6.22237	12.41669	53.19516	4.43631	0.39944	1.72176	5666.30952	2.37594	7.21952E-4	726.36029	16687.479	110.131	7804.974
560.0	0.77864	0.22136	2.485	10.87812	-6.46725	36.64066	130.15231	0.15683	6.37621	14.55445	53.51044	5.21508	0.39542	1.74495	7295.39096	2.33038	5.57393E-4	724.60595	16241.008	89.2942	8098.708
555.0	0.79908	0.20092	2.48932	10.85921	-6.62989	35.82836	132.03386	0.15367	6.50744	16.45021	53.79292	5.90808	0.39218	1.76946	9104.54548	2.28431	4.43953E-4	723.1464	15861.347	75.9322	8325.971
550.0	0.81567	0.18433	2.49308	10.84284	-6.77064	35.15797	133.55844	0.151	6.62257	18.14864	54.05294	6.53075	0.38948	1.79518	11135.28094	2.23798	3.60798E-4	721.91552	15527.435	66.7824	8507.824
545.0	0.82949	0.17051	2.49643	10.82827	-6.89589	34.58714	134.81627	0.14868	6.72579	19.68587	54.29667	7.09574	0.38716	1.82208	13433.50591	2.19156	2.97256E-4	720.86922	15226.413	60.2044	8657.123
540.0	0.84122	0.15878	2.49947	10.81513	-7.00885	34.0953	135.86618	0.14663	6.81985	21.08791	54.52811	7.61219	0.38514	1.85011	16049.50546	2.14516	2.47284E-4	719.97514	14949.949	55.2928	8782.196
535.0	0.85134	0.14866	2.50226	10.80308	-7.11252	33.66251	136.75237	0.14478	6.9068	22.37788	54.75	8.08831	0.38335	1.87926	19042.76369	2.0989	2.07133E-4	719.21007	14692.384	51.513	8888.699
530.0	0.86019	0.13981	2.50485	10.79188	-7.20878	33.27655	137.50631	0.1431	6.98811	23.57346	54.96427	8.53041	0.38173	1.90953	22481.32895	2.05285	1.74366E-4	718.55595	14449.728	48.5312	8980.62
525.0	0.868	0.132	2.50729	10.7814	-7.29892	32.92909	138.15001	0.14155	7.06481	24.68788	55.1721	8.9432	0.38026	1.94092	26443.39644	2.00707	1.47317E-4	717.99868	14219.078	46.13	9060.858
520.0	0.87497	0.12503	2.50959	10.77148	-7.38415	32.61195	138.7031	0.1401	7.13781	25.7341	55.37467	9.33134	0.37891	1.97346	31023.20366	1.96161	1.24783E-4	717.52699	13998.268	44.162	9131.574
515.0	0.88124	0.11876	2.51179	10.76208	-7.46498	32.32227	139.17775	0.13874	7.20767	26.71976	55.57263	9.69756	0.37765	2.00717	36328.10205	1.91651	1.05889E-4	717.13135	13785.646	42.5244	9194.417
510.0	0.88692	0.11308	2.51389	10.75308	-7.54236	32.05344	139.58452	0.13746	7.27489	27.65267	55.76646	10.04468	0.37648	2.04206	42486.07092	1.87181	8.99674E-5	716.80471	13579.927	41.1438	9250.671
505.0	0.8921	0.1079	2.51591	10.74445	-7.61662	31.80356	139.93369	0.13624	7.33995	28.5404	55.9568	10.37543	0.37538	2.07818	49651.35327	1.82754	7.64925E-5	716.54	13380.094	39.9666	9301.345
500.0	0.89685	0.10315	2.51786	10.73614	-7.68807	31.57079	140.2307	0.13508	7.40309	29.38683	56.14388	10.6912	0.37435	2.11556	58002.24894	1.78372	6.50587E-5	716.33178	13185.333	38.9522	9347.253
495.0	0.90123	0.098774	2.51975	10.72809	-7.75725	31.35117	140.48315	0.13396	7.4647	30.19815	56.32813	10.99425	0.37336	2.15423	67756.63119	1.74036	5.53326E-5	716.17537	12994.981	38.0704	9389.051
490.0	0.90528	0.094721	2.52159	10.72026	-7.82457	31.142	140.69572	0.13289	7.52497	30.97852	56.50973	11.28609	0.37242	2.19426	79171.73368	1.6975	4.70464E-5	716.0668	12808.494	37.2974	9427.281
485.0	0.90905	0.090951	2.52338	10.71267	-7.88986	30.94492	140.87154	0.13186	7.58406	31.73026	56.68888	11.56755	0.37152	2.23568	92553.09267	1.65513	3.99807E-5	716.00169	12625.419	36.615	9462.391
480.0	0.91257	0.08743	2.52512	10.70525	-7.95365	30.75596	141.01371	0.13085	7.64212	32.45725	56.86568	11.84005	0.37066	2.27856	108269.3868	1.61327	3.39518E-5	715.97745	12445.377	36.0084	9494.756
475.0	0.91587	0.084128	2.52683	10.69801	-8.01591	30.57563	141.12632	0.12988	7.69934	33.16155	57.04039	12.10432	0.36982	2.32294	126763.238	1.57194	2.88059E-5	715.99037	12268.046	35.4662	9524.693
470.0	0.91898	0.08102	2.52851	10.69092	-8.07687	30.40229	141.21138	0.12894	7.75581	33.84599	57.21311	12.36141	0.36902	2.3689	148567.7068	1.53114	2.4414E-5	716.03795	12093.151	34.979	9552.474
465.0	0.92192	0.078085	2.53015	10.68398	-8.13654	30.23607	141.27053	0.12801	7.81162	34.51255	57.38394	12.61204	0.36824	2.41651	174324.9391	1.49088	2.06667E-5	716.11739	11920.456	34.539	9578.329
460.0	0.9247	0.075303	2.53176	10.67717	-8.19513	30.07535	141.30578	0.12712	7.86685	35.16336	57.55295	12.85699	0.36748	2.46583	204812.763	1.45116	1.74712E-5	716.22643	11749.758	34.1396	9602.458
455.0	0.92734	0.072658	2.53336	10.67046	-8.2528	29.91894	141.3192	0.12624	7.92162	35.80002	57.72028	13.09685	0.36674	2.51695	240972.5672	1.412	1.47482E-5	716.36287	11580.874	33.7768	9625.038
450.0	0.92987	0.070134	2.53492	10.66385	-8.30959	29.76674	141.3113	0.12538	7.97595	36.42464	57.88595	13.33239	0.36602	2.56995	283951.2888	1.37338	1.243E-5	716.52438	11413.653	33.4442	9646.216
448.13	0.93077	0.069229	2.5355	10.66142	-8.33055	29.71128	141.30361	0.12506	7.99618	36.6534	57.94741	13.41872	0.36576	2.59025	302024.2055	1.3591	1.1656E-5	716.59112	11351.597	 	9653.761
446.07	1.0	1.608E-9	2.54426	10.62473	-8.646	27.03003	144.49715	0.12195	8.20036	55.32067	58.08808	20.62244	0.34127	2.66429	432125.0938	1.31754	8.12339E-6	717.42143	10713.732	 	10231.453
440.0	1.0	1.608E-9	2.54567	10.61884	-8.69659	26.9652	144.25651	0.12112	8.25636	55.65406	58.29655	20.75269	0.34089	2.73063	522893.5184	1.27469	6.65663E-6	722.74881	10534.985	87.8668	 
435.0	1.0	1.608E-9	2.54683	10.61401	-8.73812	26.91181	144.05472	0.12044	8.30302	55.92743	58.46685	20.85954	0.34057	2.78742	613360.589	1.23996	5.63503E-6	727.09268	10388.042	29.3886	 
430.0	1.0	1.608E-9	2.54798	10.6092	-8.77951	26.85845	143.84975	0.11976	8.35016	56.19958	58.63582	20.96595	0.34026	2.84623	721114.2507	1.20577	4.75916E-6	731.39696	10241.413	29.3258	 
425.0	1.0	1.608E-9	2.54914	10.6044	-8.82075	26.80512	143.64158	0.11908	8.3978	56.4705	58.80347	21.07194	0.33995	2.90714	849765.4455	1.17211	4.00993E-6	735.66393	10095.092	29.2642	 
420.0	1.0	1.608E-9	2.55029	10.59962	-8.86185	26.75181	143.4302	0.1184	8.44593	56.74019	58.96981	21.17748	0.33963	2.97026	1003743.212	1.13899	3.37048E-6	739.89605	9949.07	29.2044	 
415.0	1.0	1.608E-9	2.55143	10.59486	-8.90281	26.69854	143.21559	0.11772	8.49456	57.00866	59.13486	21.2826	0.33933	3.03571	1188494.457	1.10639	2.826E-6	744.09598	9803.345	29.145	 
410.0	1.0	1.608E-9	2.55258	10.59011	-8.94362	26.64529	142.99772	0.11705	8.54372	57.2759	59.29862	21.38727	0.33902	3.10358	1410736.041	1.07434	2.36351E-6	748.26652	9657.914	29.0862	 
405.0	1.0	1.608E-9	2.55372	10.58538	-8.98428	26.59208	142.77657	0.11637	8.5934	57.54192	59.46112	21.49151	0.33871	3.17401	1678773.798	1.04281	1.97161E-6	752.4107	9512.779	29.027	 
400.0	1.0	1.608E-9	2.55485	10.58067	-9.0248	26.53889	142.55212	0.11569	8.64362	57.80672	59.62237	21.59532	0.33841	3.24711	2002907.462	1.01181	1.64035E-6	756.53169	9367.936	28.9686	 
395.0	1.0	1.608E-9	2.55599	10.57598	-9.06518	26.48574	142.32435	0.11502	8.69439	58.07029	59.78237	21.69868	0.33811	3.32304	2395946.214	0.98135	1.36108E-6	760.63284	9223.387	28.9098	 
390.0	1.0	1.608E-9	2.55712	10.5713	-9.10542	26.43261	142.09323	0.11434	8.74572	58.33264	59.94115	21.80161	0.33781	3.40192	2873867.075	0.95142	1.12624E-6	764.71765	9079.13	28.8514	 
385.0	1.0	1.608E-9	2.55825	10.56663	-9.14551	26.37951	141.85874	0.11367	8.79762	58.59376	60.0987	21.9041	0.33751	3.48392	3456658.421	0.92203	9.29298E-7	768.78976	8935.164	28.7932	 
380.0	1.0	1.608E-9	2.55937	10.56199	-9.18545	26.32645	141.62084	0.11299	8.8501	58.85366	60.25505	22.00615	0.33721	3.5692	4169404.145	0.89316	7.64585E-7	772.85295	8791.488	28.7352	 
375.0	1.0	1.608E-9	2.5605	10.55736	-9.22526	26.27341	141.37952	0.11232	8.90317	59.11234	60.41021	22.10776	0.33691	3.65793	5043681.74	0.86482	6.27212E-7	776.91112	8648.102	28.6772	 
370.0	1.0	1.608E-9	2.56161	10.55275	-9.26492	26.2204	141.13475	0.11165	8.95686	59.36979	60.56418	22.20893	0.33662	3.75029	6119371.289	0.83702	5.1297E-7	780.96827	8505.006	28.6192	 
365.0	1.0	1.608E-9	2.56273	10.54815	-9.30444	26.16742	140.88649	0.11097	9.01116	59.62603	60.71698	22.30965	0.33633	3.84649	7447004.206	0.80974	4.18242E-7	785.02845	8362.198	28.5616	 
360.0	1.0	1.608E-9	2.56384	10.54357	-9.34381	26.11447	140.63472	0.1103	9.06609	59.88104	60.86862	22.40994	0.33604	3.94674	9090823.538	0.78299	3.3993E-7	789.0958	8219.677	28.5042	 
355.0	1.0	1.608E-9	2.56495	10.53901	-9.38304	26.06155	140.3794	0.10963	9.12166	60.13483	61.01912	22.50979	0.33575	4.05126	1.113278578E7	0.75676	2.75389E-7	793.17447	8077.444	28.4466	 
350.0	1.0	1.608E-9	2.56606	10.53446	-9.42213	26.00865	140.12051	0.10896	9.17789	60.3874	61.16848	22.60919	0.33546	4.16029	1.367781316E7	0.73107	2.22363E-7	797.26864	7935.497	28.3894	 
345.0	1.0	1.608E-9	2.56716	10.52993	-9.46108	25.95579	139.858	0.10829	9.2348	60.63875	61.31671	22.70815	0.33518	4.27409	1.686071314E7	0.70589	1.78939E-7	801.38243	7793.836	28.3322	 
340.0	1.0	1.608E-9	2.56826	10.52542	-9.49988	25.90296	139.59185	0.10761	9.29239	60.88889	61.46382	22.80667	0.33489	4.39293	2.085532954E7	0.68124	1.43495E-7	805.51994	7652.46	28.2752	 
335.0	1.0	1.608E-9	2.56936	10.52092	-9.53854	25.85015	139.32201	0.10694	9.35067	61.1378	61.60983	22.90474	0.33461	4.51712	2.588669264E7	0.65711	1.14662E-7	809.68516	7511.369	28.2182	 
330.0	1.0	1.608E-9	2.57046	10.51644	-9.57706	25.79738	139.04845	0.10627	9.40968	61.38549	61.75474	23.00236	0.33433	4.64697	3.22472165E7	0.63349	9.12893E-8	813.88198	7370.562	28.1614	 
325.0	1.0	1.608E-9	2.57155	10.51198	-9.61544	25.74464	138.77114	0.1056	9.46941	61.63196	61.89857	23.09955	0.33405	4.78281	4.031838048E7	0.6104	7.24092E-8	818.11413	7230.039	28.1046	 
320.0	1.0	1.608E-9	2.57264	10.50753	-9.65367	25.69192	138.49001	0.10493	9.52989	61.87721	62.04133	23.19628	0.33377	4.92502	5.059987502E7	0.58782	5.72139E-8	822.38517	7089.799	28.048	 
315.0	1.0	1.608E-9	2.57372	10.5031	-9.69176	25.63923	138.20505	0.10426	9.59113	62.12125	62.18302	23.29257	0.3335	5.07398	6.374895071E7	0.56575	4.503E-8	826.69843	6949.841	27.9916	 
310.0	1.0	1.608E-9	2.5748	10.49869	-9.72972	25.58658	137.9162	0.10359	9.65315	62.36406	62.32366	23.38842	0.33323	5.23012	8.063377849E7	0.5442	3.5298E-8	831.05699	6810.167	27.9348	 
305.0	1.0	1.608E-9	2.57588	10.49429	-9.76752	25.53395	137.62341	0.10292	9.71596	62.60566	62.46325	23.48382	0.33295	5.3939	1.024061385E8	0.52315	2.75551E-8	835.46366	6670.774	27.8786	 
300.0	1.0	1.608E-9	2.57696	10.48991	-9.80519	25.48135	137.32664	0.10225	9.77958	62.84604	62.60181	23.57876	0.33268	5.56579	1.306009001E8	0.50261	2.14195E-8	839.92093	6531.663	27.8222	 
295.0	1.0	1.608E-9	2.57803	10.48555	-9.84272	25.42878	137.02583	0.10158	9.84404	63.0852	62.73934	23.67326	0.33241	5.74633	1.672728164E8	0.48257	1.65777E-8	844.43097	6392.833	27.766	 
290.0	1.0	1.608E-9	2.5791	10.4812	-9.8801	25.37624	136.72095	0.10091	9.90934	63.32315	62.87585	23.76732	0.33215	5.9361	2.151855499E8	0.46303	1.27731E-8	848.99556	6254.284	27.7098	 
285.0	1.0	1.608E-9	2.58017	10.47687	-9.91735	25.32373	136.41192	0.10025	9.97551	63.55988	63.01136	23.86092	0.33188	6.1357	2.780741806E8	0.44399	9.79664E-9	853.61613	6116.016	27.6536	 
280.0	1.0	1.608E-9	2.58123	10.47255	-9.95445	25.27125	136.0987	0.0995761	10.04257	63.7954	63.14587	23.95407	0.33162	6.3458	3.610116362E8	0.42544	7.4784E-9	858.2937	5978.029	27.5974	 
275.0	1.0	1.608E-9	2.58229	10.46825	-9.99141	25.2188	135.78122	0.0989067	10.11054	64.02969	63.27939	24.04677	0.33136	6.56714	4.7092288E8	0.40739	5.68115E-9	863.02889	5840.322	27.5414	 
270.0	1.0	1.608E-9	2.58335	10.46397	-10.02823	25.16638	135.45943	0.0982373	10.17943	64.26277	63.41194	24.13903	0.3311	6.80048	6.173103408E8	0.38982	4.2944E-9	867.82189	5702.896	27.4852	 
265.0	1.0	1.608E-9	2.5844	10.4597	-10.06491	25.11399	135.13326	0.097568	10.24927	64.49464	63.54351	24.23083	0.33084	7.04669	8.132830439E8	0.37274	3.2296E-9	872.67248	5565.749	27.4294	 
260.0	1.0	1.608E-9	2.58545	10.45546	-10.10145	25.06163	134.80264	0.0968985	10.32008	64.72529	63.67412	24.32218	0.33058	7.30668	1.077024906E9	0.35614	2.41607E-9	877.58001	5428.884	27.373	 
255.0	1.0	1.608E-9	2.5865	10.45122	-10.13785	25.00929	134.46751	0.096229	10.39188	64.95473	63.80377	24.41307	0.33033	7.58146	1.43390184E9	0.34001	1.79773E-9	882.54344	5292.298	27.3172	 
250.0	1.0	1.608E-9	2.58754	10.44701	-10.1741	24.95699	134.12779	0.0955594	10.46469	65.18295	63.93248	24.50352	0.33007	7.87213	1.919503766E9	0.32436	1.33022E-9	887.56132	5155.993	27.261	 
245.0	1.0	1.608E-9	2.58858	10.4428	-10.21022	24.90471	133.78341	0.0948898	10.53855	65.40996	64.06025	24.59351	0.32982	8.17988	2.584063402E9	0.30917	9.78676E-10	892.6318	5019.969	27.2048	 
240.0	1.0	1.608E-9	2.58962	10.43862	-10.2462	24.85247	133.43429	0.09422	10.61346	65.63575	64.18709	24.68304	0.32957	8.50602	3.498915643E9	0.29445	7.1581E-10	897.75269	4884.225	27.1488	 
235.0	1.0	1.608E-9	2.59065	10.43445	-10.28204	24.80025	133.08035	0.0935501	10.68946	65.86033	64.31301	24.77212	0.32932	8.85197	4.766001359E9	0.28018	5.20385E-10	902.92145	4748.763	27.0924	 
230.0	1.0	1.608E-9	2.59169	10.4303	-10.31773	24.74806	132.72149	0.09288	10.76658	66.0837	64.43802	24.86075	0.32908	9.21929	6.5319441E9	0.26637	3.7596E-10	908.13521	4613.582	27.0362	 
225.0	1.0	1.608E-9	2.59271	10.42617	-10.35329	24.69591	132.35763	0.0922098	10.84483	66.30585	64.56213	24.94892	0.32883	9.60969	9.009043634E9	0.25301	2.69878E-10	913.39083	4478.682	26.98	 
220.0	1.0	1.608E-9	2.59374	10.42205	-10.38871	24.64378	131.98869	0.0915395	10.92425	66.52679	64.68533	25.03664	0.32859	10.02505	1.2506799999999998E10	0.24009	1.92451E-10	918.6849	4344.065	26.9234	 
215.0	1.0	1.608E-9	2.59476	10.41794	-10.42399	24.59168	131.61455	0.0908689	11.00486	66.74652	64.80765	25.1239	0.32835	10.46744	1.74796E10	0.22761	1.36304E-10	924.01377	4209.731	26.8668	 
210.0	1.0	1.608E-9	2.59578	10.41386	-10.45912	24.53961	131.23512	0.0901982	11.08669	66.96503	64.92909	25.2107	0.32811	10.93912	2.4599599999999996E10	0.21557	9.58607E-11	929.37363	4075.68	26.8102	 
205.0	1.0	1.608E-9	2.59679	10.40979	-10.49412	24.48757	130.85028	0.0895273	11.16977	67.18234	65.04965	25.29705	0.32787	11.4426	3.4868E10	0.20395	6.69305E-11	934.76046	3941.913	26.7534	 
200.0	1.0	1.608E-9	2.59781	10.40573	-10.52898	24.43556	130.45994	0.0888562	11.25414	67.39843	65.16935	25.38294	0.32763	11.98063	4.978839999999999E10	0.19276	4.63829E-11	940.17012	3808.431	26.6964	 
195.0	1.0	1.608E-9	2.59881	10.40169	-10.5637	24.38358	130.06396	0.0881849	11.33981	67.61331	65.28818	25.46837	0.3274	12.55629	7.16363E10	0.18197	3.18962E-11	945.59837	3675.235	26.6392	 
190.0	1.0	1.608E-9	2.59982	10.39767	-10.59828	24.33163	129.66223	0.0875133	11.42683	67.82698	65.40617	25.55334	0.32716	13.17294	1.03884E11	0.1716	2.176E-11	951.04088	3542.325	26.582	 
185.0	1.0	1.608E-9	2.60082	10.39367	-10.63273	24.27971	129.25461	0.0868416	11.51522	68.03944	65.5233	25.63785	0.32693	13.83435	1.51876E11	0.16164	1.47233E-11	956.49326	3409.704	26.5242	 
180.0	1.0	1.608E-9	2.60182	10.38968	-10.66703	24.22781	128.84098	0.0861696	11.60502	68.25069	65.63961	25.72191	0.3267	14.54469	2.23908E11	0.15206	9.87776E-12	961.9511	3277.371	26.4666	 
175.0	1.0	1.608E-9	2.60282	10.3857	-10.7012	24.17595	128.42119	0.0854974	11.69627	68.46073	65.75508	25.8055	0.32648	15.30859	3.32975E11	0.14288	6.56898E-12	967.40998	3145.329	26.4084	 
170.0	1.0	1.608E-9	2.60381	10.38175	-10.73522	24.12412	127.9951	0.0848249	11.78899	68.66955	65.86972	25.88863	0.32625	16.13124	4.99623E11	0.13408	4.32907E-12	972.86548	3013.578	26.3502	 
165.0	1.0	1.608E-9	2.6048	10.3778	-10.76911	24.07231	127.56254	0.0841523	11.88322	68.87717	65.98355	25.97131	0.32602	17.01841	7.56651E11	0.12566	2.82627E-12	978.3132	2882.121	26.2914	 
160.0	1.0	1.608E-9	2.60578	10.37388	-10.80286	24.02054	127.12335	0.0834794	11.97901	69.08358	66.09657	26.05352	0.3258	17.97658	1.15694E12	0.1176	1.82732E-12	983.74879	2750.958	26.2326	 
155.0	1.0	1.608E-9	2.60676	10.36997	-10.83647	23.96879	126.67736	0.0828062	12.07639	69.28878	66.20879	26.13527	0.32558	19.013	1.78662E12	0.10991	1.16964E-12	989.16794	2620.092	26.1732	 
150.0	1.0	1.608E-9	2.60774	10.36608	-10.86995	23.91707	126.2244	0.0821329	12.17539	69.49278	66.32021	26.21656	0.32536	20.13583	2.78749E12	0.10257	7.40915E-13	994.56643	2489.525	26.1134	 
145.0	1.0	1.608E-9	2.60872	10.3622	-10.90328	23.86539	125.76426	0.0814593	12.27606	69.69556	66.43084	26.29738	0.32514	21.35426	4.39556E12	0.0955728	4.64306E-13	999.94006	2359.259	26.0532	 
140.0	1.0	1.608E-9	2.60969	10.35834	-10.93648	23.81373	125.29676	0.0807856	12.37844	69.89714	66.54068	26.37774	0.32493	22.67863	7.00815E12	0.0889155	2.87734E-13	1005.28474	2229.296	25.9926	 
135.0	1.0	1.608E-9	2.61066	10.35449	-10.96954	23.7621	124.82168	0.0801117	12.48257	70.0975	66.64975	26.45764	0.32471	24.12068	1.1302E13	0.082588	1.76259E-13	1010.59645	2099.638	25.9316	 
130.0	1.0	1.608E-9	2.61163	10.35066	-11.00246	23.7105	124.3388	0.0794376	12.5885	70.29667	66.75804	26.53708	0.3245	25.69369	1.84441E13	0.076582	1.06683E-13	1015.87125	1970.289	25.8698	 
125.0	1.0	1.608E-9	2.61259	10.34685	-11.03525	23.65893	123.84789	0.0787634	12.69626	70.49462	66.86557	26.61605	0.32429	27.41273	3.04719E13	0.0708894	6.37725E-14	1021.10529	1841.251	25.8076	 
120.0	1.0	1.608E-9	2.61355	10.34305	-11.06789	23.60739	123.34869	0.078089	12.8059	70.69137	66.97234	26.69456	0.32408	29.29501	5.09905E13	0.0655015	3.76319E-14	1026.29481	1712.527	25.7448	 
115.0	1.0	1.608E-9	2.6145	10.33927	-11.1004	23.55588	122.84097	0.0774145	12.91747	70.88691	67.07836	26.7726	0.32387	31.36014	8.64646E13	0.0604099	2.19103E-14	1031.43613	1584.12	25.6814	 
110.0	1.0	1.608E-9	2.61546	10.33551	-11.13278	23.5044	122.32442	0.07674	13.03102	71.08125	67.18364	26.85018	0.32366	33.63059	1.48653E14	0.0556059	1.258E-14	1036.52566	1456.035	25.617	 
105.0	1.0	1.608E-9	2.6164	10.33176	-11.16501	23.45295	121.79878	0.0760654	13.14658	71.27438	67.28817	26.92729	0.32346	36.13215	2.5925799999999997E14	0.0510807	7.11899E-15	1041.55992	1328.274	25.5522	 
100.0	1.0	1.608E-9	2.61735	10.32803	-11.19711	23.40152	121.26374	0.0753908	13.26421	71.4663	67.39197	27.00394	0.32326	38.89449	4.5895E14	0.0468255	3.96831E-15	1046.53549	1200.842	25.4864	 
95.0	1.0	1.608E-9	2.61829	10.32431	-11.22907	23.35013	120.71897	0.0747163	13.38396	71.65702	67.49503	27.08012	0.32306	41.95188	8.25153E14	0.0428312	2.17759E-15	1051.44909	1073.743	25.4198	 
90.0	1.0	1.608E-9	2.61923	10.32061	-11.2609	23.29876	120.16413	0.0740419	13.50587	71.84654	67.59738	27.15583	0.32286	45.34399	1.50772E15	0.0390889	1.17558E-15	1056.2975	946.983	25.352	 
85.0	1.0	1.608E-9	2.62017	10.31692	-11.29259	23.24743	119.59886	0.0733675	13.63	72.03485	67.69901	27.23107	0.32266	49.11689	2.80165E15	0.0355894	6.23933E-16	1061.07763	820.565	25.2836	 
80.0	1.0	1.608E-9	2.6211	10.31325	-11.32414	23.19613	119.02277	0.0726934	13.7564	72.22196	67.79992	27.30585	0.32246	53.32427	5.2982E15	0.0323237	3.25325E-16	1065.78649	694.496	25.2138	 
75.0	1.0	1.608E-9	2.62203	10.3096	-11.35555	23.14485	118.43547	0.0720196	13.88511	72.40787	67.90014	27.38016	0.32227	58.02889	1.02045E16	0.0292825	1.66518E-16	1070.42121	568.78	25.1432	 
70.0	1.0	1.608E-9	2.62295	10.30596	-11.38683	23.0936	117.83652	0.0713461	14.01618	72.59257	67.99965	27.45401	0.32208	63.30436	2.00331E16	0.0264568	8.3603E-17	1074.97905	443.425	25.071	 
65.0	1.0	1.608E-9	2.62388	10.30234	-11.41798	23.04239	117.22545	0.070673	14.14967	72.77607	68.09846	27.52738	0.32189	69.23736	4.01209E16	0.0238372	4.11364E-17	1079.45739	318.437	24.9976	 
60.0	1.0	1.608E-9	2.6248	10.29873	-11.44898	22.9912	116.60179	0.0700004	14.28563	72.95837	68.19659	27.60029	0.3217	75.93033	8.20437E16	0.0214147	1.9819E-17	1083.85377	193.823	24.9228	 
55.0	1.0	1.608E-9	2.62571	10.29514	-11.47986	22.94004	115.96502	0.0693284	14.42409	73.13947	68.29403	27.67272	0.32151	83.50477	1.7147E17	0.01918	9.34052E-18	1088.16588	69.591	24.8464	 
50.0	1.0	1.608E-9	2.62662	10.29157	-11.51059	22.88891	115.31458	0.0686572	14.56512	73.31937	68.3908	27.74469	0.32132	92.10542	3.66638E17	0.017124	4.30183E-18	1092.39161	-54.252	24.7686	 
45.0	1.0	1.608E-9	2.62753	10.28801	-11.54119	22.83782	114.64989	0.0679868	14.70875	73.49807	68.48689	27.81619	0.32114	101.90541	8.02899E17	0.0152378	1.934E-18	1096.529	-177.696	24.6888	 
40.0	1.0	1.608E-9	2.62844	10.28447	-11.57166	22.78673	113.97032	0.0673173	14.85502	73.67557	68.58231	27.88722	0.32096	113.11276	1.80283E18	0.0135122	8.47781E-19	1100.57632	-300.732	24.6072	 
35.0	1.0	1.608E-9	2.62934	10.28094	-11.60199	22.7357	113.27519	0.066649	15.00398	73.85188	68.67707	27.95778	0.32078	125.97851	4.15576E18	0.0119386	3.61908E-19	1104.53207	-423.35	24.5236	 
30.0	1.0	1.608E-9	2.63024	10.27743	-11.63218	22.68466	112.5638	0.0659819	15.15567	74.02698	68.77118	28.02787	0.3206	140.80713	9.84712E18	0.010508	1.50257E-19	1108.39498	-545.538	24.4376	 
25.0	1.0	1.608E-9	2.63113	10.27393	-11.66224	 	111.83537	0.0653163	15.31011	74.20089	68.86463	28.09749	0.32042	157.96968	2.40178E19	0.00921187	6.05881E-20	1112.16403	-667.287	 	 
