T (C)	Fraction solid (wt)-TOTAL	Fraction liquid (wt)-LIQUID	Density (g/(cm)^3)-TOTAL	Molar volume (cm^3)-TOTAL	Volume change (%)-  	Average expansion coeff. (10e-6 1/K)-  	Thermal conductivity (W/(m*K))-TOTAL	Electrical resistivity (10e-6 Ohm*m)-TOTAL	Electrical conductivity (10e6 1/(Ohm*m))-TOTAL	Young's modulus (GPa)-TOTAL	Bulk modulus (GPa)-TOTAL	Shear modulus(GPa)-TOTAL	Poisson's ratio-TOTAL	Liquid viscosity (mPa s)-  	Total viscosity (mPa s)-  	Liquid diffusivity (10e-9 (m^2)/s)-  	Total diffusivity (10e-9 (m^2)/s)-  	Surface Tension (mN/m)-  	Enthalpy (J/mole)-TOTAL	Specific heat (J/(mole K))-TOTAL	Latent heat (J/mole)-TOTAL
700.0	0.0	1.0	2.37334	11.41068	0.0	66.76862	89.67368	0.26588	3.76114	0.0	50.17069	0.0	0.5	1.21772	1.21772	3.9005	3.9005	864.57586	29658.676	 	0.0
695.0	0.0	1.0	2.37498	11.40278	-0.069195	66.8761	89.50415	0.26501	3.77341	0.0	50.23405	0.0	0.5	1.23074	1.23074	3.8394	3.8394	866.26294	29499.752	31.7848	0.0
690.0	0.0	1.0	2.37662	11.39491	-0.13817	66.98645	89.33462	0.26414	3.78582	0.0	50.29741	0.0	0.5	1.24404	1.24404	3.77874	3.77874	867.94915	29340.83	31.7844	0.0
685.0	0.0	1.0	2.37826	11.38706	-0.20692	67.09975	89.16509	0.26327	3.79835	0.0	50.36078	0.0	0.5	1.25762	1.25762	3.71852	3.71852	869.63446	29181.91	31.784	0.0
680.0	0.0	1.0	2.3799	11.37925	-0.27545	67.21607	88.99555	0.2624	3.81102	0.0	50.42414	0.0	0.5	1.2715	1.2715	3.65875	3.65875	871.31885	29022.991	31.7838	0.0
675.0	0.0	1.0	2.38153	11.37145	-0.34375	67.33547	88.82602	0.26152	3.82382	0.0	50.4875	0.0	0.5	1.28568	1.28568	3.59941	3.59941	873.0023	28864.075	31.7832	0.0
670.0	0.0	1.0	2.38315	11.36368	-0.41183	67.45803	88.65648	0.26064	3.83675	0.0	50.55087	0.0	0.5	1.30017	1.30017	3.54053	3.54053	874.68479	28705.16	31.783	0.0
665.0	0.0	1.0	2.38478	11.35594	-0.4797	67.58381	88.48694	0.25975	3.84982	0.0	50.61423	0.0	0.5	1.31498	1.31498	3.48209	3.48209	876.36628	28546.247	31.7826	0.0
660.0	0.0	1.0	2.3864	11.34822	-0.54733	67.71291	88.3174	0.25886	3.86304	0.0	50.67759	0.0	0.5	1.33012	1.33012	3.42411	3.42411	878.04677	28387.325	31.7844	0.0
655.0	0.0	1.0	2.38802	11.34053	-0.61475	67.84538	88.14786	0.25797	3.87639	0.0	50.74095	0.0	0.5	1.3456	1.3456	3.36658	3.36658	879.72621	28228.604	31.7442	0.0
652.15	0.0	1.0	2.38894	11.33616	-0.65305	67.92238	88.0513	0.25746	3.88406	0.0	50.77704	0.0	0.5	1.35457	1.35457	3.33402	3.33402	880.6823	28138.352	31.6912	0.0
650.0	0.0878706	0.91213	2.40309	11.26938	-1.23825	64.61318	92.52109	0.24445	4.09074	0.00179141	51.0155	6.01136E-4	0.49002	1.36131	1.70982	3.30981	2.63516	879.92374	27138.029	464.804	932.193
645.0	0.37836	0.62164	2.4506	11.05095	-3.15258	53.45065	110.46524	0.20364	4.91073	0.67179	51.79612	0.2307	0.45596	1.38286	71.31055	3.24058	0.0628415	874.96077	23912.28	645.15	3999.901
640.0	0.56686	0.43314	2.48287	10.90728	-4.41162	46.13844	126.96146	0.17621	5.67497	3.59191	52.40938	1.25338	0.43288	1.40876	386.40126	3.16368	0.0115343	869.37768	21776.509	427.154	5977.98
635.0	0.67823	0.32177	2.50283	10.82025	-5.17434	41.78525	139.50434	0.15949	6.26995	7.64832	52.86923	2.69542	0.41876	1.43708	869.79628	3.08435	0.00509597	864.26433	20458.301	263.642	7138.848
632.18	0.7208	0.2792	2.51077	10.78597	-5.47478	40.107	144.93701	0.15304	6.53441	9.915	53.08484	3.50793	0.41323	1.45374	1171.87471	3.03952	0.00377061	861.62825	19927.261	 	7581.282
630.0	0.75102	0.24898	2.51654	10.76121	-5.69169	38.89477	148.87339	0.14863	6.72808	11.81983	53.22959	4.19415	0.40909	1.46438	1439.97859	3.01019	0.00306119	859.51066	19540.627	183.535	7899.531
625.0	0.80463	0.19537	2.52714	10.71603	-6.08771	36.7213	156.27354	0.14081	7.10183	15.93525	53.53293	5.68482	0.40156	1.48948	2091.66013	2.94306	0.00209577	855.01586	18820.437	144.038	8463.081
620.0	0.84181	0.15819	2.53495	10.68296	-6.37747	35.18711	161.7456	0.13529	7.39166	19.45149	53.8066	6.96608	0.39616	1.51549	2767.84621	2.87645	0.00157496	851.02236	18272.923	109.503	8854.305
618.25	0.85204	0.14796	2.53721	10.67348	-6.4606	34.76081	163.30634	0.13373	7.47766	20.53015	53.89756	7.3604	0.39464	1.52484	3008.79259	2.85321	0.00144599	849.72919	18110.44	 	8962.095
618.25	0.85204	0.14796	2.53721	10.67348	-6.4606	34.76081	163.30634	0.13373	7.47766	20.53015	53.89756	7.3604	0.39464	1.52484	3008.79259	2.85321	0.00144599	849.72919	18110.44	 	8962.095
615.0	0.86979	0.13021	2.54115	10.65688	-6.60604	34.01933	166.09499	0.13101	7.63316	22.5168	54.06822	8.08789	0.39201	1.54089	3488.81662	2.81321	0.0012425	847.25544	17821.767	90.2312	9149.52
613.53	0.8767	0.1233	2.54275	10.65019	-6.66472	33.72731	167.20355	0.12992	7.69688	23.33807	54.14325	8.38918	0.39096	1.54831	3710.59769	2.79508	0.00116629	846.19683	17702.607	 	9222.766
610.0	0.89139	0.10861	2.54625	10.63552	-6.79321	33.09941	169.57898	0.12759	7.83739	25.17838	54.3166	9.06552	0.38869	1.56606	4261.97814	2.75241	0.00101137	843.7485	17435.664	77.2206	9380.029
605.0	0.90791	0.0920916	2.55047	10.61791	-6.9476	32.37752	172.33179	0.12484	8.00996	27.42807	54.55348	9.89441	0.38604	1.59233	5086.75069	2.69167	8.42587E-4	840.64832	17103.038	66.5252	9557.409
600.0	0.92072	0.0792754	2.55405	10.60303	-7.078	31.8009	174.54094	0.12256	8.1591	29.32932	54.78207	10.59672	0.38389	1.61987	5974.43955	2.63084	7.1331E-4	837.9226	16809.786	58.6504	9695.762
595.0	0.93092	0.069082	2.55717	10.59008	-7.19144	31.32677	176.35617	0.12061	8.29144	30.96073	55.00412	11.20071	0.38209	1.64868	6942.22335	2.57007	6.10356E-4	835.51755	16544.423	53.0726	9806.573
590.0	0.93919	0.0608098	2.55995	10.57857	-7.29234	30.92821	177.87707	0.11889	8.41139	32.37989	55.22079	11.72717	0.38055	1.67877	8007.57996	2.50947	5.26104E-4	833.38891	16299.525	48.9796	9897.26
587.02	0.94339	0.0566058	2.56148	10.57224	-7.34781	30.71877	178.6721	0.11795	8.47825	33.14112	55.34771	12.00999	0.37973	1.69732	8696.10533	2.47348	4.82777E-4	832.23436	16161.288	 	9943.748
587.02	0.94339	0.0566058	2.56148	10.57224	-7.34781	30.71877	178.6721	0.11795	8.47825	33.14112	55.34771	12.00999	0.37973	1.69732	8696.10533	2.47348	4.82777E-4	832.23436	16161.288	 	9943.748
585.0	0.95802	0.0419794	2.56421	10.5607	-7.44899	30.14586	181.08304	0.11611	8.61288	35.6028	55.52637	12.92396	0.3774	1.71194	9667.92929	2.44659	4.33228E-4	830.27984	15915.63	76.779	10127.286
580.0	0.97527	0.0247348	2.56807	10.54421	-7.59347	29.43236	184.03468	0.11358	8.80457	38.8198	55.83465	14.12218	0.37443	1.74934	11594.77356	2.38034	3.59128E-4	826.25726	15545.677	73.9906	10343.71
575.0	0.98309	0.0169067	2.57049	10.53376	-7.68508	29.06966	185.48179	0.11203	8.92612	40.49718	56.07598	14.74923	0.37286	1.78777	13383.58306	2.31552	3.09305E-4	822.93118	15292.785	50.5784	10443.413
570.0	0.98764	0.0123627	2.5724	10.52543	-7.75801	28.82997	186.39948	0.11082	9.02347	41.60878	56.29315	15.16599	0.37178	1.82723	15260.00706	2.25216	2.69673E-4	820.08427	15080.696	42.4178	10502.65
565.0	0.99064	0.00935986	2.57408	10.51813	-7.82201	28.64845	187.06678	0.10977	9.1098	42.44751	56.49823	15.48126	0.37093	1.86776	17313.00603	2.19022	2.36285E-4	817.59633	14887.872	38.5648	10542.955
560.0	0.99279	0.00720745	2.57563	10.5114	-7.88097	28.4992	187.59464	0.10881	9.19033	43.13281	56.69599	15.73946	0.37021	1.9094	19600.8135	2.12967	2.07461E-4	815.39249	14705.843	36.4058	10572.797
555.0	0.99442	0.00557926	2.57709	10.50504	-7.93674	28.36987	188.03667	0.1079	9.2676	43.7225	56.88866	15.9621	0.36957	1.95221	22174.61079	2.07047	1.8228E-4	813.42211	14530.405	35.0876	10596.378
550.0	0.9957	0.00429751	2.57851	10.49893	-7.99031	28.25393	188.4189	0.10703	9.34285	44.24804	57.07745	16.16089	0.36899	1.99624	25086.67633	2.01258	1.60148E-4	811.64613	14359.951	34.0908	10615.301
545.0	0.99674	0.00325718	2.57988	10.493	-8.04229	28.14737	188.75946	0.10619	9.41694	44.72824	57.26308	16.34283	0.36844	2.04154	28394.33406	1.95597	1.40633E-4	810.03836	14192.66	33.4582	10631.387
540.0	0.99761	0.00239275	2.58122	10.4872	-8.09304	28.04772	189.06893	0.10537	9.49038	45.17504	57.44599	16.51238	0.36791	2.08816	32162.53051	1.90061	1.23398E-4	808.57591	14027.91	32.95	10645.255
535.0	0.99834	0.00166052	2.58255	10.48152	-8.14284	27.9532	189.35453	0.10456	9.56352	45.59639	57.6265	16.67248	0.36741	2.13617	36465.92156	1.84647	1.08166E-4	807.24274	13865.18	32.546	10657.419
530.0	0.99897	0.00103135	2.58385	10.47593	-8.19185	27.86276	189.62079	0.10377	9.63659	45.99774	57.80482	16.82518	0.36693	2.18562	41391.16354	1.79353	9.47056E-5	806.02448	13704.105	32.215	10668.244
525.0	0.99952	4.83397E-4	2.58514	10.47041	-8.24019	27.77554	189.87115	0.10299	9.70976	46.38309	57.98109	16.97196	0.36646	2.2366	47039.44816	1.74174	8.2815E-5	804.90995	13544.421	31.9368	10677.99
520.0	1.0	0.0	2.58642	10.46496	-8.28796	27.69087	190.10826	0.10222	9.78317	46.75526	58.15544	17.11387	0.366	 	53529.20831	 	7.23188E-5	 	13385.937	31.6968	10686.848
515.0	1.0	0.0	2.58765	10.45998	-8.33164	27.63618	190.25661	0.10149	9.85292	47.02531	58.32529	17.21753	0.36562	 	60894.71191	 	6.31707E-5	 	13167.813	43.6248	 
510.0	1.0	0.0	2.58888	10.45501	-8.37516	27.58152	190.40231	0.10077	9.92342	47.29426	58.49366	17.32081	0.36524	 	69387.82229	 	5.50869E-5	 	13015.09	30.5446	 
505.0	1.0	0.0	2.59011	10.45006	-8.41853	27.52689	190.54532	0.10005	9.99468	47.5621	58.66056	17.42372	0.36487	 	79198.25878	 	4.79551E-5	 	12862.806	30.4568	 
500.0	1.0	0.0	2.59133	10.44513	-8.46176	27.47229	190.68562	0.0993372	10.06672	47.82883	58.826	17.52626	0.36449	 	90550.4985	 	4.16735E-5	 	12710.953	30.3706	 
495.0	1.0	0.0	2.59255	10.44022	-8.50484	27.41772	190.82318	0.0986236	10.13956	48.09445	58.99003	17.62842	0.36412	 	103710.6603	 	3.61501E-5	 	12559.521	30.2864	 
490.0	1.0	0.0	2.59377	10.43532	-8.54777	27.36319	190.95797	0.0979125	10.2132	48.35896	59.15264	17.7302	0.36375	 	118994.8541	 	3.13017E-5	 	12408.504	30.2034	 
485.0	1.0	0.0	2.59498	10.43044	-8.59055	27.30869	191.08995	0.0972038	10.28766	48.62236	59.31386	17.83161	0.36338	 	136779.3289	 	2.70534E-5	 	12257.893	30.1222	 
480.0	1.0	0.0	2.59619	10.42557	-8.63318	27.25422	191.2191	0.0964976	10.36296	48.88466	59.47371	17.93264	0.36301	 	157512.8345	 	2.33374E-5	 	12107.679	30.0428	 
475.0	1.0	0.0	2.5974	10.42072	-8.67567	27.19978	191.34538	0.0957937	10.4391	49.14584	59.6322	18.03329	0.36264	 	181731.7125	 	2.0093E-5	 	11957.855	29.9648	 
470.0	1.0	0.0	2.5986	10.41589	-8.71801	27.14537	191.46876	0.0950921	10.51612	49.40592	59.78936	18.13357	0.36228	 	210078.3617	 	1.72656E-5	 	11808.413	29.8884	 
465.0	1.0	0.0	2.5998	10.41108	-8.7602	27.091	191.5892	0.094393	10.59401	49.66488	59.9452	18.23346	0.36192	 	243323.8844	 	1.48063E-5	 	11659.344	29.8138	 
460.0	1.0	0.0	2.601	10.40628	-8.80224	27.03666	191.70667	0.0936961	10.6728	49.92274	60.09973	18.33298	0.36156	 	282395.924	 	1.26713E-5	 	11510.641	29.7406	 
455.0	1.0	0.0	2.6022	10.4015	-8.84414	26.98235	191.82114	0.0930016	10.7525	50.17949	60.25299	18.43211	0.3612	 	328412.9688	 	1.08215E-5	 	11362.294	29.6694	 
450.0	1.0	0.0	2.60339	10.39674	-8.88589	26.92807	191.93256	0.0923094	10.83314	50.43513	60.40497	18.53086	0.36084	 	382726.7246	 	9.22203E-6	 	11214.297	29.5994	 
445.0	1.0	0.0	2.60458	10.39199	-8.92749	26.87382	192.04091	0.0916194	10.91472	50.68966	60.5557	18.62923	0.36049	 	446974.5855	 	7.84186E-6	 	11066.641	29.5312	 
440.0	1.0	0.0	2.60577	10.38726	-8.96895	26.8196	192.14613	0.0909317	10.99726	50.94309	60.70519	18.72721	0.36014	 	523144.7738	 	6.65343E-6	 	10919.318	29.4646	 
435.0	1.0	0.0	2.60695	10.38254	-9.01025	26.76542	192.2482	0.0902462	11.0808	51.19541	60.85346	18.82482	0.35979	 	613657.4179	 	5.6323E-6	 	10772.32	29.3996	 
430.0	1.0	0.0	2.60813	10.37785	-9.05142	26.71127	192.34707	0.089563	11.16533	51.44661	61.00052	18.92203	0.35944	 	721465.7336	 	4.75684E-6	 	10625.64	29.336	 
425.0	1.0	0.0	2.60931	10.37317	-9.09243	26.65715	192.4427	0.0888819	11.25088	51.69672	61.1464	19.01887	0.35909	 	850182.6327	 	4.00796E-6	 	10479.269	29.2742	 
420.0	1.0	0.0	2.61048	10.3685	-9.1333	26.60307	192.53506	0.088203	11.33748	51.94571	61.2911	19.11531	0.35875	 	1004239.585	 	3.36881E-6	 	10333.199	29.214	 
415.0	1.0	0.0	2.61165	10.36386	-9.17402	26.54901	192.62408	0.0875263	11.42514	52.19359	61.43463	19.21137	0.3584	 	1189086.509	 	2.8246E-6	 	10187.426	29.1546	 
410.0	1.0	0.0	2.61282	10.35923	-9.2146	26.49499	192.70974	0.0868517	11.51388	52.44037	61.57703	19.30705	0.35806	 	1411444.0	 	2.36232E-6	 	10041.95	29.0952	 
405.0	1.0	0.0	2.61398	10.35461	-9.25503	26.441	192.79199	0.0861793	11.60372	52.68604	61.71828	19.40233	0.35772	 	1679622.543	 	1.97061E-6	 	9896.77	29.036	 
400.0	1.0	0.0	2.61514	10.35002	-9.29532	26.38704	192.87077	0.0855089	11.69468	52.9306	61.85842	19.49723	0.35739	 	2003927.679	 	1.63952E-6	 	9751.885	28.977	 
395.0	1.0	0.0	2.6163	10.34544	-9.33546	26.33311	192.94604	0.0848407	11.7868	53.17406	61.99746	19.59174	0.35705	 	2397175.857	 	1.36038E-6	 	9607.294	28.9182	 
390.0	1.0	0.0	2.61745	10.34087	-9.37545	26.27921	193.01775	0.0841745	11.88008	53.41641	62.1354	19.68586	0.35672	 	2875353.228	 	1.12566E-6	 	9462.997	28.8594	 
385.0	1.0	0.0	2.61861	10.33633	-9.4153	26.22535	193.08586	0.0835104	11.97456	53.65765	62.27227	19.77958	0.35639	 	3458459.667	 	9.28814E-7	 	9318.993	28.8008	 
380.0	1.0	0.0	2.61975	10.3318	-9.455	26.17152	193.1503	0.0828483	12.07025	53.89778	62.40807	19.87292	0.35606	 	4171593.595	 	7.64183E-7	 	9175.281	28.7424	 
375.0	1.0	0.0	2.6209	10.32728	-9.49456	26.11772	193.21102	0.0821882	12.16719	54.13681	62.54282	19.96587	0.35573	 	5046350.925	 	6.26881E-7	 	9031.861	28.684	 
370.0	1.0	0.0	2.62204	10.32278	-9.53397	26.06395	193.26798	0.0815302	12.2654	54.37473	62.67653	20.05842	0.35541	 	6122635.166	 	5.12697E-7	 	8888.731	28.626	 
365.0	1.0	0.0	2.62318	10.3183	-9.57324	26.01021	193.3211	0.0808741	12.36489	54.61154	62.80921	20.15058	0.35509	 	7451007.622	 	4.18018E-7	 	8745.891	28.568	 
360.0	1.0	0.0	2.62432	10.31384	-9.61236	25.95651	193.37034	0.08022	12.46571	54.84724	62.94088	20.24234	0.35477	 	9095749.614	 	3.39746E-7	 	8603.341	28.51	 
355.0	1.0	0.0	2.62545	10.30939	-9.65134	25.90284	193.41563	0.0795679	12.56788	55.08184	63.07154	20.33371	0.35445	 	1.113886682E7	 	2.75238E-7	 	8461.08	28.4522	 
350.0	1.0	0.0	2.62658	10.30496	-9.69017	25.8492	193.45692	0.0789177	12.67143	55.31533	63.20122	20.42469	0.35413	 	1.368534487E7	 	2.22241E-7	 	8319.107	28.3946	 
345.0	1.0	0.0	2.6277	10.30055	-9.72886	25.79559	193.49413	0.0782694	12.77638	55.54772	63.32991	20.51527	0.35381	 	1.687007333E7	 	1.7884E-7	 	8177.422	28.337	 
340.0	1.0	0.0	2.62882	10.29615	-9.76741	25.74201	193.5272	0.0776231	12.88277	55.779	63.45764	20.60546	0.3535	 	2.086700262E7	 	1.43415E-7	 	8036.023	28.2798	 
335.0	1.0	0.0	2.62994	10.29177	-9.80581	25.68847	193.55607	0.0769786	12.99062	56.00917	63.58441	20.69524	0.35319	 	2.590130209E7	 	1.14598E-7	 	7894.911	28.2224	 
330.0	1.0	0.0	2.63106	10.2874	-9.84407	25.63496	193.58066	0.076336	13.09998	56.23823	63.71024	20.78463	0.35288	 	3.226556784E7	 	9.12374E-8	 	7754.086	28.165	 
325.0	1.0	0.0	2.63217	10.28305	-9.88218	25.58148	193.6009	0.0756953	13.21086	56.46619	63.83513	20.87362	0.35257	 	4.034151852E7	 	7.23677E-8	 	7613.545	28.1082	 
320.0	1.0	0.0	2.63328	10.27872	-9.92015	25.52803	193.61672	0.0750564	13.32331	56.69305	63.95911	20.96222	0.35227	 	5.062916043E7	 	5.71808E-8	 	7473.29	28.051	 
315.0	1.0	0.0	2.63439	10.2744	-9.95797	25.47461	193.62803	0.0744194	13.43736	56.91879	64.08216	21.05041	0.35196	 	6.378616281E7	 	4.50037E-8	 	7333.32	27.994	 
310.0	1.0	0.0	2.63549	10.2701	-9.99565	25.42123	193.63477	0.0737841	13.55305	57.14343	64.20432	21.1382	0.35166	 	8.06812539E7	 	3.52772E-8	 	7193.634	27.9372	 
305.0	1.0	0.0	2.63659	10.26582	-10.03319	25.36788	193.63685	0.0731507	13.67041	57.36697	64.32559	21.22559	0.35136	 	1.024669591E8	 	2.75387E-8	 	7054.232	27.8804	 
300.0	1.0	0.0	2.63769	10.26155	-10.07059	25.31456	193.63418	0.0725191	13.78947	57.58939	64.44597	21.31258	0.35107	 	1.306791485E8	 	2.14066E-8	 	6915.113	27.8238	 
295.0	1.0	0.0	2.63878	10.2573	-10.10784	25.26127	193.62668	0.0718892	13.91029	57.81071	64.56548	21.39917	0.35077	 	1.673739261E8	 	1.65677E-8	 	6776.278	27.767	 
290.0	1.0	0.0	2.63987	10.25307	-10.14495	25.20801	193.61425	0.0712612	14.03289	58.03093	64.68413	21.48536	0.35048	 	2.153167858E8	 	1.27654E-8	 	6637.726	27.7104	 
285.0	1.0	0.0	2.64096	10.24885	-10.18191	25.15478	193.5968	0.0706348	14.15732	58.25004	64.80193	21.57114	0.35018	 	2.782453027E8	 	9.79061E-9	 	6499.457	27.6538	 
280.0	1.0	0.0	2.64204	10.24465	-10.21874	25.10159	193.57424	0.0700102	14.28363	58.46804	64.91889	21.65652	0.34989	 	3.612358217E8	 	7.47375E-9	 	6361.47	27.5974	 
275.0	1.0	0.0	2.64312	10.24046	-10.25542	25.04843	193.54646	0.0693873	14.41185	58.68494	65.03502	21.7415	0.34961	 	4.712180095E8	 	5.67759E-9	 	6223.766	27.5408	 
270.0	1.0	0.0	2.6442	10.23629	-10.29195	24.9953	193.51337	0.0687662	14.54203	58.90073	65.15032	21.82606	0.34932	 	6.177008029E8	 	4.29169E-9	 	6086.345	27.4842	 
265.0	1.0	0.0	2.64527	10.23214	-10.32835	24.9422	193.47485	0.0681467	14.67422	59.11542	65.26481	21.91023	0.34904	 	8.13802282E8	 	3.22754E-9	 	5949.206	27.4278	 
260.0	1.0	0.0	2.64634	10.228	-10.3646	24.88914	193.43078	0.0675289	14.80847	59.329	65.37849	21.99399	0.34876	 	1.07771903E9	 	2.41452E-9	 	5812.349	27.3714	 
255.0	1.0	0.0	2.64741	10.22388	-10.40071	24.83611	193.38107	0.0669128	14.94482	59.54147	65.49138	22.07734	0.34848	 	1.434834786E9	 	1.79656E-9	 	5675.775	27.3148	 
250.0	1.0	0.0	2.64847	10.21978	-10.43668	24.7831	193.32558	0.0662984	15.08332	59.75284	65.60348	22.16028	0.3482	 	1.920764693E9	 	1.32935E-9	 	5539.483	27.2584	 
245.0	1.0	0.0	2.64953	10.21569	-10.47251	24.73013	193.26419	0.0656856	15.22404	59.96311	65.71481	22.24281	0.34792	 	2.585777391E9	 	9.78028E-10	 	5403.474	27.2018	 
240.0	1.0	0.0	2.65058	10.21162	-10.50819	24.6772	193.19678	0.0650745	15.36701	60.17227	65.82536	22.32494	0.34765	 	3.501259238E9	 	7.15331E-10	 	5267.749	27.145	 
235.0	1.0	0.0	2.65164	10.20756	-10.54373	24.62429	193.1232	0.0644649	15.51231	60.38032	65.93515	22.40666	0.34737	 	4.769225312E9	 	5.20033E-10	 	5132.306	27.0886	 
230.0	1.0	0.0	2.65269	10.20352	-10.57914	24.57142	193.04332	0.063857	15.65998	60.58727	66.04419	22.48797	0.3471	 	6.536406872E9	 	3.75703E-10	 	4997.147	27.0318	 
225.0	1.0	0.0	2.65373	10.1995	-10.6144	24.51858	192.95699	0.0632508	15.81009	60.79311	66.15249	22.56886	0.34684	 	9.015261072E9	 	2.69692E-10	 	4862.272	26.975	 
220.0	1.0	0.0	2.65478	10.19549	-10.64952	24.46577	192.86407	0.0626461	15.96269	60.99785	66.26004	22.64935	0.34657	 	1.2515499999999998E10	 	1.92317E-10	 	4727.681	26.9182	 
215.0	1.0	0.0	2.65582	10.1915	-10.68449	24.41299	192.7644	0.062043	16.11786	61.20148	66.36687	22.72942	0.34631	 	1.7492E10	 	1.36208E-10	 	4593.375	26.8612	 
210.0	1.0	0.0	2.65685	10.18753	-10.71933	24.36024	192.65781	0.0614414	16.27566	61.404	66.47298	22.80908	0.34604	 	2.4617099999999996E10	 	9.57925E-11	 	4459.355	26.804	 
205.0	1.0	0.0	2.65789	10.18357	-10.75403	24.30753	192.54413	0.0608415	16.43615	61.60543	66.57838	22.88833	0.34578	 	3.48931E10	 	6.68824E-11	 	4325.621	26.7468	 
200.0	1.0	0.0	2.65892	10.17963	-10.78858	24.25485	192.4232	0.0602431	16.5994	61.80574	66.68307	22.96717	0.34552	 	4.982459999999999E10	 	4.63492E-11	 	4192.175	26.6892	 
195.0	1.0	0.0	2.65994	10.1757	-10.823	24.20219	192.29481	0.0596463	16.7655	62.00496	66.78706	23.04559	0.34527	 	7.1689E10	 	3.18727E-11	 	4059.016	26.6318	 
190.0	1.0	0.0	2.66096	10.17179	-10.85727	24.14958	192.15879	0.059051	16.9345	62.20306	66.89037	23.1236	0.34501	 	1.03962E11	 	2.17438E-11	 	3926.146	26.574	 
185.0	1.0	0.0	2.66198	10.16789	-10.8914	24.09699	192.01493	0.0584573	17.1065	62.40007	66.99299	23.2012	0.34476	 	1.5199E11	 	1.47122E-11	 	3793.567	26.5158	 
180.0	1.0	0.0	2.663	10.16401	-10.9254	24.04444	191.86302	0.0578651	17.28157	62.59596	67.09493	23.27837	0.34451	 	2.24078E11	 	9.87026E-12	 	3661.278	26.4578	 
175.0	1.0	0.0	2.66401	10.16015	-10.95925	23.99191	191.70285	0.0572744	17.45979	62.79076	67.19621	23.35514	0.34426	 	3.33231E11	 	6.56394E-12	 	3529.283	26.399	 
170.0	1.0	0.0	2.66502	10.1563	-10.99296	23.93942	191.53419	0.0566853	17.64125	62.98445	67.29682	23.43148	0.34401	 	5.00011E11	 	4.32571E-12	 	3397.581	26.3404	 
165.0	1.0	0.0	2.66603	10.15247	-11.02653	23.88696	191.35679	0.0560977	17.82604	63.17703	67.39678	23.50741	0.34377	 	7.57245E11	 	2.82405E-12	 	3266.175	26.2812	 
160.0	1.0	0.0	2.66703	10.14866	-11.05997	23.83454	191.17041	0.0555116	18.01425	63.36851	67.49609	23.58292	0.34353	 	1.15786E12	 	1.82587E-12	 	3135.065	26.222	 
155.0	1.0	0.0	2.66803	10.14486	-11.09326	23.78214	190.9748	0.054927	18.20598	63.55889	67.59477	23.65801	0.34328	 	1.78805E12	 	1.1687E-12	 	3004.255	26.162	 
150.0	1.0	0.0	2.66902	10.14108	-11.12642	23.72978	190.76967	0.0543439	18.40132	63.74816	67.69281	23.73269	0.34305	 	2.78975E12	 	7.40312E-13	 	2873.746	26.1018	 
145.0	1.0	0.0	2.67001	10.13731	-11.15943	23.67745	190.55474	0.0537624	18.60037	63.93633	67.79022	23.80694	0.34281	 	4.39918E12	 	4.63924E-13	 	2743.54	26.0412	 
140.0	1.0	0.0	2.671	10.13356	-11.19231	23.62515	190.32971	0.0531823	18.80324	64.12339	67.88701	23.88078	0.34257	 	7.01399E12	 	2.87494E-13	 	2613.639	25.9802	 
135.0	1.0	0.0	2.67199	10.12982	-11.22504	23.57288	190.09428	0.0526038	19.01005	64.30935	67.98318	23.9542	0.34234	 	1.13115E13	 	1.7611E-13	 	2484.046	25.9186	 
130.0	1.0	0.0	2.67297	10.1261	-11.25764	23.52065	189.8481	0.0520267	19.22089	64.49421	68.07875	24.02719	0.34211	 	1.84598E13	 	1.06592E-13	 	2354.763	25.8566	 
125.0	1.0	0.0	2.67395	10.1224	-11.2901	23.46845	189.59083	0.0514512	19.43589	64.67796	68.17372	24.09976	0.34188	 	3.04983E13	 	6.37174E-14	 	2225.794	25.7938	 
120.0	1.0	0.0	2.67492	10.11871	-11.32242	23.41627	189.32212	0.0508772	19.65518	64.86061	68.26809	24.17192	0.34165	 	5.10351E13	 	3.7599E-14	 	2097.141	25.7306	 
115.0	1.0	0.0	2.67589	10.11504	-11.3546	23.36413	189.04157	0.0503047	19.87887	65.04215	68.36187	24.24365	0.34143	 	8.65413E13	 	2.18909E-14	 	1968.807	25.6668	 
110.0	1.0	0.0	2.67686	10.11138	-11.38664	23.31203	188.74879	0.0497337	20.10709	65.2226	68.45507	24.31495	0.3412	 	1.48787E14	 	1.25687E-14	 	1840.797	25.602	 
105.0	1.0	0.0	2.67782	10.10774	-11.41855	23.25995	188.44336	0.0491642	20.33999	65.40194	68.54769	24.38584	0.34098	 	2.5949399999999997E14	 	7.11251E-15	 	1713.113	25.5368	 
100.0	1.0	0.0	2.67879	10.10412	-11.45031	23.20791	188.12483	0.0485963	20.57769	65.58017	68.63975	24.4563	0.34076	 	4.59373E14	 	3.96465E-15	 	1585.761	25.4704	 
95.0	1.0	0.0	2.67974	10.10051	-11.48194	23.1559	187.79272	0.04803	20.82034	65.7573	68.73123	24.52634	0.34054	 	8.25925E14	 	2.17556E-15	 	1458.743	25.4036	 
90.0	1.0	0.0	2.6807	10.09692	-11.51343	23.10392	187.44655	0.0474651	21.0681	65.93333	68.82216	24.59595	0.34033	 	1.50915E15	 	1.17447E-15	 	1332.066	25.3354	 
85.0	1.0	0.0	2.68165	10.09334	-11.54478	23.05197	187.08579	0.0469019	21.32111	66.10826	68.91253	24.66514	0.34012	 	2.80435E15	 	6.23333E-16	 	1205.734	25.2664	 
80.0	1.0	0.0	2.68259	10.08978	-11.576	23.00006	186.7099	0.0463402	21.57953	66.28209	69.00236	24.7339	0.3399	 	5.30337E15	 	3.25008E-16	 	1079.751	25.1966	 
75.0	1.0	0.0	2.68354	10.08623	-11.60707	22.94817	186.31827	0.0457801	21.84354	66.45481	69.09164	24.80223	0.33969	 	1.02146E16	 	1.66354E-16	 	954.125	25.1252	 
70.0	1.0	0.0	2.68448	10.0827	-11.63801	22.89632	185.91031	0.0452217	22.11329	66.62643	69.18039	24.87014	0.33949	 	2.00532E16	 	8.35192E-17	 	828.861	25.0528	 
65.0	1.0	0.0	2.68541	10.07919	-11.66881	22.8445	185.48536	0.0446648	22.38897	66.79695	69.2686	24.93763	0.33928	 	4.01617E16	 	4.10945E-17	 	703.965	24.9792	 
60.0	1.0	0.0	2.68634	10.07569	-11.69948	22.79271	185.04271	0.0441097	22.67076	66.96637	69.35629	25.00468	0.33908	 	8.21286E16	 	1.97985E-17	 	579.445	24.904	 
55.0	1.0	0.0	2.68727	10.0722	-11.73001	22.74095	184.58164	0.0435562	22.95884	67.13468	69.44346	25.07131	0.33887	 	1.7165E17	 	9.33072E-18	 	455.309	24.8272	 
50.0	1.0	0.0	2.6882	10.06873	-11.7604	22.68923	184.10136	0.0430044	23.25342	67.30189	69.53012	25.13751	0.33867	 	3.67029E17	 	4.29725E-18	 	331.563	24.7492	 
45.0	1.0	0.0	2.68912	10.06528	-11.79065	22.63754	183.60106	0.0424544	23.55468	67.46801	69.61626	25.20329	0.33848	 	8.03769E17	 	1.93191E-18	 	208.218	24.669	 
40.0	1.0	0.0	2.69004	10.06185	-11.82077	22.58588	183.07983	0.0419062	23.86283	67.63302	69.7019	25.26863	0.33828	 	1.80482E18	 	8.46848E-19	 	85.282	24.5872	 
35.0	1.0	0.0	2.69095	10.05843	-11.85075	22.53426	182.53674	0.0413598	24.17809	67.79693	69.78704	25.33355	0.33809	 	4.16041E18	 	3.61504E-19	 	-37.235	24.5034	 
30.0	1.0	0.0	2.69187	10.05502	-11.88059	22.48266	181.9708	0.0408152	24.50067	67.95974	69.87169	25.39803	0.33789	 	9.85832E18	 	1.50086E-19	 	-159.321	24.4172	 
25.0	1.0	0.0	2.69277	10.05163	-11.9103	 	181.38093	0.0402726	24.8308	68.12145	69.95585	25.46209	0.3377	 	2.40456E19	 	6.05181E-20	 	-280.965	 	 
