T (C)	Fraction solid (wt)-TOTAL	Fraction liquid (wt)-LIQUID	Density (g/(cm)^3)-TOTAL	Molar volume (cm^3)-TOTAL	Volume change (%)-  	Average expansion coeff. (10e-6 1/K)-  	Thermal conductivity (W/(m*K))-TOTAL	Electrical resistivity (10e-6 Ohm*m)-TOTAL	Electrical conductivity (10e6 1/(Ohm*m))-TOTAL	Young's modulus (GPa)-TOTAL	Bulk modulus (GPa)-TOTAL	Shear modulus(GPa)-TOTAL	Poisson's ratio-TOTAL	Liquid viscosity (mPa s)-  	Total viscosity (mPa s)-  	Liquid diffusivity (10e-9 (m^2)/s)-  	Total diffusivity (10e-9 (m^2)/s)-  	Surface Tension (mN/m)-  	Enthalpy (J/mole)-TOTAL	Specific heat (J/(mole K))-TOTAL	Latent heat (J/mole)-TOTAL
700.0	0.00155	0.99845	2.46131	11.39367	0.0	67.06471	88.70222	0.26879	3.72039	1.00103E-10	49.374	3.33747E-11	0.49969	1.26388	1.26388	3.75802	3.75802	723.94088	29620.387	 	0.0
695.0	0.00169	0.99831	2.46304	11.38569	-0.0699875	67.16971	88.52981	0.26793	3.73234	1.40544E-10	49.44475	4.68585E-11	0.49966	1.27725	1.27725	3.69958	3.69958	724.91452	29459.285	32.2204	2.165
690.0	0.00182	0.99818	2.46477	11.37763	-0.14073	67.272	88.35657	0.26707	3.74437	1.89429E-10	49.51499	6.31585E-11	0.49963	1.29091	1.29091	3.64152	3.64152	725.88787	29298.293	32.1984	4.218
685.0	0.00194	0.99806	2.4665	11.36975	-0.20997	67.38444	88.18434	0.2662	3.75657	2.46885E-10	49.58579	8.23163E-11	0.49961	1.30487	1.30487	3.58387	3.58387	726.86081	29137.407	32.1772	6.166
680.0	0.00205	0.99795	2.46821	11.36178	-0.27992	67.49451	88.01125	0.26533	3.76887	3.12801E-10	49.65611	1.04296E-10	0.49958	1.31913	1.31913	3.52662	3.52662	727.83345	28976.622	32.157	8.015
675.0	0.00216	0.99784	2.46993	11.35395	-0.34856	67.61388	87.83916	0.26446	3.78133	3.87022E-10	49.72694	1.29045E-10	0.49957	1.33371	1.33371	3.46978	3.46978	728.80569	28815.936	32.1372	9.769
670.0	0.00227	0.99773	2.47164	11.34607	-0.41779	67.73164	87.66623	0.26358	3.7939	4.69155E-10	49.7973	1.56433E-10	0.49954	1.34861	1.34861	3.41334	3.41334	729.77763	28655.342	32.1188	11.428
665.0	0.00236	0.99764	2.47334	11.33821	-0.48672	67.85303	87.49342	0.2627	3.8066	5.58586E-10	49.86765	1.86255E-10	0.49952	1.36385	1.36385	3.35732	3.35732	730.7492	28494.837	32.101	13.001
663.93	0.00238	0.99762	2.47371	11.33663	-0.50058	67.88453	87.45713	0.26251	3.80936	5.78703E-10	49.88312	1.92963E-10	0.49952	1.36715	1.36715	3.34538	3.34538	730.95705	28460.495	32.0911	13.328
660.0	0.00347	0.99653	2.47523	11.32963	-0.56204	67.93826	87.33289	0.26178	3.81997	7.21416E-10	49.94412	2.40593E-10	0.49924	1.3787	1.3787	3.30346	3.30346	731.72516	28317.123	36.4827	31.776
655.0	0.00476	0.99524	2.47715	11.32086	-0.63899	68.015	87.174	0.26085	3.83356	2.21675E-9	50.02234	7.39452E-10	0.49892	1.39373	1.39373	3.25031	3.25031	732.70176	28136.391	36.1464	53.763
650.0	0.00597	0.99403	2.47905	11.31217	-0.71533	68.0967	87.01366	0.25993	3.84724	8.37375E-9	50.10057	2.79384E-9	0.49861	1.40917	1.40917	3.19738	3.19738	733.67764	27957.565	35.7652	74.17
645.0	0.00709	0.99291	2.48093	11.30365	-0.79008	68.18936	86.85277	0.259	3.86104	2.336E-8	50.17914	7.79537E-9	0.49832	1.42503	1.42503	3.14469	3.14469	734.63086	27780.527	35.4076	93.122
640.0	0.00814	0.99186	2.48279	11.29515	-0.86469	68.28445	86.69032	0.25807	3.87492	5.12417E-8	50.25742	1.71027E-8	0.49806	1.4413	1.4413	3.09225	3.09225	735.60657	27605.166	35.0722	110.738
638.0	0.00854	0.99146	2.48353	11.29177	-0.89436	68.32404	86.62507	0.2577	3.8805	6.66652E-8	50.28869	2.22521E-8	0.49796	1.44793	1.44793	3.07135	3.07135	735.99669	27535.506	 	117.391
630.0	0.35092	0.64908	2.54264	11.02926	-3.19833	54.80946	105.645	0.20945	4.77445	0.51503	50.66215	0.17694	0.4554	1.49723	74.63753	2.94413	0.0590594	734.76305	23629.092	397.607	3772.354
628.61	0.38786	0.61214	2.54931	11.0004	-3.45167	53.34666	108.18351	0.20422	4.89671	0.78514	50.73915	0.27062	0.45064	1.50609	113.52027	2.92231	0.0387708	734.59731	23190.709	 	4167.136
625.0	0.47888	0.52112	2.56608	10.92852	-4.08255	49.68675	114.8957	0.19152	5.22142	1.89186	50.90094	0.65767	0.4383	1.52668	279.75338	2.87135	0.0156697	734.14746	22092.53	307.312	5152.199
620.0	0.57521	0.42479	2.58434	10.85127	-4.76056	45.79006	122.89166	0.17806	5.61606	4.10687	51.10628	1.44114	0.42487	1.55631	639.29842	2.80102	0.00681879	733.60861	20895.085	239.489	6193.27
615.0	0.64562	0.35438	2.59818	10.79349	-5.26764	42.92424	129.64767	0.16784	5.95816	6.73767	51.30306	2.38119	0.41477	1.58698	1118.96423	2.7315	0.00387398	733.18415	19978.445	183.328	6953.877
613.51	0.66255	0.33745	2.60159	10.77931	-5.39207	42.23249	131.38501	0.16534	6.04816	7.53555	51.36225	2.66782	0.4123	1.59633	1278.43788	2.71094	0.00338504	733.08222	19748.774	 	7137.082
610.0	0.69993	0.30007	2.60914	10.74817	-5.66545	40.71656	135.41994	0.15978	6.25867	9.55682	51.50587	3.39641	0.4069	1.61797	1708.14172	2.6641	0.00252346	732.82396	19235.707	148.548	7540.919
605.0	0.7424	0.2576	2.61799	10.71181	-5.98458	38.98441	140.24546	0.15341	6.5186	12.35712	51.70555	4.41129	0.40063	1.64985	2393.15144	2.59784	0.00179096	732.55496	18622.093	122.723	7999.179
604.28	0.7476	0.2524	2.61911	10.70722	-6.02484	38.77	140.85746	0.15261	6.55245	12.74229	51.73467	4.55132	0.39984	1.65457	2497.91081	2.58829	0.00171443	732.5258	18543.355	 	8055.429
604.27	0.74761	0.25239	2.61911	10.70722	-6.02487	38.7699	140.85775	0.15261	6.55247	12.74248	51.7347	4.55139	0.39984	1.65457	2497.95679	2.58828	0.0017144	732.52582	18543.276	 	8055.481
600.0	0.77579	0.22421	2.62527	10.68213	-6.24502	37.60852	144.19646	0.14835	6.74062	15.00051	51.90077	5.3745	0.39553	1.68236	3163.65895	2.53313	0.00134706	732.36872	18102.18	103.983	8364.076
595.0	0.80227	0.19773	2.63131	10.6576	-6.46037	36.50805	147.43847	0.14426	6.93186	17.42039	52.09458	6.26015	0.39137	1.71618	4017.75785	2.46899	0.00105462	732.27928	17657.934	88.8492	8653.641
590.0	0.82352	0.17648	2.63642	10.63695	-6.64155	35.61708	150.11079	0.14088	7.09839	19.59936	52.2884	7.06053	0.38795	1.75144	4960.27185	2.40535	8.49312E-4	732.28184	17271.282	77.3304	8885.949
585.0	0.84088	0.15912	2.64083	10.61917	-6.79766	34.87963	152.34123	0.13801	7.24583	21.56032	52.48209	7.78307	0.38508	1.78815	6004.92536	2.34232	6.97497E-4	732.3665	16927.302	68.796	9075.919
580.0	0.85529	0.14471	2.64471	10.60359	-6.93439	34.26116	154.22251	0.13553	7.3783	23.32718	52.67565	8.43584	0.38262	1.82632	7167.94585	2.28	5.80921E-4	732.52441	16615.716	62.3172	9233.827
575.0	0.8674	0.1326	2.64818	10.5897	-7.05623	33.73389	155.82518	0.13335	7.49892	24.9248	52.86891	9.02748	0.3805	1.86597	8468.79415	2.21848	4.88807E-4	732.74827	16329.26	57.2912	9366.935
570.0	0.8777	0.1223	2.65132	10.57716	-7.16634	33.27846	157.20224	0.13141	7.61006	26.37515	53.06163	9.56574	0.37862	1.90711	9929.72532	2.15782	4.14433E-4	733.03172	16062.573	53.3374	9480.602
565.0	0.88654	0.11346	2.6542	10.5657	-7.26693	32.88134	158.39454	0.12964	7.71352	27.69729	53.25375	10.05738	0.37696	1.94977	11576.56376	2.09809	3.53369E-4	733.36915	15812.078	50.099	9578.404
560.81	0.89302	0.10698	2.65644	10.55677	-7.34529	32.58491	159.27548	0.12828	7.7954	28.71869	53.41433	10.43782	0.3757	1.98671	13121.71148	2.04878	3.10199E-4	733.69031	15612.21	 	9650.522
560.81	0.89302	0.10698	2.65644	10.55677	-7.34529	32.58492	159.27547	0.12828	7.7954	28.7187	53.41434	10.43782	0.3757	1.98671	13121.73884	2.04878	3.10199E-4	733.69032	15612.203	 	9650.526
560.0	0.89609	0.10391	2.65712	10.55405	-7.36919	32.46504	159.67559	0.12784	7.82257	29.18771	53.45782	10.61248	0.37516	1.99559	13553.7085	2.03769	3.00021E-4	733.81219	15547.527	52.9102	9690.585
555.0	0.91173	0.088275	2.66085	10.53929	-7.4987	31.8461	161.70321	0.12547	7.96973	31.69512	53.7074	11.54807	0.37231	2.05103	16312.10325	1.97071	2.47791E-4	734.5316	15192.501	71.0052	9893.563
550.0	0.92286	0.07714	2.66387	10.52732	-7.60373	31.39203	163.15336	0.12361	8.09005	33.63423	53.93622	12.2737	0.37017	2.10742	19259.32461	1.90641	2.08605E-4	735.2207	14896.36	59.2282	10037.975
545.0	0.93113	0.068866	2.66645	10.51714	-7.69311	31.04313	164.23331	0.12205	8.19336	35.18453	54.15199	12.85524	0.36849	2.16473	22482.55081	1.84466	1.77613E-4	735.88864	14637.612	51.7496	10145.309
540.0	0.93749	0.062508	2.66873	10.50815	-7.77205	30.76416	165.0644	0.12069	8.28546	36.46131	54.35908	13.33518	0.36711	2.22294	26063.9521	1.78537	1.52271E-4	736.54359	14403.88	46.7464	10227.94
535.0	0.94252	0.057484	2.67081	10.49998	-7.84371	30.53383	165.72131	0.11948	8.3699	37.53992	54.55993	13.74139	0.36594	2.28212	30086.59183	1.72838	1.31101E-4	737.19233	14187.605	43.255	10293.427
530.0	0.94658	0.053422	2.67273	10.49243	-7.91003	30.33891	166.25251	0.11836	8.449	38.47149	54.75615	14.09283	0.36493	2.34231	34640.02211	1.67355	1.13163E-4	737.84013	13983.953	40.7304	10346.598
525.0	0.94993	0.050075	2.67454	10.48532	-7.97241	30.16991	166.69002	0.11731	8.52431	39.29166	54.94871	14.40273	0.36403	2.40353	39823.85405	1.62077	9.78201E-5	738.49127	13789.704	38.8498	10390.673
520.0	0.95273	0.04727	2.67627	10.47856	-8.03176	30.02074	167.05573	0.11632	8.59686	40.02546	55.13827	14.68042	0.36323	2.46587	45751.29457	1.5699	8.46133E-5	739.14893	13602.65	37.4108	10427.854
515.0	0.95511	0.044886	2.67793	10.47208	-8.08862	29.88777	167.36554	0.11537	8.66744	40.69102	55.32535	14.93263	0.36249	2.5294	52553.27747	1.52082	7.31974E-5	739.81522	13421.231	36.2838	10459.699
510.0	0.95717	0.042835	2.67953	10.46581	-8.14363	29.76647	167.63038	0.11446	8.73658	41.30224	55.51014	15.16457	0.3618	2.59417	60382.30527	1.47344	6.33027E-5	740.49232	13244.318	35.3826	10487.331
505.0	0.95895	0.041052	2.68109	10.45972	-8.19709	29.65486	167.85852	0.11358	8.80469	41.86918	55.69288	15.37998	0.36116	2.66028	69417.21365	1.42765	5.4712E-5	741.18138	13071.077	34.6482	10511.583
500.0	0.96051	0.039487	2.68261	10.45379	-8.24911	29.55237	168.05657	0.11271	8.87208	42.39903	55.87387	15.58152	0.36055	2.72779	79868.40255	1.38337	4.72471E-5	741.88283	12900.879	34.0396	10533.079
495.0	0.9619	0.038102	2.6841	10.44798	-8.3001	29.45605	168.22906	0.11187	8.939	42.8987	56.05307	15.77181	0.35998	2.79678	91985.85504	1.34052	4.07579E-5	742.59778	12733.242	33.5274	10552.299
490.0	0.96313	0.036868	2.68556	10.44229	-8.35008	29.36586	168.37984	0.11104	9.00563	43.37239	56.23067	15.95241	0.35943	2.86734	106064.8744	1.29903	3.51176E-5	743.32621	12567.788	33.0908	10569.616
485.0	0.96424	0.035761	2.687	10.43669	-8.39924	29.28042	168.51155	0.11023	9.07211	43.82402	56.40667	16.12477	0.3589	2.93953	122457.0823	1.25882	3.02175E-5	744.06853	12404.22	32.7136	10585.325
480.0	0.96524	0.034763	2.68843	10.43117	-8.44769	29.19906	168.62703	0.10943	9.1386	44.25686	56.5812	16.29012	0.3584	3.01347	141582.6784	1.21983	2.59632E-5	744.82476	12242.299	32.3842	10599.656
477.34	0.96573	0.034271	2.68917	10.42827	-8.47314	29.15754	168.68237	0.109	9.17396	44.47994	56.67334	16.3754	0.35813	3.05349	153025.5026	1.1996	2.3937E-5	745.23206	12156.864	 	10606.777
477.34	0.96573	0.034271	2.68917	10.42827	-8.47314	29.15754	168.68237	0.109	9.17396	44.47994	56.67334	16.3754	0.35813	3.05349	153025.5026	1.1996	2.3937E-5	745.23206	12156.864	 	10606.777
476.82	0.96711	0.032888	2.68949	10.42713	-8.4831	29.10793	168.77402	0.10887	9.18537	44.76634	56.69628	16.48498	0.35779	3.06839	156063.9463	1.19294	2.34545E-5	745.62699	12128.364	 	10619.805
476.7	1.0	0.0	2.69584	10.40254	-8.69895	27.30617	171.11861	0.10736	9.3144	50.10199	56.6496	18.52067	0.3526	 	173168.9263	 	2.11346E-5	 	11815.187	 	10929.61
470.0	1.0	0.0	2.69752	10.39606	-8.75577	27.23403	171.09888	0.10641	9.39733	50.47048	56.88554	18.66334	0.35213	 	210222.6695	 	1.72538E-5	 	11614.657	62.7642	 
465.0	1.0	0.0	2.69877	10.39125	-8.79799	27.18026	171.08037	0.10571	9.45996	50.74391	57.05981	18.76927	0.35178	 	243492.1742	 	1.47961E-5	 	11465.52	29.8274	 
460.0	1.0	0.0	2.70002	10.38646	-8.84006	27.12652	171.0586	0.10501	9.52327	51.01614	57.23263	18.87478	0.35144	 	282592.584	 	1.26625E-5	 	11316.748	29.7544	 
455.0	1.0	0.0	2.70126	10.38168	-8.88198	27.07281	171.03354	0.10431	9.58726	51.28716	57.40402	18.97988	0.35109	 	328643.2629	 	1.08139E-5	 	11168.332	29.6832	 
450.0	1.0	0.0	2.7025	10.37692	-8.92376	27.01914	171.00514	0.10361	9.65194	51.55698	57.574	19.08455	0.35075	 	382996.9815	 	9.21552E-6	 	11020.265	29.6134	 
445.0	1.0	0.0	2.70373	10.37218	-8.9654	26.9655	170.97339	0.10291	9.71734	51.8256	57.74258	19.18881	0.35041	 	447292.4316	 	7.83629E-6	 	10872.541	29.5448	 
440.0	1.0	0.0	2.70497	10.36745	-9.00688	26.91189	170.93824	0.10221	9.78346	52.09302	57.90979	19.29265	0.35007	 	523519.4216	 	6.64867E-6	 	10725.151	29.478	 
435.0	1.0	0.0	2.7062	10.36274	-9.04823	26.85831	170.89967	0.10152	9.85031	52.35923	58.07562	19.39607	0.34974	 	614100.0224	 	5.62824E-6	 	10578.089	29.4124	 
430.0	1.0	0.0	2.70742	10.35805	-9.08943	26.80476	170.85764	0.10083	9.91791	52.62424	58.24011	19.49906	0.3494	 	721989.8355	 	4.75339E-6	 	10431.348	29.3482	 
425.0	1.0	0.0	2.70865	10.35337	-9.13048	26.75125	170.81211	0.10014	9.98628	52.88805	58.40327	19.60164	0.34907	 	850804.7102	 	4.00503E-6	 	10284.921	29.2854	 
420.0	1.0	0.0	2.70987	10.34871	-9.17139	26.69777	170.76306	0.0994488	10.05543	53.15066	58.56511	19.70379	0.34874	 	1004979.743	 	3.36633E-6	 	10138.801	29.224	 
415.0	1.0	0.0	2.71108	10.34407	-9.21215	26.64432	170.71043	0.0987618	10.12537	53.41206	58.72564	19.80552	0.34841	 	1189969.339	 	2.8225E-6	 	9992.983	29.1636	 
410.0	1.0	0.0	2.7123	10.33944	-9.25277	26.59091	170.6542	0.0980765	10.19612	53.67227	58.88489	19.90683	0.34809	 	1412499.669	 	2.36056E-6	 	9847.463	29.104	 
405.0	1.0	0.0	2.71351	10.33483	-9.29325	26.53752	170.59433	0.0973929	10.26769	53.93127	59.04286	20.00771	0.34776	 	1680888.15	 	1.96913E-6	 	9702.24	29.0446	 
400.0	1.0	0.0	2.71471	10.33023	-9.33358	26.48417	170.53077	0.0967108	10.3401	54.18909	59.19959	20.10817	0.34744	 	2005448.984	 	1.63828E-6	 	9557.313	28.9854	 
395.0	1.0	0.0	2.71592	10.32565	-9.37376	26.43086	170.46349	0.0960304	10.41337	54.4457	59.35506	20.2082	0.34712	 	2399009.459	 	1.35934E-6	 	9412.682	28.9262	 
390.0	1.0	0.0	2.71712	10.32109	-9.41381	26.37757	170.39244	0.0953515	10.48751	54.70111	59.5093	20.30781	0.3468	 	2877569.339	 	1.12479E-6	 	9268.346	28.8672	 
385.0	1.0	0.0	2.71832	10.31654	-9.45371	26.32431	170.31758	0.0946742	10.56254	54.95532	59.66232	20.40699	0.34648	 	3461145.648	 	9.28093E-7	 	9124.303	28.8086	 
380.0	1.0	0.0	2.71951	10.31201	-9.49346	26.27109	170.23887	0.0939984	10.63848	55.20833	59.81414	20.50575	0.34617	 	4174858.475	 	7.63586E-7	 	8980.554	28.7498	 
375.0	1.0	0.0	2.7207	10.3075	-9.53307	26.2179	170.15625	0.0933241	10.71535	55.46014	59.96477	20.60408	0.34585	 	5050331.202	 	6.26386E-7	 	8837.097	28.6914	 
370.0	1.0	0.0	2.72189	10.303	-9.57254	26.16475	170.06969	0.0926513	10.79316	55.71076	60.11422	20.70198	0.34554	 	6127502.27	 	5.1229E-7	 	8693.931	28.6332	 
365.0	1.0	0.0	2.72307	10.29852	-9.61187	26.11162	169.97914	0.09198	10.87193	55.96018	60.2625	20.79945	0.34523	 	7456977.561	 	4.17683E-7	 	8551.057	28.5748	 
360.0	1.0	0.0	2.72425	10.29406	-9.65105	26.05853	169.88454	0.0913101	10.95169	56.2084	60.40963	20.89649	0.34492	 	9103095.475	 	3.39472E-7	 	8408.472	28.517	 
355.0	1.0	0.0	2.72543	10.28961	-9.69009	26.00547	169.78584	0.0906417	11.03245	56.45542	60.55563	20.9931	0.34462	 	1.114793503E7	 	2.75015E-7	 	8266.178	28.4588	 
350.0	1.0	0.0	2.7266	10.28518	-9.72899	25.95244	169.68299	0.0899747	11.11424	56.70125	60.70049	21.08929	0.34431	 	1.369657644E7	 	2.22058E-7	 	8124.172	28.4012	 
345.0	1.0	0.0	2.72778	10.28076	-9.76774	25.89945	169.57595	0.0893091	11.19707	56.94588	60.84424	21.18504	0.34401	 	1.688403167E7	 	1.78692E-7	 	7982.454	28.3436	 
340.0	1.0	0.0	2.72894	10.27637	-9.80635	25.84648	169.46464	0.0886449	11.28097	57.18932	60.98689	21.28036	0.34371	 	2.088441015E7	 	1.43295E-7	 	7841.024	28.286	 
335.0	1.0	0.0	2.73011	10.27198	-9.84482	25.79355	169.34901	0.0879821	11.36595	57.43156	61.12844	21.37524	0.34341	 	2.592308861E7	 	1.14501E-7	 	7699.882	28.2284	 
330.0	1.0	0.0	2.73127	10.26762	-9.88314	25.74065	169.22901	0.0873206	11.45205	57.6726	61.26892	21.4697	0.34312	 	3.229293465E7	 	9.116E-8	 	7559.025	28.1714	 
325.0	1.0	0.0	2.73243	10.26327	-9.92133	25.68779	169.10457	0.0866604	11.53929	57.91245	61.40832	21.56372	0.34282	 	4.037602382E7	 	7.23058E-8	 	7418.455	28.114	 
320.0	1.0	0.0	2.73358	10.25893	-9.95937	25.63495	168.97563	0.0860016	11.62769	58.15111	61.54667	21.65731	0.34253	 	5.067283345E7	 	5.71316E-8	 	7278.17	28.057	 
315.0	1.0	0.0	2.73473	10.25461	-9.99727	25.58215	168.84212	0.0853441	11.71727	58.38857	61.68397	21.75046	0.34224	 	6.384165715E7	 	4.49646E-8	 	7138.171	27.9998	 
310.0	1.0	0.0	2.73588	10.25031	-10.03502	25.52938	168.70397	0.0846878	11.80807	58.62483	61.82024	21.84318	0.34195	 	8.075205436E7	 	3.52463E-8	 	6998.456	27.943	 
305.0	1.0	0.0	2.73702	10.24603	-10.07264	25.47664	168.56113	0.0840329	11.90011	58.8599	61.95548	21.93546	0.34166	 	1.025576618E8	 	2.75143E-8	 	6859.025	27.8862	 
300.0	1.0	0.0	2.73817	10.24176	-10.11011	25.42394	168.4135	0.0833792	11.99341	59.09378	62.08971	22.02731	0.34138	 	1.307958425E8	 	2.13876E-8	 	6719.878	27.8294	 
295.0	1.0	0.0	2.7393	10.2375	-10.14745	25.37127	168.26102	0.0827267	12.088	59.32646	62.22293	22.11872	0.34109	 	1.675247149E8	 	1.65528E-8	 	6581.014	27.7728	 
290.0	1.0	0.0	2.74044	10.23326	-10.18464	25.31863	168.10361	0.0820754	12.18392	59.55796	62.35516	22.20969	0.34081	 	2.15512504E8	 	1.27538E-8	 	6442.434	27.716	 
285.0	1.0	0.0	2.74157	10.22904	-10.22169	25.26602	167.9412	0.0814254	12.28118	59.78825	62.48641	22.30023	0.34053	 	2.78500507E8	 	9.78164E-9	 	6304.137	27.6594	 
280.0	1.0	0.0	2.7427	10.22484	-10.2586	25.21344	167.77369	0.0807765	12.37983	60.01736	62.61668	22.39033	0.34025	 	3.61570165E8	 	7.46684E-9	 	6166.123	27.6028	 
275.0	1.0	0.0	2.74382	10.22065	-10.29536	25.1609	167.601	0.0801288	12.4799	60.24527	62.74599	22.47998	0.33998	 	4.716581595E8	 	5.67229E-9	 	6028.391	27.5464	 
270.0	1.0	0.0	2.74494	10.21648	-10.33199	25.10839	167.42304	0.0794823	12.58141	60.47199	62.87435	22.5692	0.3397	 	6.182831344E8	 	4.28765E-9	 	5890.941	27.49	 
265.0	1.0	0.0	2.74606	10.21232	-10.36848	25.05591	167.23972	0.078837	12.6844	60.69752	63.00176	22.65798	0.33943	 	8.145766744E8	 	3.22447E-9	 	5753.774	27.4334	 
260.0	1.0	0.0	2.74717	10.20818	-10.40482	25.00346	167.05095	0.0781928	12.78891	60.92185	63.12823	22.74632	0.33916	 	1.078754257E9	 	2.4122E-9	 	5616.889	27.377	 
255.0	1.0	0.0	2.74828	10.20405	-10.44103	24.95105	166.85663	0.0775497	12.89496	61.14499	63.25379	22.83422	0.33889	 	1.436226203E9	 	1.79482E-9	 	5480.287	27.3204	 
250.0	1.0	0.0	2.74939	10.19994	-10.47709	24.89867	166.65664	0.0769077	13.0026	61.36695	63.37842	22.92167	0.33862	 	1.922645285E9	 	1.32805E-9	 	5343.967	27.264	 
245.0	1.0	0.0	2.75049	10.19585	-10.51302	24.84632	166.45089	0.0762668	13.11187	61.58771	63.50215	23.00868	0.33836	 	2.588333716E9	 	9.77062E-10	 	5207.93	27.2074	 
240.0	1.0	0.0	2.75159	10.19177	-10.5488	24.794	166.23927	0.075627	13.22279	61.80727	63.62498	23.09525	0.33809	 	3.504754617E9	 	7.14617E-10	 	5072.175	27.151	 
235.0	1.0	0.0	2.75269	10.18771	-10.58444	24.74172	166.02165	0.0749883	13.33542	62.02565	63.74692	23.18138	0.33783	 	4.774033751E9	 	5.19509E-10	 	4936.703	27.0944	 
230.0	1.0	0.0	2.75378	10.18367	-10.61995	24.68946	165.79793	0.0743506	13.44979	62.24284	63.86798	23.26706	0.33757	 	6.543063032E9	 	3.75321E-10	 	4801.514	27.0378	 
225.0	1.0	0.0	2.75487	10.17964	-10.65531	24.63724	165.56796	0.073714	13.56595	62.45884	63.98817	23.3523	0.33732	 	9.024534371E9	 	2.69415E-10	 	4666.609	26.981	 
220.0	1.0	0.0	2.75596	10.17562	-10.69054	24.58506	165.33164	0.0730784	13.68393	62.67364	64.10749	23.43709	0.33706	 	1.2528499999999998E10	 	1.92117E-10	 	4531.987	26.9244	 
215.0	1.0	0.0	2.75704	10.17163	-10.72562	24.5329	165.08881	0.0724439	13.80379	62.88726	64.22596	23.52144	0.33681	 	1.75103E10	 	1.36065E-10	 	4397.651	26.8672	 
210.0	1.0	0.0	2.75812	10.16764	-10.76057	24.48078	164.83934	0.0718104	13.92556	63.09968	64.34358	23.60534	0.33656	 	2.4643199999999996E10	 	9.5691E-11	 	4263.599	26.8104	 
205.0	1.0	0.0	2.7592	10.16368	-10.79538	24.42869	164.58308	0.0711779	14.04931	63.31092	64.46037	23.68879	0.33631	 	3.49305E10	 	6.68107E-11	 	4129.833	26.7532	 
200.0	1.0	0.0	2.76027	10.15973	-10.83005	24.37663	164.31989	0.0705464	14.17507	63.52097	64.57632	23.7718	0.33606	 	4.987849999999999E10	 	4.6299E-11	 	3996.353	26.696	 
195.0	1.0	0.0	2.76134	10.15579	-10.86457	24.3246	164.04959	0.0699159	14.3029	63.72982	64.69145	23.85436	0.33581	 	7.17675E10	 	3.18379E-11	 	3863.161	26.6384	 
190.0	1.0	0.0	2.76241	10.15188	-10.89896	24.27261	163.77203	0.0692864	14.43285	63.93749	64.80576	23.93647	0.33557	 	1.04077E11	 	2.17198E-11	 	3730.257	26.5808	 
185.0	1.0	0.0	2.76347	10.14797	-10.93322	24.22065	163.48703	0.0686579	14.56497	64.14397	64.91927	24.01813	0.33532	 	1.52161E11	 	1.46958E-11	 	3597.642	26.523	 
180.0	1.0	0.0	2.76453	10.14409	-10.96733	24.16872	163.19442	0.0680304	14.69932	64.34926	65.03198	24.09935	0.33508	 	2.24332E11	 	9.85911E-12	 	3465.317	26.465	 
175.0	1.0	0.0	2.76558	10.14022	-11.0013	24.11682	162.89399	0.0674038	14.83596	64.55336	65.14389	24.18011	0.33484	 	3.33612E11	 	6.55644E-12	 	3333.284	26.4066	 
170.0	1.0	0.0	2.76664	10.13636	-11.03514	24.06496	162.58556	0.0667782	14.97494	64.75628	65.25502	24.26043	0.33461	 	5.0059E11	 	4.32071E-12	 	3201.544	26.348	 
165.0	1.0	0.0	2.76768	10.13252	-11.06884	24.01312	162.26892	0.0661536	15.11633	64.958	65.36538	24.34029	0.33437	 	7.58132E11	 	2.82075E-12	 	3070.098	26.2892	 
160.0	1.0	0.0	2.76873	10.1287	-11.1024	23.96132	161.94384	0.06553	15.26019	65.15854	65.47496	24.4197	0.33414	 	1.15923E12	 	1.82371E-12	 	2938.948	26.23	 
155.0	1.0	0.0	2.76977	10.12489	-11.13582	23.90956	161.61012	0.0649073	15.40659	65.35789	65.58378	24.49866	0.33391	 	1.7902E12	 	1.1673E-12	 	2808.096	26.1704	 
150.0	1.0	0.0	2.77081	10.1211	-11.1691	23.85782	161.2675	0.0642856	15.55559	65.55605	65.69184	24.57717	0.33368	 	2.79314E12	 	7.39416E-13	 	2677.543	26.1106	 
145.0	1.0	0.0	2.77184	10.11732	-11.20225	23.80612	160.91575	0.0636648	15.70726	65.75303	65.79916	24.65523	0.33345	 	4.40458E12	 	4.63356E-13	 	2547.292	26.0502	 
140.0	1.0	0.0	2.77287	10.11356	-11.23526	23.75444	160.55459	0.0630451	15.86167	65.94882	65.90573	24.73283	0.33322	 	7.0227E12	 	2.87138E-13	 	2417.345	25.9894	 
135.0	1.0	0.0	2.7739	10.10981	-11.26813	23.70281	160.18376	0.0624263	16.0189	66.14342	66.01157	24.80998	0.333	 	1.13258E13	 	1.75889E-13	 	2287.703	25.9284	 
130.0	1.0	0.0	2.77492	10.10609	-11.30087	23.6512	159.80297	0.0618085	16.17902	66.33683	66.11668	24.88667	0.33278	 	1.84833E13	 	1.06457E-13	 	2158.371	25.8664	 
125.0	1.0	0.0	2.77594	10.10237	-11.33346	23.59963	159.41192	0.0611916	16.3421	66.52906	66.22106	24.96291	0.33256	 	3.05376E13	 	6.36354E-14	 	2029.35	25.8042	 
120.0	1.0	0.0	2.77696	10.09867	-11.36592	23.54808	159.01029	0.0605758	16.50824	66.72011	66.32473	25.0387	0.33234	 	5.11018E13	 	3.75499E-14	 	1900.643	25.7414	 
115.0	1.0	0.0	2.77797	10.09499	-11.39825	23.49658	158.59776	0.059961	16.67752	66.90996	66.4277	25.11403	0.33212	 	8.66558E13	 	2.18619E-14	 	1772.254	25.6778	 
110.0	1.0	0.0	2.77898	10.09132	-11.43043	23.4451	158.17396	0.0593472	16.85001	67.09864	66.52996	25.1889	0.33191	 	1.48986E14	 	1.25519E-14	 	1644.186	25.6136	 
105.0	1.0	0.0	2.77999	10.08767	-11.46248	23.39366	157.73853	0.0587344	17.0258	67.28612	66.63152	25.26332	0.3317	 	2.5984699999999997E14	 	7.10286E-15	 	1516.442	25.5488	 
100.0	1.0	0.0	2.78099	10.08404	-11.49439	23.34224	157.29108	0.0581227	17.205	67.47242	66.7324	25.33728	0.33149	 	4.60005E14	 	3.9592E-15	 	1389.027	25.483	 
95.0	1.0	0.0	2.78199	10.08041	-11.52617	23.29086	156.8312	0.057512	17.38768	67.65754	66.83259	25.41079	0.33128	 	8.27077E14	 	2.17253E-15	 	1261.945	25.4164	 
90.0	1.0	0.0	2.78299	10.07681	-11.55781	23.23951	156.35846	0.0569024	17.57394	67.84148	66.9321	25.48383	0.33107	 	1.51128E15	 	1.17281E-15	 	1135.2	25.349	 
85.0	1.0	0.0	2.78398	10.07322	-11.58932	23.1882	155.8724	0.056294	17.76389	68.02423	67.03095	25.55642	0.33086	 	2.80837E15	 	6.2244E-16	 	1008.798	25.2804	 
80.0	1.0	0.0	2.78497	10.06965	-11.62069	23.13692	155.37254	0.0556866	17.95763	68.20579	67.12912	25.62855	0.33066	 	5.31108E15	 	3.24536E-16	 	882.742	25.2112	 
75.0	1.0	0.0	2.78595	10.06609	-11.65192	23.08567	154.85837	0.0550805	18.15525	68.38617	67.22664	25.70023	0.33046	 	1.02296E16	 	1.66109E-16	 	757.04	25.1404	 
70.0	1.0	0.0	2.78693	10.06254	-11.68301	23.03445	154.32934	0.0544755	18.35686	68.56537	67.32351	25.77144	0.33026	 	2.00833E16	 	8.33943E-17	 	631.696	25.0688	 
65.0	1.0	0.0	2.78791	10.05902	-11.71398	22.98326	153.78488	0.0538718	18.56257	68.74339	67.41973	25.84219	0.33006	 	4.02228E16	 	4.10321E-17	 	506.717	24.9958	 
60.0	1.0	0.0	2.78888	10.0555	-11.7448	22.93211	153.22438	0.0532694	18.77249	68.92023	67.5153	25.91249	0.32987	 	8.22553E16	 	1.9768E-17	 	382.111	24.9212	 
55.0	1.0	0.0	2.78985	10.05201	-11.77549	22.88099	152.6472	0.0526683	18.98674	69.09588	67.61024	25.98232	0.32967	 	1.71919E17	 	9.31613E-18	 	257.884	24.8454	 
50.0	1.0	0.0	2.79082	10.04853	-11.80605	22.82989	152.05266	0.0520686	19.20542	69.27035	67.70456	26.05169	0.32948	 	3.67613E17	 	4.29042E-18	 	134.044	24.768	 
45.0	1.0	0.0	2.79178	10.04506	-11.83647	22.77884	151.44001	0.0514704	19.42865	69.44364	67.79824	26.12061	0.32929	 	8.05068E17	 	1.9288E-18	 	10.601	24.6886	 
40.0	1.0	0.0	2.79274	10.04161	-11.86675	22.72781	150.8085	0.0508736	19.65655	69.61576	67.89131	26.18906	0.3291	 	1.80778E18	 	8.45461E-19	 	-112.438	24.6078	 
35.0	1.0	0.0	2.7937	10.03817	-11.8969	22.67684	150.15728	0.0502784	19.88924	69.78669	67.98376	26.25705	0.32891	 	4.16735E18	 	3.60902E-19	 	-235.062	24.5248	 
30.0	1.0	0.0	2.79465	10.03476	-11.92692	22.62587	149.48548	0.0496849	20.12683	69.95644	68.07561	26.32458	0.32873	 	9.87504E18	 	1.49832E-19	 	-357.261	24.4398	 
25.0	1.0	0.0	2.7956	10.03135	-11.9568	 	148.79217	0.0490931	20.36944	70.12502	68.16686	26.39165	0.32855	 	2.40871E19	 	6.04139E-20	 	-479.023	 	 
