T (C)	Fraction solid (wt)-TOTAL	Fraction liquid (wt)-LIQUID	Density (g/(cm)^3)-TOTAL	Molar volume (cm^3)-TOTAL	Volume change (%)-  	Average expansion coeff. (10e-6 1/K)-  	Thermal conductivity (W/(m*K))-TOTAL	Electrical resistivity (10e-6 Ohm*m)-TOTAL	Electrical conductivity (10e6 1/(Ohm*m))-TOTAL	Young's modulus (GPa)-TOTAL	Bulk modulus (GPa)-TOTAL	Shear modulus(GPa)-TOTAL	Poisson's ratio-TOTAL	Liquid viscosity (mPa s)-  	Total viscosity (mPa s)-  	Liquid diffusivity (10e-9 (m^2)/s)-  	Total diffusivity (10e-9 (m^2)/s)-  	Surface Tension (mN/m)-  	Enthalpy (J/mole)-TOTAL	Specific heat (J/(mole K))-TOTAL	Latent heat (J/mole)-TOTAL
1500.0	0.0	1.0	6.87595	7.7082	0.0	27.73119	32.60137	1.77226	0.56425	0.0	99.41117	0.0	0.49975	5.9413	5.9413	1.45663	1.45663	1780.18132	64935.027	 	0.0
1495.0	0.0	1.0	6.87978	7.7039	-0.0556959	27.68372	32.52917	1.77118	0.56459	0.0	99.59366	0.0	0.49975	5.99074	5.99074	1.44054	1.44054	1782.17298	64716.938	43.6178	0.0
1490.0	0.0	1.0	6.88361	7.69962	-0.11124	27.63633	32.45696	1.77011	0.56494	0.0	99.77614	0.0	0.49975	6.04088	6.04088	1.42454	1.42454	1784.16223	64499.408	43.506	0.0
1485.0	0.0	1.0	6.88743	7.69535	-0.16662	27.589	32.38476	1.76902	0.56528	0.0	99.95863	0.0	0.49975	6.09173	6.09173	1.40865	1.40865	1786.14904	64282.432	43.3952	0.0
1480.0	0.0	1.0	6.89124	7.69109	-0.22185	27.54175	32.31255	1.76793	0.56563	0.0	100.14112	0.0	0.49975	6.1433	6.1433	1.39285	1.39285	1788.13338	64066.009	43.2846	0.0
1475.0	0.0	1.0	6.89505	7.68685	-0.27693	27.49458	32.24035	1.76684	0.56598	0.0	100.3236	0.0	0.49975	6.1956	6.1956	1.37715	1.37715	1790.11521	63850.133	43.1752	0.0
1470.0	0.0	1.0	6.89884	7.68262	-0.33185	27.44748	32.16815	1.76574	0.56634	0.0	100.50609	0.0	0.49975	6.24866	6.24866	1.36155	1.36155	1792.0945	63634.801	43.0664	0.0
1465.0	0.0	1.0	6.90264	7.67839	-0.38662	27.40045	32.09594	1.76463	0.56669	0.0	100.68858	0.0	0.49975	6.30248	6.30248	1.34605	1.34605	1794.07122	63420.01	42.9582	0.0
1460.0	0.0	1.0	6.90642	7.67418	-0.44123	27.3535	32.02374	1.76353	0.56705	0.0	100.87106	0.0	0.49975	6.35707	6.35707	1.33066	1.33066	1796.04533	63205.756	42.8508	0.0
1455.0	0.0	1.0	6.9102	7.66999	-0.49568	27.30663	31.95154	1.76241	0.5674	0.0	101.05355	0.0	0.49975	6.41246	6.41246	1.31536	1.31536	1798.01679	62992.034	42.7444	0.0
1450.0	0.0	1.0	6.91398	7.6658	-0.54998	27.25984	31.87933	1.76129	0.56776	0.0	101.23604	0.0	0.49975	6.46866	6.46866	1.30016	1.30016	1799.98556	62778.844	42.638	0.0
1445.0	0.0	1.0	6.91774	7.66163	-0.60413	27.21313	31.80713	1.76017	0.56813	0.0	101.41852	0.0	0.49975	6.52568	6.52568	1.28506	1.28506	1801.95162	62566.183	42.5322	0.0
1440.0	0.0	1.0	6.9215	7.65747	-0.65812	27.16649	31.73492	1.75904	0.56849	0.0	101.60101	0.0	0.49975	6.58354	6.58354	1.27006	1.27006	1803.91491	62354.048	42.427	0.0
1435.0	0.0	1.0	6.92526	7.65332	-0.71195	27.11994	31.66272	1.75791	0.56886	0.0	101.7835	0.0	0.49975	6.64225	6.64225	1.25515	1.25515	1805.87541	62142.435	42.3226	0.0
1430.0	0.0	1.0	6.929	7.64918	-0.76563	27.07347	31.59052	1.75677	0.56923	0.0	101.96598	0.0	0.49975	6.70184	6.70184	1.24035	1.24035	1807.83308	61931.341	42.2188	0.0
1425.0	0.0	1.0	6.93274	7.64505	-0.81916	27.02708	31.51831	1.75562	0.5696	0.0	102.14847	0.0	0.49975	6.76232	6.76232	1.22565	1.22565	1809.78786	61720.763	42.1156	0.0
1420.0	0.0	1.0	6.93647	7.64094	-0.87253	26.98078	31.44611	1.75447	0.56997	0.0	102.33096	0.0	0.49975	6.82371	6.82371	1.21105	1.21105	1811.73973	61510.696	42.0134	0.0
1415.0	0.0	1.0	6.9402	7.63684	-0.92574	26.93455	31.37391	1.75332	0.57035	0.0	102.51344	0.0	0.49975	6.88602	6.88602	1.19655	1.19655	1813.68864	61301.139	41.9114	0.0
1410.0	0.0	1.0	6.94392	7.63275	-0.9788	26.88842	31.3017	1.75216	0.57073	0.0	102.69593	0.0	0.49975	6.94928	6.94928	1.18214	1.18214	1815.63454	61092.086	41.8106	0.0
1405.0	0.0	1.0	6.94763	7.62867	-1.03171	26.84237	31.2295	1.75099	0.57111	0.0	102.87842	0.0	0.49975	7.0135	7.0135	1.16784	1.16784	1817.57741	60883.535	41.7102	0.0
1403.19	0.0	1.0	6.94897	7.6272	-1.05077	26.82576	31.20343	1.75057	0.57124	0.0	102.9443	0.0	0.49975	7.03693	7.03693	1.1627	1.1627	1818.27809	60808.363	41.6428	0.0010
1400.0	0.03607	0.96393	6.95634	7.61918	-1.15484	26.60486	31.25149	1.74454	0.57322	8.64594E-5	101.50018	2.89289E-5	0.49434	7.04049	7.38107	1.1599	1.10637	1818.41869	60348.652	143.892	326.826
1395.0	0.0881106	0.91189	6.96727	7.60722	-1.30997	26.27819	31.31662	1.73571	0.57613	0.00312076	99.44676	0.0010497	0.4865	7.04574	8.16196	1.15557	0.99753	1818.67742	59670.467	135.637	797.45
1390.0	0.13537	0.86463	6.97744	7.59618	-1.45323	25.98166	31.37131	1.72749	0.57887	0.017616	97.62046	0.00595397	0.47935	7.05104	10.00222	1.15124	0.81156	1818.97182	59037.074	126.679	1223.775
1385.0	0.17846	0.82154	6.98694	7.58586	-1.5871	25.70882	31.41652	1.71982	0.58146	0.0538958	95.99205	0.0182973	0.47278	7.05643	14.01075	1.1469	0.57763	1819.30113	58442.748	118.865	1611.522
1380.0	0.21787	0.78213	6.99585	7.57636	-1.71027	25.46351	31.45409	1.71259	0.58391	0.12122	94.54193	0.0413234	0.46675	7.06194	21.3534	1.14255	0.37786	1819.65869	57882.687	112.012	1965.486
1375.0	0.25406	0.74594	7.00423	7.56737	-1.8269	25.23449	31.48407	1.70578	0.58624	0.22684	93.24576	0.077623	0.46118	7.06744	33.15506	1.13821	0.24262	1820.04808	57352.844	105.969	2289.715
1370.0	0.28738	0.71262	7.01214	7.55894	-1.93633	25.02384	31.50761	1.69934	0.58846	0.37569	92.08915	0.12901	0.45603	7.07303	50.45021	1.13386	0.15896	1820.46505	56849.784	100.612	2587.643
1365.0	0.31813	0.68187	7.01958	7.55102	-2.03907	24.83028	31.52524	1.69322	0.59059	0.57068	91.05646	0.19662	0.45125	7.07894	74.18892	1.12946	0.10777	1820.90727	56370.569	95.843	2862.199
1360.0	0.3466	0.6534	7.02669	7.54353	-2.13617	24.65105	31.53793	1.68737	0.59264	0.81313	90.13628	0.28101	0.4468	7.08467	105.24813	1.12511	0.0757353	1821.37405	55912.682	91.5774	3115.901
1355.0	0.37301	0.62699	7.03346	7.53636	-2.22929	24.48173	31.54554	1.6818	0.5946	1.1027	89.3163	0.38218	0.44265	7.09047	144.40192	1.12074	0.0550311	1821.86679	55473.952	87.746	3350.915
1350.0	0.39755	0.60245	7.03991	7.52955	-2.31759	24.32471	31.54894	1.67645	0.5965	1.43829	88.58799	0.49983	0.43878	7.09632	192.41257	1.11638	0.0411729	1822.38098	55052.496	84.2912	3569.123
1345.64	0.41779	0.58221	7.04538	7.52391	-2.39079	24.19748	31.54904	1.67195	0.5981	1.77069	88.01354	0.61672	0.43557	7.10141	242.54773	1.11259	0.0325748	1822.84545	54696.273	 	3748.681
1345.64	0.41779	0.58221	7.04538	7.52391	-2.39079	24.19748	31.54904	1.67195	0.5981	1.77069	88.01354	0.61672	0.43557	7.10141	242.54771	1.11259	0.0325748	1822.84545	54696.274	 	3748.681
1345.0	0.42244	0.57756	7.04648	7.52274	-2.40589	24.16649	31.55231	1.67111	0.5984	1.83015	87.98495	0.63772	0.43491	7.10091	255.96932	1.11222	0.0308544	1822.87846	54621.892	86.1208	3796.944
1340.0	0.45696	0.54304	7.05501	7.51367	-2.52367	23.92319	31.57337	1.66484	0.60066	2.33398	87.81469	0.81611	0.42994	7.09515	376.6626	1.10968	0.020903	1823.17977	54063.518	111.675	4152.996
1335.0	0.48851	0.51149	7.06298	7.50531	-2.6321	23.70476	31.58773	1.65892	0.6028	2.91176	87.72677	1.0214	0.42537	7.08958	527.79803	1.10711	0.0148712	1823.51418	53538.242	105.055	4476.411
1330.0	0.51739	0.48261	7.07047	7.49755	-2.73271	23.50705	31.59597	1.65333	0.60484	3.56727	87.70466	1.25506	0.42115	7.08397	711.24583	1.10455	0.0110012	1823.88145	53042.579	99.1326	4770.667
1325.0	0.54387	0.45613	7.07753	7.49035	-2.82613	23.32854	31.59878	1.64803	0.60679	4.30293	87.73737	1.51805	0.41725	7.07843	928.67222	1.10196	0.00839927	1824.2789	52573.516	93.8126	5038.776
1320.0	0.56819	0.43181	7.08425	7.48354	-2.91453	23.16313	31.59621	1.64301	0.60864	5.11882	87.8152	1.81051	0.41364	7.07277	1181.34018	1.09939	0.00658216	1824.71085	52128.431	89.017	5283.358
1315.0	0.59055	0.40945	7.09058	7.47722	-2.99654	23.015	31.58913	1.63822	0.61042	6.01337	87.93253	2.13196	0.41029	7.0677	1470.81245	1.09673	0.00527013	1825.16751	51705.027	84.6808	5506.708
1310.0	0.61112	0.38888	7.09663	7.47123	-3.07418	22.87845	31.57775	1.63365	0.61213	6.9831	88.08351	2.48124	0.40718	7.06277	1798.30856	1.09404	0.00429679	1825.65395	51301.281	80.7492	5710.844
1305.0	0.63006	0.36994	7.10235	7.46563	-3.14683	22.75539	31.5624	1.62928	0.61377	8.02178	88.26407	2.85616	0.40429	7.05873	2165.05553	1.09121	0.00355767	1826.16364	50915.405	77.1752	5897.554
1300.0	0.64752	0.35248	7.10785	7.46031	-3.21591	22.64187	31.54343	1.6251	0.61535	9.12366	88.4703	3.25472	0.40161	7.05514	2572.59079	1.08831	0.0029846	1826.70019	50545.802	73.9206	6068.43
1295.0	0.66363	0.33637	7.11309	7.45535	-3.28022	22.5415	31.52138	1.62106	0.61688	10.28018	88.69989	3.67383	0.39911	7.0528	3022.56864	1.08521	0.0025322	1827.25393	50191.038	70.9528	6224.905
1290.0	0.67851	0.32149	7.1181	7.4506	-3.34185	22.44827	31.49614	1.61719	0.61836	11.48341	88.94875	4.11067	0.39678	7.05149	3516.47679	1.08195	0.0021696	1827.83319	49849.819	68.2438	6368.269
1285.0	0.69224	0.30776	7.12294	7.44607	-3.4006	22.36286	31.46816	1.61345	0.61979	12.72574	89.2154	4.56249	0.39461	7.05112	4056.60608	1.07854	0.00187471	1828.43439	49520.973	65.7692	6499.694
1280.0	0.70495	0.29505	7.12758	7.44178	-3.45621	22.28613	31.43775	1.60983	0.62118	13.99721	89.49787	5.02565	0.39258	7.05232	4644.84671	1.0749	0.00163203	1829.05272	49203.429	63.5088	6620.247
1275.0	0.71671	0.28329	7.13208	7.43763	-3.51014	22.2138	31.40474	1.60633	0.62254	15.29203	89.79365	5.49806	0.39068	7.05497	5284.11639	1.07104	0.00142997	1829.69591	48896.208	61.4442	6730.903
1270.0	0.7276	0.2724	7.13641	7.43371	-3.56099	22.15019	31.36982	1.60293	0.62386	16.60054	90.10246	5.97615	0.3889	7.05948	5977.05327	1.0669	0.00126011	1830.35104	48598.416	59.5584	6832.557
1269.17	0.72919	0.27081	7.13707	7.43305	-3.56952	22.13932	31.36388	1.60237	0.62408	16.80091	90.15499	6.04941	0.38864	7.0602	6092.07092	1.06621	0.00123565	1830.46064	48551.177	 	6847.223
1265.0	0.78456	0.21544	7.14911	7.42086	-3.72768	21.73642	31.33113	1.59971	0.62511	24.97863	90.88993	9.05942	0.3786	7.15228	8837.06693	1.04964	8.49527E-4	1828.54102	47601.309	199.421	7633.947
1262.64	0.80802	0.19198	7.1545	7.41541	-3.7984	21.5641	31.31065	1.59829	0.62567	29.42591	91.25558	10.70569	0.37431	7.20573	10347.57248	1.04025	7.24401E-4	1827.47643	47177.361	 	7965.515
1260.0	0.83663	0.16337	7.16208	7.40773	-3.89799	21.30834	31.28668	1.59677	0.62626	35.75622	91.68864	13.05826	0.3691	7.28331	12437.6161	1.02741	6.01637E-4	1828.09625	46660.966	188.069	8378.994
1255.0	0.87689	0.12311	7.17326	7.3964	-4.04497	20.94774	31.23906	1.59399	0.62736	46.48461	92.42404	17.06867	0.36169	7.43777	16227.92497	1.00279	4.5961E-4	1829.01632	45888.541	154.485	8956.541
1250.0	0.90393	0.0960665	7.1815	7.38798	-4.15422	20.69949	31.18893	1.59133	0.62841	54.9684	93.06693	20.25915	0.35663	7.59995	19702.2261	0.97818	3.77324E-4	1829.71784	45310.104	115.687	9340.515
1245.0	0.92304	0.0769634	7.18799	7.3813	-4.24082	20.51867	31.13741	1.58873	0.62943	61.6338	93.65192	22.77696	0.35299	7.77	22969.9698	0.95363	3.22583E-4	1830.22475	44847.602	92.5004	9608.968
1240.0	0.93708	0.0629247	7.19338	7.37572	-4.31333	20.37978	31.08503	1.58617	0.63045	66.93542	94.19824	24.78637	0.35025	7.94674	26126.6662	0.92935	2.82673E-4	1830.56796	44458.872	77.746	9804.064
1235.0	0.94772	0.0522791	7.19804	7.37083	-4.37669	20.26803	31.03201	1.58363	0.63146	71.23113	94.71758	26.41878	0.34812	8.13046	29248.07689	0.90535	2.51671E-4	1830.77343	44119.503	67.8738	9950.214
1230.0	0.956	0.043998	7.20222	7.36643	-4.43375	20.17492	30.97829	1.58111	0.63247	74.77941	95.21753	27.76994	0.34641	8.3203	32393.49574	0.88176	2.26481E-4	1830.8578	43814.485	61.0036	10062.424
1228.41	0.95821	0.0417883	7.20346	7.36512	-4.45078	20.14861	30.96122	1.58031	0.63279	75.76703	95.37281	28.14645	0.34594	8.38168	33400.57502	0.87438	2.1942E-4	1830.86554	43723.587	 	10092.104
1228.41	0.95821	0.0417883	7.20346	7.36512	-4.45078	20.14861	30.96122	1.58031	0.63279	75.76703	95.37281	28.14645	0.34594	8.38168	33400.56631	0.87438	2.1942E-4	1830.86554	43723.59	 	10092.102
1225.0	0.96396	0.0360381	7.20628	7.36215	-4.48929	20.08577	30.92198	1.57872	0.63342	78.36006	95.73263	29.13727	0.34467	8.49992	35819.9073	0.86025	2.04135E-4	1830.0927	43504.704	61.9562	10179.807
1220.0	0.97108	0.0289248	7.21034	7.35804	-4.54267	20.00265	30.86603	1.57631	0.63439	81.70386	96.24038	30.41661	0.34308	8.67823	39462.12798	0.83977	1.84676E-4	1828.88869	43209.267	59.0874	10283.255
1215.0	0.97642	0.0235765	7.21405	7.35422	-4.59223	19.93083	30.81034	1.57387	0.63538	84.39677	96.72782	31.44841	0.34183	8.86204	43152.94156	0.8196	1.68315E-4	1827.61215	42940.989	53.6556	10359.949
1210.0	0.98051	0.0194852	7.2175	7.35061	-4.63901	19.86721	30.75474	1.57141	0.63637	86.61389	97.20111	32.29887	0.34082	9.05166	46949.60304	0.79973	1.54184E-4	1826.27613	42691.627	49.8724	10418.13
1205.0	0.9837	0.0163029	7.22075	7.34717	-4.68363	19.80986	30.69918	1.56895	0.63737	88.48066	97.66437	33.01559	0.33998	9.24681	50901.96642	0.78021	1.41733E-4	1824.88718	42455.748	47.1758	10463.23
1200.0	0.98623	0.0137708	7.22386	7.34385	-4.72667	19.75707	30.64366	1.56648	0.63838	90.09276	98.12004	33.63498	0.33927	9.44732	55057.52285	0.76107	1.30592E-4	1823.45609	42229.613	45.227	10498.984
1195.0	0.98833	0.0116661	7.2269	7.34061	-4.76876	19.70688	30.58827	1.56399	0.63939	91.53756	98.5704	34.19039	0.33864	9.65312	59470.94353	0.74232	1.2049E-4	1821.99268	42010.475	43.8276	10528.139
1190.0	0.99011	0.00989233	7.22988	7.33742	-4.81011	19.65864	30.53281	1.56149	0.64041	92.85108	99.01631	34.69559	0.33808	9.8642	64177.33552	0.72396	1.11274E-4	1820.50196	41796.807	42.7336	10552.219
1185.0	0.99162	0.00837912	7.23282	7.33429	-4.85081	19.61205	30.47759	1.55898	0.64145	94.0606	99.45884	35.16098	0.33757	10.08113	69212.36395	0.70596	1.02827E-4	1818.98119	41587.499	41.8616	10572.331
1180.0	0.99292	0.00707668	7.23573	7.33118	-4.89104	19.56662	30.42247	1.55644	0.64249	95.18668	99.89846	35.59444	0.3371	10.30338	74612.55075	0.68836	9.50573E-5	1817.44124	41381.728	41.1542	10589.297
1175.0	0.99406	0.00594351	7.23861	7.32812	-4.93084	19.52216	30.36744	1.5539	0.64354	96.24501	100.33572	36.00196	0.33666	10.53104	80416.17921	0.67116	8.78935E-5	1815.88556	41178.872	40.5712	10603.738
1170.0	0.99505	0.00494953	7.24147	7.32508	-4.97029	19.47847	30.3125	1.55134	0.6446	97.24632	100.7708	36.38765	0.33625	10.7647	86662.63806	0.65433	8.12767E-5	1814.31153	40978.451	40.0842	10616.13
1165.0	0.99593	0.00407295	7.24431	7.32206	-5.0094	19.43551	30.25764	1.54877	0.64567	98.20154	101.20423	36.75571	0.33587	11.00442	93396.62371	0.63786	7.51553E-5	1812.7186	40780.089	39.6724	10626.848
1160.0	0.99671	0.00329404	7.24714	7.31907	-5.04826	19.39301	30.20285	1.54619	0.64675	99.1168	101.63588	37.10848	0.3355	11.2499	100663.3385	0.62177	6.94876E-5	1811.12156	40583.491	39.3196	10636.184
1155.0	0.9974	0.00259722	7.24995	7.31609	-5.08684	19.35104	30.14812	1.54359	0.64784	99.99909	102.06627	37.44864	0.33515	11.50166	108514.6333	0.60604	6.42351E-5	1809.51086	40388.419	39.0144	10644.376
1150.0	0.99803	0.00197212	7.25274	7.31313	-5.12521	19.30941	30.09348	1.54098	0.64894	100.85264	102.49522	37.77783	0.33481	11.75996	117004.5742	0.59065	5.93656E-5	1807.89132	40194.68	38.7478	10651.615
1145.0	0.99859	0.00140627	7.25553	7.31019	-5.16337	19.26812	30.0389	1.53835	0.65005	101.68162	102.92304	38.09763	0.33449	12.02493	126193.4923	0.57561	5.48494E-5	1806.26566	40002.116	38.5128	10658.055
1140.0	0.99911	8.93429E-4	7.25831	7.30727	-5.20133	19.2271	29.9844	1.53572	0.65116	102.48956	103.34969	38.4094	0.33417	12.29606	136147.3754	0.56093	5.06601E-5	1804.63949	39810.597	38.3038	10663.825
1135.0	0.99957	4.27376E-4	7.26108	7.30435	-5.23913	19.18627	29.92998	1.53306	0.65229	103.27937	103.77522	38.71428	0.33387	12.57434	146938.2145	0.54658	4.67736E-5	1803.00761	39620.015	38.1164	10669.032
1130.0	1.0	0.0	7.26384	7.30146	-5.27672	19.14579	29.87559	1.5304	0.65342	104.05251	104.19988	39.01279	0.33357	 	158644.5338	 	4.31684E-5	 	39430.278	37.9474	10673.763
1125.0	1.0	0.0	7.26613	7.29915	-5.30662	19.13106	29.81917	1.52783	0.65452	104.59596	104.61771	39.22246	0.33337	 	171068.8905	 	3.98905E-5	 	39215.091	43.0374	 
1120.0	1.0	0.0	7.26842	7.29685	-5.33649	19.11636	29.76274	1.52526	0.65563	105.1398	105.03493	39.43235	0.33317	 	184569.7419	 	3.68404E-5	 	39032.378	36.5426	 
1115.0	1.0	0.0	7.27071	7.29455	-5.36631	19.10166	29.70631	1.52267	0.65674	105.68402	105.45153	39.64243	0.33297	 	199249.0247	 	3.40038E-5	 	38849.851	36.5054	 
1110.0	1.0	0.0	7.273	7.29225	-5.39609	19.08698	29.64989	1.52007	0.65786	106.22859	105.86749	39.85271	0.33276	 	215219.1282	 	3.13672E-5	 	38667.517	36.4668	 
1105.0	1.0	0.0	7.27529	7.28996	-5.42582	19.0723	29.59346	1.51746	0.65899	106.77351	106.28279	40.06319	0.33256	 	232604.0473	 	2.89178E-5	 	38485.387	36.426	 
1100.0	1.0	0.0	7.27757	7.28767	-5.45551	19.05765	29.53703	1.51485	0.66013	107.31874	106.69741	40.27384	0.33236	 	251540.6703	 	2.66438E-5	 	38303.465	36.3844	 
1095.0	1.0	0.0	7.27986	7.28539	-5.48516	19.043	29.48061	1.51222	0.66128	107.86427	107.11133	40.48467	0.33216	 	272180.2203	 	2.45337E-5	 	38121.749	36.3432	 
1090.0	1.0	0.0	7.28214	7.28311	-5.51477	19.02837	29.42418	1.50958	0.66243	108.41007	107.52455	40.69567	0.33196	 	294689.868	 	2.25769E-5	 	37940.238	36.3022	 
1085.0	1.0	0.0	7.28442	7.28083	-5.54433	19.01375	29.36775	1.50694	0.6636	108.95614	107.93703	40.90683	0.33176	 	319254.5392	 	2.07633E-5	 	37758.93	36.2616	 
1080.0	1.0	0.0	7.2867	7.27855	-5.57385	18.99914	29.31133	1.50428	0.66477	109.50245	108.34878	41.11814	0.33156	 	346078.9405	 	1.90835E-5	 	37577.823	36.2214	 
1075.0	1.0	0.0	7.28897	7.27628	-5.60333	18.98454	29.2549	1.50161	0.66595	110.04897	108.75977	41.3296	0.33136	 	375389.8323	 	1.75284E-5	 	37396.915	36.1816	 
1070.0	1.0	0.0	7.29124	7.27401	-5.63277	18.96996	29.19847	1.49893	0.66714	110.59571	109.16998	41.5412	0.33116	 	407438.5805	 	1.60897E-5	 	37216.203	36.1424	 
1065.0	1.0	0.0	7.29352	7.27174	-5.66216	18.95539	29.14205	1.49624	0.66834	111.14262	109.5794	41.75294	0.33096	 	442504.0235	 	1.47596E-5	 	37035.687	36.1032	 
1060.0	1.0	0.0	7.29579	7.26948	-5.69152	18.94083	29.08562	1.49355	0.66955	111.6897	109.98801	41.9648	0.33075	 	480895.6966	 	1.35305E-5	 	36855.364	36.0646	 
1055.0	1.0	0.0	7.29805	7.26722	-5.72083	18.92628	29.02919	1.49084	0.67076	112.23693	110.3958	42.17677	0.33055	 	522957.4596	 	1.23956E-5	 	36675.231	36.0266	 
1050.0	1.0	0.0	7.30032	7.26497	-5.75009	18.91175	28.97277	1.48812	0.67199	112.78428	110.80276	42.38886	0.33035	 	569071.5822	 	1.13482E-5	 	36495.286	35.989	 
1045.0	1.0	0.0	7.30259	7.26271	-5.77932	18.89723	28.91634	1.48539	0.67323	113.33175	111.20886	42.60106	0.33015	 	619663.3493	 	1.03824E-5	 	36315.528	35.9516	 
1040.0	1.0	0.0	7.30485	7.26046	-5.8085	18.88272	28.85992	1.48264	0.67447	113.8793	111.6141	42.81335	0.32995	 	675206.2543	 	9.49215E-6	 	36135.954	35.9148	 
1035.0	1.0	0.0	7.30711	7.25822	-5.83764	18.86823	28.8035	1.47989	0.67572	114.42694	112.01845	43.02574	0.32975	 	736227.863	 	8.67225E-6	 	35956.561	35.8786	 
1030.0	1.0	0.0	7.30937	7.25598	-5.86674	18.85375	28.74708	1.47713	0.67699	114.97463	112.42192	43.23821	0.32955	 	803316.4375	 	7.91762E-6	 	35777.347	35.8428	 
1025.0	1.0	0.0	7.31162	7.25374	-5.89579	18.83928	28.69066	1.47436	0.67826	115.52235	112.82447	43.45076	0.32935	 	877128.4263	 	7.22351E-6	 	35598.309	35.8076	 
1020.0	1.0	0.0	7.31388	7.2515	-5.92481	18.82482	28.63424	1.47157	0.67955	116.0701	113.2261	43.66338	0.32915	 	958396.9406	 	6.58552E-6	 	35419.446	35.7726	 
1015.0	1.0	0.0	7.31613	7.24927	-5.95378	18.81038	28.57782	1.46877	0.68084	116.61785	113.6268	43.87607	0.32895	 	1047941.354	 	5.99952E-6	 	35240.754	35.7384	 
1010.0	1.0	0.0	7.31838	7.24704	-5.98271	18.79594	28.52141	1.46597	0.68214	117.16559	114.02654	44.08881	0.32875	 	1146678.185	 	5.46163E-6	 	35062.23	35.7048	 
1005.0	1.0	0.0	7.32063	7.24481	-6.0116	18.78152	28.465	1.46315	0.68346	117.7133	114.42532	44.30161	0.32854	 	1255633.444	 	4.96828E-6	 	34883.871	35.6718	 
1000.0	1.0	0.0	7.32288	7.24259	-6.04044	18.76712	28.40859	1.46032	0.68478	118.26096	114.82312	44.51446	0.32834	 	1375956.652	 	4.51608E-6	 	34705.676	35.639	 
995.0	1.0	0.0	7.32513	7.24037	-6.06925	18.75272	28.35218	1.45748	0.68612	118.80855	115.21994	44.72734	0.32814	 	1508936.772	 	4.10191E-6	 	34527.641	35.607	 
990.0	1.0	0.0	7.32737	7.23815	-6.09801	18.73834	28.29578	1.45462	0.68746	119.35606	115.61575	44.94026	0.32794	 	1656020.337	 	3.72285E-6	 	34349.762	35.5758	 
985.0	1.0	0.0	7.32961	7.23593	-6.12673	18.72397	28.23938	1.45176	0.68882	119.90347	116.01054	45.1532	0.32774	 	1818832.085	 	3.37619E-6	 	34172.037	35.545	 
980.0	1.0	0.0	7.33185	7.23372	-6.15541	18.70962	28.18299	1.44888	0.69019	120.45077	116.40431	45.36617	0.32754	 	1999198.472	 	3.05938E-6	 	33994.462	35.515	 
975.0	1.0	0.0	7.33409	7.23152	-6.18405	18.69527	28.1266	1.446	0.69156	120.99793	116.79703	45.57915	0.32734	 	2199174.496	 	2.77009E-6	 	33817.034	35.4856	 
970.0	1.0	0.0	7.33633	7.22931	-6.21265	18.68094	28.07022	1.4431	0.69295	121.54494	117.1887	45.79213	0.32714	 	2421074.321	 	2.50612E-6	 	33639.749	35.457	 
965.0	1.0	0.0	7.33856	7.22711	-6.2412	18.66662	28.01384	1.44019	0.69436	122.09179	117.57931	46.00512	0.32694	 	2667506.27	 	2.26545E-6	 	33462.605	35.4288	 
960.0	1.0	0.0	7.34079	7.22491	-6.26972	18.65232	27.95747	1.43726	0.69577	122.63846	117.96884	46.21811	0.32674	 	2941412.854	 	2.04619E-6	 	33285.596	35.4018	 
955.0	1.0	0.0	7.34302	7.22272	-6.29819	18.63802	27.90111	1.43433	0.69719	123.18492	118.35727	46.43108	0.32654	 	3246116.599	 	1.8466E-6	 	33108.721	35.375	 
950.0	1.0	0.0	7.34525	7.22053	-6.32662	18.62374	27.84475	1.43138	0.69863	123.73117	118.74461	46.64404	0.32633	 	3585372.573	 	1.66507E-6	 	32931.973	35.3496	 
945.0	1.0	0.0	7.34748	7.21834	-6.35501	18.60947	27.78841	1.42842	0.70008	124.27719	119.13083	46.85697	0.32613	 	3963428.634	 	1.50009E-6	 	32755.35	35.3246	 
940.0	1.0	0.0	7.3497	7.21615	-6.38336	18.59522	27.73207	1.42544	0.70154	124.82296	119.51593	47.06987	0.32593	 	4385094.621	 	1.35028E-6	 	32578.847	35.3006	 
935.0	1.0	0.0	7.35193	7.21397	-6.41167	18.58098	27.67575	1.42246	0.70301	125.36847	119.89989	47.28274	0.32573	 	4855821.888	 	1.21435E-6	 	32402.46	35.2774	 
930.0	1.0	0.0	7.35415	7.21179	-6.43993	18.56675	27.61944	1.41946	0.70449	125.9137	120.28271	47.49557	0.32553	 	5381794.811	 	1.09114E-6	 	32226.184	35.2552	 
925.0	1.0	0.0	7.35637	7.20962	-6.46816	18.55253	27.56314	1.41645	0.70599	126.45863	120.66436	47.70835	0.32533	 	5970036.195	 	9.79537E-7	 	32050.015	35.2338	 
920.0	1.0	0.0	7.35858	7.20744	-6.49634	18.53832	27.50685	1.41342	0.7075	127.00325	121.04484	47.92108	0.32513	 	6628528.812	 	8.78546E-7	 	31873.947	35.2136	 
915.0	1.0	0.0	7.3608	7.20528	-6.52449	18.52413	27.45058	1.41038	0.70903	127.54754	121.42415	48.13375	0.32493	 	7366355.678	 	7.87237E-7	 	31697.975	35.1944	 
910.0	1.0	0.0	7.36301	7.20311	-6.55259	18.50995	27.39433	1.40733	0.71056	128.09149	121.80226	48.34635	0.32473	 	8193862.148	 	7.04755E-7	 	31522.095	35.176	 
905.0	1.0	0.0	7.36523	7.20095	-6.58065	18.49578	27.33809	1.40427	0.71211	128.63508	122.17917	48.55888	0.32453	 	9122843.409	 	6.30314E-7	 	31346.301	35.1588	 
900.0	1.0	0.0	7.36744	7.19879	-6.60867	18.48163	27.28187	1.40119	0.71368	129.1783	122.55486	48.77134	0.32433	 	1.016676159E7	 	5.63193E-7	 	31170.587	35.1428	 
895.0	1.0	0.0	7.36964	7.19663	-6.63665	18.46749	27.22568	1.3981	0.71526	129.72112	122.92933	48.98371	0.32413	 	1.134099748E7	 	5.02729E-7	 	30994.947	35.128	 
890.0	1.0	0.0	7.37185	7.19448	-6.66459	18.45336	27.1695	1.39499	0.71685	130.26354	123.30257	49.19599	0.32392	 	1.266314259E7	 	4.48313E-7	 	30819.375	35.1144	 
885.0	1.0	0.0	7.37405	7.19233	-6.69249	18.43924	27.11335	1.39187	0.71846	130.80554	123.67456	49.40818	0.32372	 	1.415333861E7	 	3.99386E-7	 	30643.864	35.1022	 
880.0	1.0	0.0	7.37626	7.19018	-6.72035	18.42514	27.05722	1.38874	0.72008	131.3471	124.0453	49.62027	0.32352	 	1.583467213E7	 	3.55438E-7	 	30468.408	35.0912	 
875.0	1.0	0.0	7.37846	7.18803	-6.74817	18.41104	27.00112	1.38559	0.72171	131.88822	124.41477	49.83225	0.32332	 	1.773363446E7	 	3.16E-7	 	30292.999	35.0818	 
870.0	1.0	0.0	7.38065	7.18589	-6.77594	18.39696	26.94505	1.38243	0.72337	132.42886	124.78297	50.04412	0.32312	 	1.988065763E7	 	2.80646E-7	 	30117.63	35.0738	 
865.0	1.0	0.0	7.38285	7.18375	-6.80368	18.3829	26.88901	1.37925	0.72503	132.96902	125.14988	50.25587	0.32292	 	2.231074014E7	 	2.48984E-7	 	29942.294	35.0672	 
860.0	1.0	0.0	7.38505	7.18162	-6.83138	18.36884	26.833	1.37606	0.72671	133.50869	125.51549	50.4675	0.32272	 	2.506417827E7	 	2.20658E-7	 	29766.982	35.0624	 
855.0	1.0	0.0	7.38724	7.17949	-6.85903	18.3548	26.77702	1.37285	0.72841	134.04784	125.8798	50.67899	0.32252	 	2.818742183E7	 	1.95343E-7	 	29591.686	35.0592	 
850.0	1.0	0.0	7.38943	7.17736	-6.88665	18.34077	26.72107	1.36962	0.73013	134.58646	126.2428	50.89035	0.32232	 	3.173407675E7	 	1.72742E-7	 	29416.397	35.0578	 
845.0	1.0	0.0	7.39162	7.17523	-6.91422	18.32676	26.66517	1.36639	0.73186	135.12454	126.60446	51.10157	0.32212	 	3.57660812E7	 	1.52586E-7	 	29241.104	35.0586	 
840.0	1.0	0.0	7.39381	7.17311	-6.94176	18.31275	26.6093	1.36313	0.7336	135.66206	126.9648	51.31264	0.32192	 	4.035508696E7	 	1.3463E-7	 	29065.799	35.061	 
835.0	1.0	0.0	7.39599	7.17099	-6.96925	18.29876	26.55347	1.35986	0.73537	136.199	127.32378	51.52356	0.32172	 	4.558408406E7	 	1.18651E-7	 	28890.471	35.0656	 
830.0	1.0	0.0	7.39817	7.16888	-6.99671	18.28478	26.49768	1.35658	0.73715	136.73535	127.68141	51.73432	0.32151	 	5.154931386E7	 	1.04448E-7	 	28715.109	35.0724	 
825.0	1.0	0.0	7.40036	7.16676	-7.02412	18.27082	26.44193	1.35328	0.73895	137.27109	128.03768	51.94491	0.32131	 	5.836252488E7	 	9.18363E-8	 	28539.701	35.0816	 
820.0	1.0	0.0	7.40254	7.16465	-7.0515	18.25687	26.38623	1.34996	0.74076	137.80622	128.39257	52.15533	0.32111	 	6.615363628E7	 	8.06516E-8	 	28364.234	35.0934	 
815.0	1.0	0.0	7.40471	7.16255	-7.07883	18.24293	26.33058	1.34662	0.7426	138.34071	128.74608	52.36558	0.32091	 	7.507388691E7	 	7.07435E-8	 	28188.696	35.1076	 
810.0	1.0	0.0	7.40689	7.16044	-7.10613	18.229	26.27497	1.34327	0.74445	138.87455	129.09819	52.57564	0.32071	 	8.529956346E7	 	6.19767E-8	 	28013.072	35.1248	 
805.0	1.0	0.0	7.40906	7.15834	-7.13338	18.21508	26.21941	1.33991	0.74632	139.40772	129.4489	52.78551	0.32051	 	9.703642058E7	 	5.42289E-8	 	27837.348	35.1448	 
800.0	1.0	0.0	7.41123	7.15624	-7.1606	18.20118	26.1639	1.33652	0.74821	139.94021	129.7982	52.99519	0.32031	 	1.105249284E8	 	4.739E-8	 	27661.508	35.168	 
795.0	1.0	0.0	7.4134	7.15415	-7.18777	18.18729	26.10844	1.33312	0.75012	140.472	130.14608	53.20467	0.32011	 	1.260465116E8	 	4.13607E-8	 	27485.534	35.1948	 
790.0	1.0	0.0	7.41557	7.15206	-7.21491	18.17341	26.05303	1.3297	0.75205	141.00309	130.49253	53.41394	0.31991	 	1.439309777E8	 	3.60518E-8	 	27309.41	35.2248	 
785.0	1.0	0.0	7.41774	7.14997	-7.24201	18.15955	25.99767	1.32627	0.754	141.53345	130.83755	53.623	0.31971	 	1.645653743E8	 	3.13831E-8	 	27133.115	35.259	 
780.0	1.0	0.0	7.4199	7.14788	-7.26906	18.14569	25.94236	1.32281	0.75596	142.06307	131.18111	53.83184	0.31951	 	1.884045662E8	 	2.72826E-8	 	26956.63	35.297	 
775.0	1.0	0.0	7.42207	7.1458	-7.29608	18.13185	25.88711	1.31934	0.75795	142.59193	131.52322	54.04046	0.31931	 	2.159838847E8	 	2.36858E-8	 	26779.931	35.3398	 
770.0	1.0	0.0	7.42423	7.14372	-7.32306	18.11803	25.83191	1.31585	0.75996	143.12002	131.86386	54.24886	0.31911	 	2.479342784E8	 	2.05351E-8	 	26602.995	35.3872	 
765.0	1.0	0.0	7.42638	7.14164	-7.35	18.10421	25.77676	1.31235	0.76199	143.64734	132.20304	54.45702	0.31891	 	2.850004877E8	 	1.77787E-8	 	26425.796	35.4398	 
760.0	1.0	0.0	7.42854	7.13957	-7.37689	18.09041	25.72167	1.30883	0.76404	144.17385	132.54073	54.66494	0.3187	 	3.280628823E8	 	1.53707E-8	 	26248.307	35.4978	 
755.0	1.0	0.0	7.4307	7.1375	-7.40375	18.07662	25.66662	1.30529	0.76612	144.69955	132.87693	54.87261	0.3185	 	3.78163738E8	 	1.32698E-8	 	26070.498	35.5618	 
750.0	1.0	0.0	7.43285	7.13543	-7.43057	18.06284	25.61163	1.30173	0.76821	145.22442	133.21164	55.08004	0.3183	 	4.365389108E8	 	1.14394E-8	 	25892.335	35.6326	 
745.0	1.0	0.0	7.435	7.13337	-7.45736	18.04908	25.55668	1.29815	0.77033	145.74846	133.54484	55.2872	0.3181	 	5.046560745E8	 	9.84698E-9	 	25713.785	35.71	 
740.0	1.0	0.0	7.43715	7.13131	-7.4841	18.03533	25.50178	1.29456	0.77247	146.27163	133.87652	55.49411	0.3179	 	5.842609614E8	 	8.46357E-9	 	25534.808	35.7954	 
735.0	1.0	0.0	7.4393	7.12925	-7.5108	18.02159	25.44693	1.29094	0.77463	146.79394	134.20668	55.70075	0.3177	 	6.774333734E8	 	7.26349E-9	 	25355.363	35.889	 
730.0	1.0	0.0	7.44144	7.12719	-7.53746	18.00786	25.39212	1.28731	0.77681	147.31536	134.53532	55.90712	0.3175	 	7.866551433E8	 	6.22398E-9	 	25175.404	35.9918	 
725.0	1.0	0.0	7.44358	7.12514	-7.56409	17.99415	25.33735	1.28367	0.77902	147.83589	134.86242	56.1132	0.3173	 	9.148927385E8	 	5.32491E-9	 	24994.881	36.1046	 
720.0	1.0	0.0	7.44573	7.12309	-7.59067	17.98045	25.28263	1.28	0.78125	148.3555	135.18797	56.31901	0.3171	 	1.065697836E9	 	4.54849E-9	 	24813.74	36.2282	 
715.0	1.0	0.0	7.44787	7.12105	-7.61722	17.96676	25.22794	1.27632	0.7835	148.87419	135.51197	56.52452	0.3169	 	1.24333E9	 	3.87903E-9	 	24631.921	36.3638	 
710.0	1.0	0.0	7.45	7.119	-7.64373	17.95308	25.17328	1.27262	0.78578	149.39193	135.83441	56.72974	0.3167	 	1.452906576E9	 	3.3027E-9	 	24449.358	36.5126	 
705.0	1.0	0.0	7.45214	7.11696	-7.6702	17.93942	25.11865	1.2689	0.78809	149.90873	136.15528	56.93467	0.3165	 	1.700586199E9	 	2.80733E-9	 	24265.978	36.676	 
700.0	1.0	0.0	7.45427	7.11492	-7.69663	17.92577	25.06404	1.26516	0.79041	150.42455	136.47457	57.13928	0.3163	 	1.993793833E9	 	2.38224E-9	 	24081.701	36.8554	 
695.0	1.0	0.0	7.45641	7.11289	-7.72302	17.91213	25.00946	1.26141	0.79276	150.9394	136.79228	57.34359	0.3161	 	2.341497297E9	 	2.01807E-9	 	23896.438	37.0526	 
690.0	1.0	0.0	7.45854	7.11086	-7.74937	17.8985	24.9549	1.25764	0.79514	151.45324	137.10841	57.54757	0.3159	 	2.754547676E9	 	1.70659E-9	 	23710.09	37.2696	 
685.0	1.0	0.0	7.46066	7.10883	-7.77569	17.88489	24.90034	1.25385	0.79754	151.96608	137.42293	57.75124	0.3157	 	3.246099205E9	 	1.44065E-9	 	23522.547	37.5086	 
680.0	1.0	0.0	7.46279	7.1068	-7.80196	17.87129	24.8458	1.25005	0.79997	152.4779	137.73585	57.95458	0.31549	 	3.832128181E9	 	1.21397E-9	 	23329.402	38.629	 
675.0	1.0	0.0	7.46491	7.10478	-7.8282	17.8577	24.79126	1.24622	0.80242	152.98868	138.04716	58.15759	0.31529	 	4.532075549E9	 	1.0211E-9	 	23127.763	40.3278	 
670.0	1.0	0.0	7.46704	7.10276	-7.8544	17.84413	24.73671	1.24239	0.8049	153.4984	138.35686	58.36026	0.31509	 	5.369644242E9	 	8.57279E-10	 	22927.711	40.0104	 
665.0	1.0	0.0	7.46916	7.10075	-7.88056	17.83057	24.68216	1.23853	0.80741	154.00707	138.66492	58.56258	0.31489	 	6.373790563E9	 	7.18392E-10	 	22729.192	39.7038	 
660.0	1.0	0.0	7.47128	7.09873	-7.90668	17.81702	24.62759	1.23466	0.80994	154.51466	138.97136	58.76456	0.31469	 	7.579959423E9	 	6.00857E-10	 	22532.154	39.4076	 
655.0	1.0	0.0	7.47339	7.09672	-7.93276	17.80348	24.57301	1.23077	0.8125	155.02115	139.27615	58.96619	0.31449	 	9.03162665E9	 	5.01578E-10	 	22336.548	39.1212	 
650.0	1.0	0.0	7.47551	7.09471	-7.95881	17.78995	24.5184	1.22687	0.81508	155.52654	139.5793	59.16746	0.31429	 	1.07822E10	 	4.17879E-10	 	22142.328	38.844	 
645.0	1.0	0.0	7.47762	7.09271	-7.98481	17.77644	24.46376	1.22295	0.8177	156.03082	139.8808	59.36836	0.31409	 	1.2897599999999998E10	 	3.4745E-10	 	21949.451	38.5754	 
640.0	1.0	0.0	7.47973	7.09071	-8.01078	17.76294	24.40908	1.21901	0.82034	156.53396	140.18063	59.56889	0.31389	 	1.5458899999999998E10	 	2.88303E-10	 	21757.873	38.3156	 
635.0	1.0	0.0	7.48184	7.08871	-8.03671	17.74945	24.35436	1.21506	0.823	157.03596	140.47881	59.76905	0.31369	 	1.85668E10	 	2.38731E-10	 	21567.555	38.0636	 
630.0	1.0	0.0	7.48395	7.08671	-8.06261	17.73598	24.29959	1.2111	0.8257	157.5368	140.77531	59.96883	0.31349	 	2.23457E10	 	1.97266E-10	 	21378.459	37.8192	 
625.0	1.0	0.0	7.48605	7.08472	-8.08846	17.72252	24.24476	1.20711	0.82842	158.03647	141.07013	60.16822	0.31329	 	2.6950399999999996E10	 	1.62656E-10	 	21190.55	37.5818	 
620.0	1.0	0.0	7.48816	7.08273	-8.11428	17.70907	24.18988	1.20312	0.83117	158.53495	141.36326	60.36722	0.31309	 	3.2573799999999996E10	 	1.33827E-10	 	21003.793	37.3514	 
615.0	1.0	0.0	7.49026	7.08074	-8.14006	17.69563	24.13493	1.19911	0.83395	159.03224	141.65471	60.56583	0.31289	 	3.94565E10	 	1.09864E-10	 	20818.155	37.1276	 
610.0	1.0	0.0	7.49236	7.07876	-8.1658	17.68221	24.07991	1.19508	0.83676	159.52832	141.94446	60.76404	0.31269	 	4.789939999999999E10	 	8.99894E-11	 	20633.607	36.9096	 
605.0	1.0	0.0	7.49445	7.07678	-8.1915	17.6688	24.02482	1.19104	0.8396	160.02317	142.2325	60.96184	0.31249	 	5.828009999999999E10	 	7.35419E-11	 	20450.117	36.698	 
600.0	1.0	0.0	7.49655	7.0748	-8.21716	17.6554	23.96964	1.18698	0.84247	160.51679	142.51884	61.15923	0.31229	 	7.10733E10	 	5.9961E-11	 	20267.658	36.4918	 
595.0	1.0	0.0	7.49864	7.07282	-8.24279	17.64201	23.91438	1.18291	0.84537	161.00915	142.80345	61.3562	0.31209	 	8.68771E10	 	4.87726E-11	 	20086.203	36.291	 
590.0	1.0	0.0	7.50073	7.07085	-8.26838	17.62864	23.85902	1.17883	0.8483	161.50026	143.08635	61.55276	0.31188	 	1.06447E11	 	3.95766E-11	 	19905.728	36.095	 
585.0	1.0	0.0	7.50282	7.06888	-8.29393	17.61528	23.80357	1.17473	0.85126	161.99009	143.36752	61.74888	0.31168	 	1.30741E11	 	3.20361E-11	 	19726.207	35.9042	 
580.0	1.0	0.0	7.50491	7.06692	-8.31945	17.60193	23.74802	1.17062	0.85425	162.47863	143.64696	61.94458	0.31148	 	1.60973E11	 	2.58677E-11	 	19547.617	35.718	 
575.0	1.0	0.0	7.507	7.06495	-8.34492	17.58859	23.69237	1.16649	0.85727	162.96587	143.92465	62.13984	0.31128	 	1.98693E11	 	2.08342E-11	 	19369.937	35.536	 
570.0	1.0	0.0	7.50908	7.06299	-8.37036	17.57527	23.63662	1.16235	0.86033	163.45179	144.2006	62.33465	0.31108	 	2.45876E11	 	1.67369E-11	 	19193.145	35.3584	 
565.0	1.0	0.0	7.51117	7.06103	-8.39577	17.56196	23.58075	1.1582	0.86341	163.93639	144.4748	62.52902	0.31088	 	3.05052E11	 	1.34102E-11	 	19017.222	35.1846	 
560.0	1.0	0.0	7.51325	7.05908	-8.42113	17.54866	23.52478	1.15403	0.86653	164.41965	144.74725	62.72294	0.31068	 	3.79468E11	 	1.07161E-11	 	18842.147	35.015	 
555.0	1.0	0.0	7.51532	7.05713	-8.44646	17.53537	23.46869	1.14984	0.86969	164.90155	145.01793	62.9164	0.31048	 	4.73305E11	 	8.53993E-12	 	18667.903	34.8488	 
550.0	1.0	0.0	7.5174	7.05518	-8.47175	17.5221	23.41249	1.14564	0.87287	165.38209	145.28685	63.1094	0.31028	 	5.91962E11	 	6.78691E-12	 	18494.473	34.686	 
545.0	1.0	0.0	7.51948	7.05323	-8.497	17.50884	23.35617	1.14143	0.87609	165.86125	145.55399	63.30193	0.31008	 	7.42427E11	 	5.37856E-12	 	18321.839	34.5268	 
540.0	1.0	0.0	7.52155	7.05129	-8.52222	17.49559	23.29974	1.1372	0.87935	166.33903	145.81935	63.49399	0.30988	 	9.33778E11	 	4.25024E-12	 	18149.985	34.3708	 
535.0	1.0	0.0	7.52362	7.04935	-8.5474	17.48236	23.2432	1.13296	0.88265	166.8154	146.08293	63.68558	0.30968	 	1.17784E12	 	3.34882E-12	 	17978.896	34.2178	 
530.0	1.0	0.0	7.52569	7.04741	-8.57254	17.46914	23.18653	1.1287	0.88597	167.29035	146.34472	63.87668	0.30948	 	1.49006E12	 	2.63075E-12	 	17808.558	34.0676	 
525.0	1.0	0.0	7.52775	7.04547	-8.59764	17.45593	23.12976	1.12443	0.88934	167.76388	146.60472	64.06729	0.30928	 	1.8907E12	 	2.06039E-12	 	17638.956	33.9204	 
520.0	1.0	0.0	7.52982	7.04354	-8.62271	17.44273	23.07287	1.12014	0.89275	168.23597	146.86292	64.25742	0.30908	 	2.40638E12	 	1.60871E-12	 	17470.078	33.7756	 
515.0	1.0	0.0	7.53188	7.04161	-8.64774	17.42954	23.01587	1.11583	0.89619	168.7066	147.11932	64.44704	0.30888	 	3.07224E12	 	1.2521E-12	 	17301.909	33.6338	 
510.0	1.0	0.0	7.53394	7.03968	-8.67273	17.41637	22.95875	1.11151	0.89967	169.17578	147.3739	64.63617	0.30868	 	3.93479E12	 	9.71428E-13	 	17134.438	33.4942	 
505.0	1.0	0.0	7.536	7.03776	-8.69769	17.40321	22.90154	1.10718	0.9032	169.64347	147.62668	64.82478	0.30848	 	5.05578E12	 	7.51211E-13	 	16967.653	33.357	 
500.0	1.0	0.0	7.53806	7.03584	-8.72261	17.39007	22.84422	1.10282	0.90677	170.10968	147.87763	65.01289	0.30828	 	6.51753E12	 	5.78985E-13	 	16801.542	33.2222	 
495.0	1.0	0.0	7.54012	7.03392	-8.7475	17.37693	22.78679	1.09845	0.91037	170.57438	148.12676	65.20048	0.30808	 	8.43013E12	 	4.44732E-13	 	16636.095	33.0894	 
490.0	1.0	0.0	7.54217	7.03201	-8.77234	17.36381	22.72927	1.09406	0.91402	171.03758	148.37406	65.38755	0.30788	 	1.09413E13	 	3.4043E-13	 	16471.3	32.959	 
485.0	1.0	0.0	7.54422	7.03009	-8.79715	17.3507	22.67166	1.08966	0.91772	171.49925	148.61953	65.5741	0.30768	 	1.42501E13	 	2.59671E-13	 	16307.149	32.8302	 
480.0	1.0	0.0	7.54627	7.02818	-8.82193	17.3376	22.61396	1.08523	0.92146	171.95938	148.86316	65.76011	0.30747	 	1.86256E13	 	1.97359E-13	 	16143.63	32.7038	 
475.0	1.0	0.0	7.54832	7.02628	-8.84666	17.32452	22.55618	1.08079	0.92525	172.41797	149.10495	65.94559	0.30727	 	2.4433E13	 	1.49451E-13	 	15980.736	32.5788	 
470.0	1.0	0.0	7.55037	7.02437	-8.87136	17.31145	22.49832	1.07633	0.92909	172.87499	149.3449	66.13052	0.30707	 	3.21698E13	 	1.12749E-13	 	15818.456	32.456	 
465.0	1.0	0.0	7.55241	7.02247	-8.89603	17.29839	22.44038	1.07185	0.93297	173.33044	149.58299	66.31492	0.30687	 	4.25167E13	 	8.47368E-14	 	15656.782	32.3348	 
460.0	1.0	0.0	7.55445	7.02057	-8.92066	17.28534	22.38237	1.06734	0.9369	173.78431	149.81923	66.49876	0.30667	 	5.6408E13	 	6.34364E-14	 	15495.706	32.2152	 
455.0	1.0	0.0	7.55649	7.01868	-8.94525	17.27231	22.3243	1.06282	0.94089	174.23659	150.05361	66.68205	0.30647	 	7.51326E13	 	4.7302E-14	 	15335.22	32.0972	 
450.0	1.0	0.0	7.55853	7.01679	-8.9698	17.25929	22.26617	1.05828	0.94493	174.68726	150.28613	66.86478	0.30627	 	1.00475E14	 	3.51284E-14	 	15175.316	31.9808	 
445.0	1.0	0.0	7.56057	7.0149	-8.99432	17.24628	22.20799	1.05372	0.94902	175.13631	150.51678	67.04695	0.30607	 	1.3491599999999998E14	 	2.598E-14	 	15015.986	31.866	 
440.0	1.0	0.0	7.5626	7.01301	-9.01881	17.23328	22.14977	1.04913	0.95317	175.58373	150.74556	67.22854	0.30587	 	1.8192E14	 	1.91331E-14	 	14857.223	31.7526	 
435.0	1.0	0.0	7.56463	7.01112	-9.04325	17.2203	22.0915	1.04452	0.95738	176.02951	150.97247	67.40957	0.30567	 	2.4635E14	 	1.403E-14	 	14699.021	31.6404	 
430.0	1.0	0.0	7.56667	7.00924	-9.06766	17.20733	22.0332	1.03989	0.96164	176.47364	151.1975	67.59002	0.30547	 	3.35055E14	 	1.02428E-14	 	14541.372	31.5298	 
425.0	1.0	0.0	7.56869	7.00736	-9.09204	17.19437	21.97487	1.03524	0.96596	176.91611	151.42064	67.76989	0.30527	 	4.57733E14	 	7.4443E-15	 	14384.27	31.4204	 
420.0	1.0	0.0	7.57072	7.00549	-9.11638	17.18143	21.91651	1.03056	0.97035	177.35691	151.6419	67.94917	0.30507	 	6.28175E14	 	5.38559E-15	 	14227.709	31.3122	 
415.0	1.0	0.0	7.57275	7.00361	-9.14068	17.16849	21.85814	1.02586	0.97479	177.79602	151.86128	68.12786	0.30487	 	8.66094E14	 	3.87797E-15	 	14071.682	31.2054	 
410.0	1.0	0.0	7.57477	7.00174	-9.16495	17.15557	21.79975	1.02113	0.9793	178.23344	152.07876	68.30596	0.30467	 	1.1998E15	 	2.77903E-15	 	13916.184	31.0996	 
405.0	1.0	0.0	7.57679	6.99988	-9.18918	17.14267	21.74135	1.01638	0.98388	178.66915	152.29434	68.48345	0.30447	 	1.67017E15	 	1.98176E-15	 	13761.209	30.995	 
400.0	1.0	0.0	7.57881	6.99801	-9.21337	17.12977	21.68295	1.01161	0.98853	179.10315	152.50803	68.66035	0.30427	 	2.33649E15	 	1.40616E-15	 	13606.752	30.8914	 
395.0	1.0	0.0	7.58083	6.99615	-9.23753	17.11689	21.62456	1.0068	0.99324	179.53542	152.71981	68.83663	0.30407	 	3.28523E15	 	9.92647E-16	 	13452.807	30.789	 
390.0	1.0	0.0	7.58284	6.99429	-9.26166	17.10402	21.56617	1.00197	0.99803	179.96596	152.9297	69.01231	0.30387	 	4.64321E15	 	6.97076E-16	 	13299.368	30.6878	 
385.0	1.0	0.0	7.58486	6.99243	-9.28575	17.09116	21.5078	0.99712	1.00289	180.39475	153.13767	69.18737	0.30367	 	6.59737E15	 	4.86901E-16	 	13146.432	30.5872	 
380.0	1.0	0.0	7.58687	6.99058	-9.3098	17.07832	21.44943	0.99224	1.00783	180.82178	153.34374	69.36181	0.30347	 	9.4249E15	 	3.38238E-16	 	12993.993	30.4878	 
375.0	1.0	0.0	7.58888	6.98873	-9.33382	17.06549	21.39109	0.98733	1.01284	181.24705	153.54789	69.53562	0.30327	 	1.35391E16	 	2.33654E-16	 	12842.047	30.3892	 
370.0	1.0	0.0	7.59089	6.98688	-9.3578	17.05267	21.33278	0.98239	1.01793	181.67054	153.75013	69.70881	0.30307	 	1.95599E16	 	1.60485E-16	 	12690.588	30.2918	 
365.0	1.0	0.0	7.59289	6.98503	-9.38175	17.03986	21.27449	0.97742	1.0231	182.09224	153.95045	69.88136	0.30287	 	2.84225E16	 	1.09584E-16	 	12539.613	30.195	 
360.0	1.0	0.0	7.5949	6.98319	-9.40566	17.02707	21.21623	0.97242	1.02836	182.51216	154.14886	70.05328	0.30267	 	4.15469E16	 	7.43797E-17	 	12389.118	30.099	 
355.0	1.0	0.0	7.5969	6.98135	-9.42954	17.01428	21.15801	0.9674	1.0337	182.93027	154.34535	70.22456	0.30247	 	6.11021E16	 	5.01757E-17	 	12239.097	30.0042	 
350.0	1.0	0.0	7.5989	6.97951	-9.45338	17.00152	21.09982	0.96235	1.03913	183.34656	154.53991	70.39519	0.30227	 	9.04229E16	 	3.36357E-17	 	12089.548	29.9098	 
345.0	1.0	0.0	7.6009	6.97768	-9.47718	16.98876	21.04167	0.95726	1.04464	183.76104	154.73255	70.56518	0.30207	 	1.3467E17	 	2.24032E-17	 	11940.466	29.8164	 
340.0	1.0	0.0	7.60289	6.97584	-9.50095	16.97602	20.98356	0.95215	1.05025	184.17368	154.92327	70.73452	0.30187	 	2.01883E17	 	1.48236E-17	 	11791.847	29.7238	 
335.0	1.0	0.0	7.60489	6.97401	-9.52469	16.96328	20.92549	0.94701	1.05596	184.58449	155.11206	70.9032	0.30167	 	3.04673E17	 	9.74234E-18	 	11643.689	29.6316	 
330.0	1.0	0.0	7.60688	6.97219	-9.54839	16.95057	20.86747	0.94183	1.06176	184.99345	155.29892	71.07123	0.30147	 	4.62965E17	 	6.35863E-18	 	11495.987	29.5404	 
325.0	1.0	0.0	7.60887	6.97036	-9.57205	16.93786	20.80949	0.93663	1.06766	185.40056	155.48386	71.23859	0.30126	 	7.0846E17	 	4.1208E-18	 	11348.738	29.4498	 
320.0	1.0	0.0	7.61086	6.96854	-9.59568	16.92517	20.75156	0.93139	1.07366	185.80581	155.66687	71.40529	0.30106	 	1.09197E18	 	2.65118E-18	 	11201.938	29.36	 
315.0	1.0	0.0	7.61285	6.96672	-9.61928	16.91249	20.69368	0.92612	1.07977	186.20919	155.84795	71.57132	0.30086	 	1.69558E18	 	1.693E-18	 	11055.586	29.2704	 
310.0	1.0	0.0	7.61483	6.96491	-9.64284	16.89982	20.63585	0.92082	1.08599	186.61069	156.0271	71.73669	0.30066	 	2.65286E18	 	1.07288E-18	 	10909.677	29.1818	 
305.0	1.0	0.0	7.61681	6.96309	-9.66637	16.88716	20.57806	0.91549	1.09231	187.01031	156.20432	71.90138	0.30046	 	4.18301E18	 	6.74588E-19	 	10764.209	29.0936	 
300.0	1.0	0.0	7.6188	6.96128	-9.68986	16.87452	20.52033	0.91013	1.09875	187.40803	156.37962	72.06539	0.30026	 	6.64854E18	 	4.20754E-19	 	10619.178	29.0062	 
295.0	1.0	0.0	7.62078	6.95947	-9.71331	16.86189	20.46264	0.90473	1.1053	187.80387	156.55299	72.22872	0.30006	 	1.06542E19	 	2.60273E-19	 	10474.583	28.919	 
290.0	1.0	0.0	7.62275	6.95767	-9.73674	16.84927	20.405	0.8993	1.11197	188.1978	156.72443	72.39138	0.29986	 	1.72172E19	 	1.59642E-19	 	10330.42	28.8326	 
285.0	1.0	0.0	7.62473	6.95587	-9.76012	16.83667	20.3474	0.89384	1.11877	188.58983	156.89395	72.55335	0.29966	 	2.80642E19	 	9.70699E-20	 	10186.687	28.7466	 
280.0	1.0	0.0	7.6267	6.95407	-9.78348	16.82407	20.28986	0.88834	1.12569	188.97994	157.06154	72.71463	0.29946	 	4.61521E19	 	5.84976E-20	 	10043.382	28.661	 
275.0	1.0	0.0	7.62867	6.95227	-9.80679	16.81149	20.23236	0.88282	1.13274	189.36814	157.22721	72.87523	0.29926	 	7.65922E19	 	3.49303E-20	 	9900.502	28.576	 
270.0	1.0	0.0	7.63064	6.95047	-9.83008	16.79893	20.17491	0.87726	1.13992	189.75441	157.39097	73.03513	0.29906	 	1.2830399999999998E20	 	2.06618E-20	 	9758.045	28.4914	 
265.0	1.0	0.0	7.63261	6.94868	-9.85333	16.78637	20.1175	0.87166	1.14724	190.13876	157.5528	73.19434	0.29886	 	2.1700399999999997E20	 	1.21038E-20	 	9616.009	28.4072	 
260.0	1.0	0.0	7.63458	6.94689	-9.87654	16.77383	20.06014	0.86603	1.15469	190.52118	157.71272	73.35286	0.29866	 	3.7067299999999997E20	 	7.02014E-21	 	9474.392	28.3234	 
255.0	1.0	0.0	7.63654	6.94511	-9.89972	16.7613	20.00281	0.86037	1.16229	190.90167	157.87073	73.51069	0.29846	 	6.396259999999999E20	 	4.03012E-21	 	9333.192	28.24	 
250.0	1.0	0.0	7.6385	6.94332	-9.92287	16.74878	19.94553	0.85467	1.17004	191.28023	158.02684	73.66782	0.29826	 	1.1153300000000001E21	 	2.28935E-21	 	9192.408	28.1568	 
245.0	1.0	0.0	7.64046	6.94154	-9.94598	16.73628	19.88829	0.84894	1.17794	191.65685	158.18104	73.82425	0.29806	 	1.96584E21	 	1.28646E-21	 	9052.037	28.0742	 
240.0	1.0	0.0	7.64242	6.93976	-9.96906	16.72379	19.83109	0.84317	1.186	192.03153	158.33334	73.97998	0.29786	 	3.50349E21	 	7.14876E-22	 	8912.078	27.9918	 
235.0	1.0	0.0	7.64438	6.93798	-9.9921	16.71131	19.77392	0.83737	1.19422	192.40428	158.48374	74.13501	0.29766	 	6.315420000000001E21	 	3.92714E-22	 	8772.531	27.9094	 
230.0	1.0	0.0	7.64633	6.93621	-10.01511	16.69884	19.71679	0.83153	1.2026	192.77509	158.63226	74.28934	0.29746	 	1.1518599999999999E22	 	2.13199E-22	 	8633.392	27.8278	 
225.0	1.0	0.0	7.64829	6.93444	-10.03809	16.68639	19.65969	0.82566	1.21115	193.14396	158.7789	74.44298	0.29726	 	2.1264E22	 	1.14341E-22	 	8494.662	27.746	 
220.0	1.0	0.0	7.65024	6.93267	-10.06103	16.67394	19.60262	0.81975	1.21988	193.51089	158.92366	74.59591	0.29706	 	3.97464E22	 	6.05575E-23	 	8356.339	27.6646	 
215.0	1.0	0.0	7.65219	6.93091	-10.08394	16.66152	19.54558	0.81381	1.22879	193.87589	159.06655	74.74815	0.29686	 	7.5253199999999995E22	 	3.16603E-23	 	8218.422	27.5834	 
210.0	1.0	0.0	7.65413	6.92914	-10.10681	16.6491	19.48857	0.80783	1.23789	194.23895	159.20758	74.89968	0.29666	 	1.44377E23	 	1.63332E-23	 	8080.91	27.5024	 
205.0	1.0	0.0	7.65608	6.92738	-10.12966	16.6367	19.43159	0.80181	1.24717	194.60009	159.34676	75.05052	0.29646	 	2.8079999999999997E23	 	8.311E-24	 	7943.803	27.4214	 
200.0	1.0	0.0	7.65802	6.92562	-10.15246	16.6243	19.37464	0.79576	1.25666	194.9593	159.4841	75.20067	0.29626	 	5.5387299999999994E23	 	4.16942E-24	 	7807.1	27.3406	 
195.0	1.0	0.0	7.65997	6.92387	-10.17524	16.61193	19.31771	0.78967	1.26635	195.31659	159.6196	75.35012	0.29606	 	1.10849E24	 	2.06129E-24	 	7670.8	27.26	 
190.0	1.0	0.0	7.6619	6.92212	-10.19798	16.59956	19.2608	0.78355	1.27625	195.67197	159.75328	75.49887	0.29586	 	2.25199E24	 	1.00379E-24	 	7534.904	27.1792	 
185.0	1.0	0.0	7.66384	6.92037	-10.22068	16.58721	19.20391	0.77738	1.28637	196.02545	159.88514	75.64694	0.29566	 	4.6465200000000003E24	 	4.81245E-25	 	7399.41	27.0988	 
180.0	1.0	0.0	7.66578	6.91862	-10.24335	16.57487	19.14704	0.77118	1.29671	196.37703	160.01521	75.79432	0.29546	 	9.74175E24	 	2.27034E-25	 	7264.32	27.018	 
175.0	1.0	0.0	7.66771	6.91687	-10.26599	16.56254	19.09019	0.76495	1.30728	196.72672	160.14349	75.94102	0.29526	 	2.07647E25	 	1.05338E-25	 	7129.633	26.9374	 
170.0	1.0	0.0	7.66964	6.91513	-10.2886	16.55022	19.03336	0.75867	1.3181	197.07453	160.27	76.08704	0.29506	 	4.50235E25	 	4.80395E-26	 	6995.349	26.8568	 
165.0	1.0	0.0	7.67157	6.91339	-10.31117	16.53792	18.97654	0.75236	1.32916	197.42048	160.39475	76.23238	0.29486	 	9.93638E25	 	2.15219E-26	 	6861.468	26.7762	 
160.0	1.0	0.0	7.6735	6.91165	-10.33371	16.52563	18.91974	0.746	1.34048	197.76458	160.51776	76.37705	0.29466	 	2.2333700000000003E26	 	9.46597E-27	 	6727.993	26.695	 
155.0	1.0	0.0	7.67543	6.90992	-10.35622	16.51335	18.86295	0.73961	1.35206	198.10684	160.63904	76.52106	0.29446	 	5.1157800000000005E26	 	4.0848E-27	 	6594.922	26.6142	 
150.0	1.0	0.0	7.67735	6.90819	-10.37869	16.50109	18.80617	0.73318	1.36392	198.44728	160.75862	76.66441	0.29426	 	1.1950199999999999E27	 	1.72825E-27	 	6462.258	26.5328	 
145.0	1.0	0.0	7.67928	6.90646	-10.40113	16.48883	18.7494	0.72671	1.37606	198.78592	160.87651	76.8071	0.29406	 	2.8487499999999997E27	 	7.16414E-28	 	6330.001	26.4514	 
140.0	1.0	0.0	7.6812	6.90473	-10.42353	16.47659	18.69264	0.7202	1.3885	199.12278	160.99274	76.94915	0.29386	 	6.93538E27	 	2.90753E-28	 	6198.152	26.3698	 
135.0	1.0	0.0	7.68312	6.903	-10.44591	16.46437	18.63589	0.71365	1.40124	199.45788	161.10732	77.09057	0.29366	 	1.7256700000000001E28	 	1.15438E-28	 	6066.714	26.2876	 
130.0	1.0	0.0	7.68503	6.90128	-10.46825	16.45215	18.57915	0.70706	1.4143	199.79124	161.22029	77.23136	0.29346	 	4.39206E28	 	4.48007E-29	 	5935.688	26.2052	 
125.0	1.0	0.0	7.68695	6.89956	-10.49055	16.43995	18.52242	0.70043	1.42769	200.1229	161.33166	77.37153	0.29326	 	1.1443900000000001E29	 	1.69809E-29	 	5805.075	26.1226	 
120.0	1.0	0.0	7.68886	6.89785	-10.51283	16.42776	18.46569	0.69376	1.44142	200.45287	161.44146	77.51109	0.29306	 	3.0553400000000003E29	 	6.28038E-30	 	5674.879	26.0392	 
115.0	1.0	0.0	7.69077	6.89613	-10.53507	16.41558	18.40896	0.68705	1.4555	200.78118	161.54973	77.65005	0.29286	 	8.36636E29	 	2.26438E-30	 	5545.102	25.9554	 
110.0	1.0	0.0	7.69268	6.89442	-10.55728	16.40342	18.35224	0.6803	1.46995	201.10788	161.65649	77.78844	0.29266	 	2.35199E30	 	7.95098E-31	 	5415.746	25.8712	 
105.0	1.0	0.0	7.69459	6.89271	-10.57945	16.39127	18.29552	0.6735	1.48478	201.433	161.76178	77.92625	0.29246	 	6.79527E30	 	2.71609E-31	 	5286.815	25.7862	 
100.0	1.0	0.0	7.6965	6.891	-10.60159	16.37913	18.23881	0.66666	1.50001	201.75657	161.86564	78.06351	0.29226	 	2.0198999999999998E31	 	9.01656E-32	 	5158.312	25.7006	 
95.0	1.0	0.0	7.6984	6.8893	-10.6237	16.367	18.1821	0.65978	1.51566	202.07865	161.96809	78.20023	0.29206	 	6.18451E31	 	2.9054E-32	 	5030.24	25.6144	 
90.0	1.0	0.0	7.7003	6.8876	-10.64578	16.35489	18.12538	0.65285	1.53173	202.39926	162.06919	78.33643	0.29186	 	1.95284E32	 	9.07625E-33	 	4902.604	25.5272	 
85.0	1.0	0.0	7.7022	6.8859	-10.66783	16.34279	18.06867	0.64589	1.54826	202.71847	162.16897	78.47212	0.29166	 	6.3675399999999996E32	 	2.74524E-33	 	4775.407	25.4394	 
80.0	1.0	0.0	7.7041	6.8842	-10.68984	16.3307	18.01196	0.63887	1.56525	203.03633	162.26748	78.60733	0.29146	 	2.14691E33	 	8.02846E-34	 	4648.655	25.3504	 
75.0	1.0	0.0	7.706	6.88251	-10.71182	16.31862	17.95525	0.63182	1.58273	203.35289	162.36477	78.74209	0.29126	 	7.49582E33	 	2.26691E-34	 	4522.353	25.2604	 
70.0	1.0	0.0	7.70789	6.88082	-10.73377	16.30656	17.89854	0.62472	1.60072	203.66821	162.46089	78.8764	0.29106	 	2.71425E34	 	6.1705E-35	 	4396.506	25.1694	 
65.0	1.0	0.0	7.70979	6.87913	-10.75568	16.29451	17.84183	0.61757	1.61924	203.98237	162.55591	79.0103	0.29086	 	1.02096E35	 	1.61654E-35	 	4271.121	25.077	 
60.0	1.0	0.0	7.71168	6.87744	-10.77757	16.28247	17.78511	0.61038	1.63832	204.29543	162.64987	79.14382	0.29066	 	3.99612E35	 	4.069E-36	 	4146.203	24.9836	 
55.0	1.0	0.0	7.71357	6.87576	-10.79942	16.27044	17.72839	0.60314	1.65798	204.60747	162.74285	79.27699	0.29046	 	1.63053E36	 	9.82268E-37	 	4021.759	24.8888	 
50.0	1.0	0.0	7.71545	6.87407	-10.82123	16.25843	17.67167	0.59586	1.67825	204.91857	162.83491	79.40984	0.29026	 	6.948939999999999E36	 	2.26972E-37	 	3897.798	24.7922	 
45.0	1.0	0.0	7.71734	6.87239	-10.84302	16.24643	17.61495	0.58853	1.69915	205.22883	162.92613	79.54239	0.29006	 	3.0995499999999997E37	 	5.0098E-38	 	3774.327	24.6942	 
40.0	1.0	0.0	7.71922	6.87072	-10.86478	16.23444	17.55822	0.58115	1.72072	205.53834	163.01658	79.6747	0.28986	 	1.45016E38	 	1.05396E-38	 	3651.355	24.5944	 
35.0	1.0	0.0	7.7211	6.86904	-10.8865	16.22246	17.50149	0.57373	1.74299	205.84721	163.10636	79.8068	0.28966	 	7.13314E38	 	2.10847E-39	 	3528.892	24.4926	 
30.0	1.0	0.0	7.72298	6.86737	-10.90819	16.2105	17.44476	0.56625	1.766	206.15554	163.19555	79.93874	0.28946	 	3.69801E39	 	4.00107E-40	 	3406.947	24.389	 
25.0	1.0	0.0	7.72486	6.8657	-10.92985	 	17.38802	0.55873	1.78977	206.46346	163.28425	80.07055	0.28926	 	2.02594E40	 	7.1828E-41	 	3285.533	 	 
