T (C)	Fraction solid (wt)-TOTAL	Fraction liquid (wt)-LIQUID	Density (g/(cm)^3)-TOTAL	Molar volume (cm^3)-TOTAL	Volume change (%)-  	Average expansion coeff. (10e-6 1/K)-  	Thermal conductivity (W/(m*K))-TOTAL	Electrical resistivity (10e-6 Ohm*m)-TOTAL	Electrical conductivity (10e6 1/(Ohm*m))-TOTAL	Young's modulus (GPa)-TOTAL	Bulk modulus (GPa)-TOTAL	Shear modulus(GPa)-TOTAL	Poisson's ratio-TOTAL	Liquid viscosity (mPa s)-  	Total viscosity (mPa s)-  	Liquid diffusivity (10e-9 (m^2)/s)-  	Total diffusivity (10e-9 (m^2)/s)-  	Surface Tension (mN/m)-  	Enthalpy (J/mole)-TOTAL	Specific heat (J/(mole K))-TOTAL	Latent heat (J/mole)-TOTAL
1500.0	0.0	1.0	6.9412	7.86149	0.0	26.49645	31.36767	1.84196	0.5429	0.0	105.57854	0.0	0.49975	6.69848	6.69848	1.29198	1.29198	1763.15568	64777.611	 	0.0
1495.0	0.0	1.0	6.94508	7.8571	-0.0558695	26.44503	31.29333	1.84113	0.54314	0.0	105.76485	0.0	0.49975	6.75684	6.75684	1.27721	1.27721	1764.93086	64555.926	44.337	0.0
1490.0	0.0	1.0	6.94896	7.85272	-0.11158	26.39366	31.21899	1.8403	0.54339	0.0	105.95116	0.0	0.49975	6.81605	6.81605	1.26253	1.26253	1766.70275	64334.754	44.2344	0.0
1485.0	0.0	1.0	6.95283	7.84835	-0.16714	26.34233	31.14465	1.83946	0.54364	0.0	106.13747	0.0	0.49975	6.87612	6.87612	1.24796	1.24796	1768.47131	64114.094	44.132	0.0
1480.0	0.0	1.0	6.95669	7.844	-0.22254	26.29105	31.07031	1.83862	0.54389	0.0	106.32379	0.0	0.49975	6.93707	6.93707	1.23347	1.23347	1770.23651	63893.942	44.0304	0.0
1475.0	0.0	1.0	6.96054	7.83965	-0.27779	26.23981	30.99596	1.83777	0.54414	0.0	106.5101	0.0	0.49975	6.99891	6.99891	1.21909	1.21909	1771.99831	63674.294	43.9296	0.0
1470.0	0.0	1.0	6.96439	7.83532	-0.33288	26.18862	30.92162	1.83692	0.54439	0.0	106.69641	0.0	0.49975	7.06166	7.06166	1.2048	1.2048	1773.75667	63455.147	43.8294	0.0
1465.0	0.0	1.0	6.96823	7.831	-0.38782	26.13747	30.84728	1.83607	0.54464	0.0	106.88272	0.0	0.49975	7.12533	7.12533	1.19061	1.19061	1775.51155	63236.499	43.7296	0.0
1460.0	0.0	1.0	6.97206	7.8267	-0.4426	26.08638	30.77294	1.83521	0.5449	0.0	107.06903	0.0	0.49975	7.18996	7.18996	1.17651	1.17651	1777.2629	63018.345	43.6308	0.0
1455.0	0.0	1.0	6.97589	7.8224	-0.49723	26.03533	30.69859	1.83434	0.54515	0.0	107.25535	0.0	0.49975	7.25555	7.25555	1.16251	1.16251	1779.0107	62800.682	43.5326	0.0
1450.0	0.0	1.0	6.97971	7.81812	-0.5517	25.98433	30.62425	1.83348	0.54541	0.0	107.44166	0.0	0.49975	7.32212	7.32212	1.14861	1.14861	1780.75488	62583.532	43.43	0.0
1445.0	0.0	1.0	6.98353	7.81385	-0.60601	25.93337	30.54991	1.83261	0.54567	0.0	107.62797	0.0	0.49975	7.3897	7.3897	1.1348	1.1348	1782.49542	62366.93	43.3204	0.0
1441.41	0.0	1.0	6.98626	7.81079	-0.64495	25.89678	30.49649	1.83198	0.54586	0.0	107.76184	0.0	0.49975	7.43889	7.43889	1.12494	1.12494	1783.74378	62211.618	43.2307	0.013
1440.0	0.0508601	0.94914	6.99528	7.80069	-0.7734	25.58446	30.66809	1.82023	0.54938	3.70378E-4	105.8485	1.24095E-4	0.49231	7.44764	7.98421	1.1227	1.04725	1783.28511	61701.223	362.659	449.644
1435.0	0.20607	0.79393	7.02328	7.76962	-1.16864	24.63126	31.19954	1.784	0.56054	0.10206	100.06285	0.0347251	0.46948	7.47941	16.26057	1.11467	0.51272	1781.77797	60117.392	316.766	1817.952
1430.0	0.32476	0.67524	7.04549	7.7451	-1.48049	23.8923	31.60963	1.7557	0.56957	0.6418	95.72214	0.22103	0.45185	7.51153	53.33636	1.10665	0.15585	1780.42113	58861.415	251.195	2858.94
1425.0	0.41779	0.58221	7.06358	7.72526	-1.73284	23.30635	31.93214	1.73287	0.57708	1.78719	92.408	0.62145	0.43791	7.54395	133.13055	1.09866	0.0622565	1779.19606	57836.554	204.972	3669.34
1420.0	0.49213	0.50787	7.07862	7.709	-1.9397	22.83764	32.18888	1.71399	0.58344	3.49275	89.84701	1.22407	0.42669	7.577	256.78603	1.09065	0.0321818	1778.08382	56979.835	171.344	4312.128
1418.47	0.51149	0.48851	7.08266	7.70461	-1.99562	22.71322	32.2544	1.70896	0.58515	4.09313	89.19793	1.43745	0.42375	7.58713	301.73273	1.08821	0.0273633	1777.76248	56748.026	 	4478.736
1415.0	0.57481	0.42519	7.09455	7.69174	-2.15921	22.33168	32.39097	1.69826	0.58884	6.34298	88.07018	2.24179	0.41471	7.60698	537.82749	1.08314	0.0153199	1775.84226	55944.266	207.114	5134.287
1410.0	0.64678	0.35322	7.10861	7.67672	-2.35036	21.89831	32.53498	1.68574	0.59321	10.24039	86.94663	3.64594	0.40436	7.63642	972.11564	1.07577	0.00845068	1773.33528	54991.619	190.529	5874.044
1405.0	0.70158	0.29842	7.11998	7.66463	-2.50417	21.56257	32.63128	1.67577	0.59674	14.56401	86.23128	5.21492	0.39638	7.66625	1479.8111	1.0684	0.00553492	1771.06872	54221.623	153.999	6431.665
1400.0	0.74427	0.25573	7.12944	7.65465	-2.63108	21.29726	32.69371	1.66759	0.59967	19.01193	85.79253	6.83837	0.39009	7.69685	2033.77298	1.06098	0.00401531	1769.01007	53580.037	128.317	6861.388
1395.0	0.77818	0.22182	7.13751	7.64617	-2.73893	21.08181	32.73117	1.6607	0.60216	23.37043	85.54772	8.43675	0.38504	7.72817	2617.13443	1.05353	0.00311097	1767.13574	53031.293	109.749	7198.778
1390.0	0.80567	0.19433	7.14458	7.63882	-2.83244	20.9039	32.75023	1.65476	0.60432	27.5281	85.44342	9.96752	0.38089	7.76026	3222.61328	1.04602	0.00251889	1765.42165	52550.289	96.2008	7468.932
1385.0	0.82832	0.17168	7.1509	7.63227	-2.91572	20.7527	32.75529	1.64953	0.60623	31.43501	85.44213	11.41081	0.37742	7.79302	3847.52863	1.0385	0.00210343	1763.8525	52120.057	86.0464	7688.817
1380.0	0.84727	0.15273	7.15666	7.62637	-2.99083	20.62285	32.74949	1.64485	0.60796	35.07103	85.51984	12.75788	0.37448	7.82648	4491.24355	1.03094	0.00179652	1762.41031	51728.908	78.2298	7870.118
1375.0	0.86329	0.13671	7.16197	7.62094	-3.05983	20.50887	32.73504	1.6406	0.60953	38.44119	85.6579	14.0096	0.37196	7.86096	5155.06804	1.02331	0.00156045	1761.08367	51368.386	72.1044	8021.288
1370.0	0.87699	0.12301	7.16693	7.61592	-3.12376	20.40809	32.71371	1.63669	0.61099	41.55684	85.84441	15.16932	0.36977	7.89608	5840.79152	1.01567	0.00137307	1759.8597	51032.247	67.2278	8148.567
1365.0	0.88879	0.11121	7.17161	7.6112	-3.18375	20.31751	32.68675	1.63305	0.61235	44.44004	86.06948	16.24458	0.36784	7.93189	6551.49888	1.00801	0.00122039	1758.72932	50715.796	63.2902	8256.648
1360.0	0.89907	0.10093	7.17606	7.60674	-3.24048	20.23538	32.65518	1.62964	0.61363	47.11328	86.32564	17.24324	0.36614	7.96868	7290.49123	1.00029	0.00109334	1757.6827	50415.446	60.07	8349.115
1355.0	0.90808	0.0919246	7.18033	7.60248	-3.29474	20.1595	32.61977	1.62641	0.61485	49.59736	86.60697	18.17267	0.36461	8.00611	8061.25827	0.99257	9.85776E-4	1756.716	50128.414	57.4064	8428.746
1353.1	0.91116	0.0888391	7.18189	7.60092	-3.31449	20.13299	32.60538	1.62523	0.6153	50.48235	86.71977	18.50412	0.36408	8.02057	8360.9321	0.98962	9.49334E-4	1756.35799	50022.826	 	8455.589
1350.0	0.91753	0.082467	7.18518	7.59767	-3.35592	20.06362	32.58669	1.62307	0.61612	52.31455	86.87235	19.19081	0.36301	8.04967	8925.12117	0.98416	8.87629E-4	1756.53972	49835.361	58.6106	8514.881
1345.0	0.92667	0.0733256	7.19021	7.59272	-3.41885	19.96207	32.55286	1.61975	0.61738	55.06904	87.1443	20.22451	0.36144	8.0971	9863.49525	0.97538	8.00709E-4	1756.87001	49545.422	57.9878	8598.378
1340.0	0.93456	0.0654411	7.19492	7.58812	-3.47738	19.87223	32.51506	1.61662	0.61857	57.5825	87.44312	21.16911	0.36006	8.14542	10837.26632	0.9666	7.2651E-4	1757.23335	49269.239	55.2366	8668.594
1335.0	0.94141	0.058587	7.19938	7.58379	-3.53244	19.79154	32.47394	1.61365	0.61971	59.88785	87.76377	22.0366	0.35883	8.19427	11852.23416	0.95786	6.62236E-4	1757.62928	49004.281	52.9916	8728.058
1330.0	0.94742	0.0525849	7.20363	7.57968	-3.58466	19.71834	32.43007	1.61081	0.62081	62.01435	88.1023	22.83771	0.35772	8.24408	12914.42178	0.94911	6.05879E-4	1758.0548	48748.59	51.1382	8778.724
1325.0	0.9527	0.0472957	7.20771	7.57577	-3.63449	19.65143	32.3839	1.60807	0.62186	63.98471	88.45562	23.58075	0.35671	8.29453	14029.49861	0.9404	5.55984E-4	1758.50722	48500.629	49.5922	8822.125
1320.0	0.95739	0.0426069	7.21164	7.57202	-3.6822	19.5901	32.3358	1.60543	0.62289	65.81955	88.82156	24.27333	0.3558	8.346	15203.90151	0.93168	5.11433E-4	1758.97941	48259.181	48.2896	8859.478
1315.0	0.96157	0.0384306	7.21544	7.5684	-3.72823	19.53314	32.28603	1.60286	0.62389	67.53594	89.19783	24.92175	0.35496	8.39848	16443.66991	0.92295	4.71389E-4	1759.47346	48023.266	47.183	8891.758
1310.0	0.96531	0.0346907	7.21914	7.56489	-3.77289	19.47972	32.23481	1.60035	0.62486	69.14879	89.58307	25.53152	0.35418	8.45168	17755.61883	0.91425	4.35184E-4	1759.98955	47792.088	46.2356	8919.758
1305.0	0.96867	0.0313279	7.22274	7.56148	-3.81622	19.42973	32.18235	1.5979	0.62582	70.67042	89.97617	26.10721	0.35347	8.50603	19146.81175	0.90554	4.02289E-4	1760.51928	47565.001	45.4174	8944.124
1300.0	0.97171	0.0282918	7.22627	7.55815	-3.85855	19.3823	32.12881	1.59549	0.62677	72.11179	90.37572	26.65291	0.35279	8.56112	20624.45416	0.89686	3.72284E-4	1761.06765	47341.466	44.707	8965.389
1295.0	0.97446	0.0255403	7.22972	7.5549	-3.89993	19.33727	32.07435	1.59312	0.6277	73.48234	90.78089	27.17211	0.35216	8.61743	22196.44234	0.88817	3.44819E-4	1761.62923	47121.037	44.0858	8983.999
1290.0	0.97696	0.0230364	7.23312	7.55171	-3.94049	19.29427	32.01905	1.59078	0.62862	74.78966	91.1911	27.66765	0.35157	8.67459	23871.17208	0.87951	3.19605E-4	1762.20397	46903.339	43.5396	9000.325
1285.0	0.97925	0.0207513	7.23646	7.54858	-3.98032	19.25312	31.96302	1.58847	0.62954	76.04112	91.60569	28.14227	0.35101	8.73337	25657.80221	0.87079	2.96399E-4	1762.78729	46688.058	43.0562	9014.678
1280.0	0.98134	0.0186571	7.23976	7.54549	-4.01958	19.21331	31.90635	1.58619	0.63044	77.24301	92.02396	28.59833	0.35048	8.79276	27565.85686	0.86213	2.74997E-4	1763.385	46474.926	42.6264	9027.326
1275.0	0.98327	0.0167324	7.24302	7.54245	-4.05828	19.17487	31.8491	1.58392	0.63134	78.40074	92.44557	29.03785	0.34997	8.85344	29605.85492	0.85347	2.55224E-4	1763.99106	46263.713	42.2426	9038.493
1270.0	0.98504	0.0149584	7.24623	7.53945	-4.09649	19.1376	31.79137	1.58167	0.63224	79.51914	92.87007	29.46264	0.34949	8.91553	31789.01599	0.84479	2.36929E-4	1764.60376	46054.226	41.8974	9048.372
1265.0	0.98669	0.0133126	7.24942	7.53647	-4.13428	19.10126	31.73319	1.57944	0.63314	80.6039	93.29716	29.87485	0.34903	8.97909	34128.26336	0.83609	2.19974E-4	1765.22373	45846.295	41.5862	9057.129
1260.0	0.98823	0.011767	7.2526	7.53353	-4.17178	19.06551	31.6747	1.57721	0.63403	81.66481	93.72615	30.27817	0.34858	9.04374	36639.12977	0.82742	2.04233E-4	1765.84952	45639.785	41.302	9064.898
1255.0	0.98969	0.0103103	7.25576	7.5306	-4.20904	19.0302	31.61592	1.57499	0.63492	82.70377	94.15674	30.67333	0.34814	9.10955	39335.74822	0.81876	1.89612E-4	1766.48355	45434.582	41.0406	9071.789
1250.0	0.99107	0.00893415	7.25891	7.52769	-4.24606	18.99534	31.55686	1.57277	0.63582	83.72389	94.58904	31.06149	0.34771	9.17724	42234.41631	0.81006	1.7602E-4	1767.12027	45230.585	40.7994	9077.901
1245.0	0.99237	0.00763038	7.26205	7.52479	-4.28287	18.96081	31.49758	1.57056	0.63671	84.72719	95.0227	31.44342	0.3473	9.2462	45352.09973	0.80138	1.63382E-4	1767.76159	45027.705	40.576	9083.32
1240.0	0.99361	0.00639069	7.26518	7.52191	-4.31951	18.92653	31.43806	1.56835	0.63761	85.71542	95.45778	31.81977	0.34689	9.31641	48707.94048	0.79272	1.51624E-4	1768.40748	44825.857	40.3696	9088.14
1238.7	0.99404	0.00595739	7.26609	7.52112	-4.32966	18.91567	31.42278	1.56777	0.63785	86.01851	95.57061	31.93524	0.34676	9.33487	49650.21359	0.79047	1.48619E-4	1768.57657	44772.756	 	9090.098
1235.0	0.99549	0.00450598	7.26855	7.51852	-4.36266	18.87193	31.3798	1.56607	0.63854	87.00812	95.9031	32.31312	0.34633	9.50707	52488.66572	0.77426	1.40238E-4	1767.72089	44608.44	43.4834	9108.96
1230.0	0.99704	0.00296102	7.27178	7.51512	-4.40593	18.8165	31.32125	1.5638	0.63947	88.18692	96.35116	32.76333	0.34582	9.74129	56499.33552	0.75313	1.29851E-4	1766.70031	44393.076	43.0728	9128.156
1225.0	0.99824	0.00175598	7.27493	7.51181	-4.44802	18.76428	31.26238	1.56153	0.6404	89.23606	96.79805	33.1641	0.34537	9.97718	60750.37145	0.73288	1.20363E-4	1765.80183	44183.226	41.97	9142.265
1220.0	0.99921	7.90076E-4	7.27801	7.50857	-4.4892	18.71446	31.20318	1.55927	0.64132	90.19355	97.24421	33.52991	0.34497	10.21477	65281.72378	0.71345	1.11635E-4	1765.00672	43977.348	41.1756	9152.828
1215.0	1.0	0.0	7.28104	7.5054	-4.52961	18.66662	31.14378	1.55702	0.64225	91.08288	97.68991	33.86974	0.34461	 	70128.29328	 	1.03571E-4	 	43774.443	40.581	9160.84
1210.0	1.0	0.0	7.28338	7.50299	-4.56026	18.64908	31.08171	1.55488	0.64313	91.61459	98.13222	34.0726	0.3444	 	75097.42273	 	9.63933E-5	 	43556.731	43.5424	 
1205.0	1.0	0.0	7.28571	7.50058	-4.59085	18.63153	31.01964	1.55274	0.64402	92.14746	98.57461	34.27595	0.3442	 	80457.97213	 	8.96677E-5	 	43366.412	38.0638	 
1200.0	1.0	0.0	7.28805	7.49818	-4.6214	18.614	30.95756	1.55059	0.64491	92.68146	99.01707	34.47978	0.344	 	86243.75402	 	8.33693E-5	 	43176.324	38.0176	 
1195.0	1.0	0.0	7.29038	7.49578	-4.6519	18.59646	30.89549	1.54844	0.64581	93.21657	99.45956	34.68408	0.34379	 	92491.7521	 	7.74737E-5	 	42986.482	37.9684	 
1190.0	1.0	0.0	7.29271	7.49339	-4.68235	18.57893	30.83341	1.54627	0.64672	93.75276	99.90206	34.88885	0.34359	 	99242.44157	 	7.19578E-5	 	42796.893	37.9178	 
1185.0	1.0	0.0	7.29503	7.491	-4.71275	18.56141	30.77134	1.54409	0.64763	94.29001	100.34454	35.09407	0.34339	 	106540.1442	 	6.67999E-5	 	42607.556	37.8674	 
1180.0	1.0	0.0	7.29736	7.48861	-4.74311	18.54389	30.70926	1.54191	0.64855	94.82829	100.78698	35.29974	0.34319	 	114433.4218	 	6.1979E-5	 	42418.47	37.8172	 
1175.0	1.0	0.0	7.29968	7.48623	-4.77341	18.52638	30.64718	1.53972	0.64947	95.36758	101.22934	35.50584	0.34298	 	122975.5134	 	5.74753E-5	 	42229.633	37.7674	 
1170.0	1.0	0.0	7.302	7.48385	-4.80367	18.50887	30.5851	1.53751	0.6504	95.90785	101.6716	35.71238	0.34278	 	132224.8197	 	5.32703E-5	 	42041.044	37.7178	 
1165.0	1.0	0.0	7.30432	7.48148	-4.83388	18.49136	30.52302	1.5353	0.65134	96.44908	102.11375	35.91933	0.34258	 	142245.4422	 	4.93461E-5	 	41852.701	37.6686	 
1160.0	1.0	0.0	7.30664	7.47911	-4.86404	18.47386	30.46093	1.53308	0.65228	96.99124	102.55574	36.1267	0.34238	 	153107.7819	 	4.56858E-5	 	41664.603	37.6196	 
1155.0	1.0	0.0	7.30895	7.47674	-4.89415	18.45637	30.39884	1.53086	0.65323	97.53432	102.99756	36.33446	0.34217	 	164889.2054	 	4.22735E-5	 	41476.747	37.5712	 
1150.0	1.0	0.0	7.31126	7.47437	-4.92421	18.43888	30.33676	1.52862	0.65419	98.07828	103.43919	36.54262	0.34197	 	177674.7867	 	3.90941E-5	 	41289.133	37.5228	 
1145.0	1.0	0.0	7.31357	7.47201	-4.95423	18.42139	30.27467	1.52637	0.65515	98.62311	103.88059	36.75116	0.34177	 	191558.1326	 	3.61334E-5	 	41101.759	37.4748	 
1140.0	1.0	0.0	7.31588	7.46966	-4.98419	18.40391	30.21258	1.52412	0.65612	99.16877	104.32175	36.96008	0.34157	 	206642.3042	 	3.33776E-5	 	40914.622	37.4274	 
1135.0	1.0	0.0	7.31818	7.46731	-5.01411	18.38643	30.15048	1.52185	0.65709	99.71525	104.76263	37.16937	0.34136	 	223040.8426	 	3.08142E-5	 	40727.721	37.3802	 
1130.0	1.0	0.0	7.32048	7.46496	-5.04398	18.36896	30.08839	1.51958	0.65808	100.26252	105.20323	37.37901	0.34116	 	240878.916	 	2.8431E-5	 	40541.054	37.3334	 
1125.0	1.0	0.0	7.32278	7.46261	-5.0738	18.35149	30.0263	1.51729	0.65907	100.81056	105.6435	37.58901	0.34096	 	260294.5987	 	2.62165E-5	 	40354.62	37.2868	 
1120.0	1.0	0.0	7.32508	7.46027	-5.10357	18.33403	29.9642	1.515	0.66007	101.35934	106.08343	37.79934	0.34076	 	281440.3022	 	2.41601E-5	 	40168.417	37.2406	 
1115.0	1.0	0.0	7.32737	7.45794	-5.1333	18.31657	29.9021	1.5127	0.66107	101.90884	106.523	38.01001	0.34055	 	304484.375	 	2.22514E-5	 	39982.442	37.195	 
1110.0	1.0	0.0	7.32967	7.4556	-5.16297	18.29912	29.84	1.51039	0.66208	102.45904	106.96218	38.221	0.34035	 	329612.8933	 	2.0481E-5	 	39796.694	37.1496	 
1105.0	1.0	0.0	7.33196	7.45327	-5.1926	18.28167	29.7779	1.50807	0.6631	103.00991	107.40095	38.4323	0.34015	 	357031.6669	 	1.88398E-5	 	39611.17	37.1048	 
1100.0	1.0	0.0	7.33425	7.45095	-5.22218	18.26423	29.71579	1.50573	0.66413	103.56143	107.83929	38.64392	0.33994	 	386968.4872	 	1.73193E-5	 	39425.87	37.06	 
1095.0	1.0	0.0	7.33653	7.44863	-5.25171	18.24679	29.65369	1.50339	0.66516	104.11358	108.27717	38.85583	0.33974	 	419675.6489	 	1.59113E-5	 	39240.79	37.016	 
1090.0	1.0	0.0	7.33882	7.44631	-5.2812	18.22935	29.59158	1.50104	0.6662	104.66634	108.71458	39.06803	0.33954	 	455432.7808	 	1.46085E-5	 	39055.928	36.9724	 
1085.0	1.0	0.0	7.3411	7.444	-5.31063	18.21192	29.52947	1.49868	0.66725	105.21967	109.15148	39.28051	0.33934	 	494550.0253	 	1.34037E-5	 	38871.283	36.929	 
1080.0	1.0	0.0	7.34338	7.44169	-5.34002	18.1945	29.46736	1.49631	0.66831	105.77357	109.58787	39.49326	0.33913	 	537371.6132	 	1.22902E-5	 	38686.852	36.8862	 
1075.0	1.0	0.0	7.34565	7.43938	-5.36936	18.17708	29.40525	1.49393	0.66937	106.328	110.02371	39.70628	0.33893	 	584279.8859	 	1.12617E-5	 	38502.634	36.8436	 
1070.0	1.0	0.0	7.34793	7.43708	-5.39865	18.15966	29.34313	1.49154	0.67045	106.88294	110.45899	39.91956	0.33873	 	635699.823	 	1.03124E-5	 	38318.624	36.802	 
1065.0	1.0	0.0	7.3502	7.43478	-5.42789	18.14225	29.28102	1.48914	0.67153	107.43838	110.89368	40.13308	0.33853	 	692104.1453	 	9.4367E-6	 	38134.822	36.7604	 
1060.0	1.0	0.0	7.35247	7.43248	-5.45709	18.12485	29.2189	1.48673	0.67262	107.99428	111.32776	40.34684	0.33832	 	754019.0687	 	8.62946E-6	 	37951.226	36.7192	 
1055.0	1.0	0.0	7.35474	7.43019	-5.48624	18.10745	29.15678	1.48431	0.67371	108.55063	111.76122	40.56084	0.33812	 	822030.7982	 	7.8858E-6	 	37767.831	36.679	 
1050.0	1.0	0.0	7.357	7.4279	-5.51533	18.09005	29.09466	1.48188	0.67482	109.1074	112.19403	40.77505	0.33792	 	896792.863	 	7.20118E-6	 	37584.637	36.6388	 
1045.0	1.0	0.0	7.35926	7.42562	-5.54439	18.07266	29.03253	1.47944	0.67593	109.66457	112.62617	40.98948	0.33772	 	979034.4085	 	6.57133E-6	 	37401.639	36.5996	 
1040.0	1.0	0.0	7.36152	7.42334	-5.57339	18.05527	28.97041	1.47699	0.67705	110.22212	113.05762	41.20412	0.33751	 	1069569.577	 	5.99228E-6	 	37218.837	36.5604	 
1035.0	1.0	0.0	7.36378	7.42106	-5.60234	18.03789	28.90828	1.47453	0.67818	110.78002	113.48836	41.41895	0.33731	 	1169308.13	 	5.46028E-6	 	37036.227	36.522	 
1030.0	1.0	0.0	7.36604	7.41879	-5.63125	18.02051	28.84615	1.47206	0.67932	111.33826	113.91838	41.63398	0.33711	 	1279267.486	 	4.97187E-6	 	36853.806	36.4842	 
1025.0	1.0	0.0	7.36829	7.41652	-5.66011	18.00314	28.78402	1.46957	0.68047	111.89681	114.34764	41.84919	0.33691	 	1400586.372	 	4.52378E-6	 	36671.572	36.4468	 
1020.0	1.0	0.0	7.37054	7.41426	-5.68892	17.98577	28.72189	1.46708	0.68163	112.45565	114.77613	42.06457	0.3367	 	1534540.326	 	4.11299E-6	 	36489.521	36.4102	 
1015.0	1.0	0.0	7.37279	7.412	-5.71768	17.9684	28.65976	1.46458	0.68279	113.01476	115.20384	42.28011	0.3365	 	1682559.304	 	3.73665E-6	 	36307.65	36.3742	 
1010.0	1.0	0.0	7.37504	7.40974	-5.7464	17.95104	28.59762	1.46206	0.68397	113.57412	115.63074	42.49582	0.3363	 	1846247.704	 	3.39214E-6	 	36125.958	36.3384	 
1005.0	1.0	0.0	7.37728	7.40748	-5.77507	17.93369	28.53548	1.45953	0.68515	114.1337	116.05681	42.71167	0.3361	 	2027407.162	 	3.077E-6	 	35944.44	36.3036	 
1000.0	1.0	0.0	7.37952	7.40523	-5.80369	17.91634	28.47334	1.457	0.68634	114.69348	116.48204	42.92766	0.33589	 	2228062.515	 	2.78894E-6	 	35763.093	36.2694	 
995.0	1.0	0.0	7.38176	7.40299	-5.83226	17.899	28.4112	1.45445	0.68755	115.25344	116.9064	43.14379	0.33569	 	2450491.411	 	2.52583E-6	 	35581.914	36.2358	 
990.0	1.0	0.0	7.384	7.40075	-5.86078	17.88166	28.34906	1.45189	0.68876	115.81356	117.32988	43.36004	0.33549	 	2697258.093	 	2.2857E-6	 	35400.899	36.203	 
985.0	1.0	0.0	7.38623	7.39851	-5.88926	17.86432	28.28691	1.44932	0.68998	116.37382	117.75245	43.57641	0.33528	 	2971252.006	 	2.06671E-6	 	35220.046	36.1706	 
980.0	1.0	0.0	7.38846	7.39627	-5.91769	17.84699	28.22476	1.44674	0.69121	116.9342	118.17411	43.79289	0.33508	 	3275731.929	 	1.86716E-6	 	35039.35	36.1392	 
975.0	1.0	0.0	7.39069	7.39404	-5.94607	17.82966	28.16261	1.44415	0.69245	117.49467	118.59483	44.00947	0.33488	 	3614376.492	 	1.68547E-6	 	34858.808	36.1084	 
970.0	1.0	0.0	7.39292	7.39181	-5.9744	17.81234	28.10046	1.44154	0.6937	118.05521	119.01459	44.22614	0.33468	 	3991342.043	 	1.52017E-6	 	34678.417	36.0782	 
965.0	1.0	0.0	7.39515	7.38959	-6.00269	17.79502	28.03831	1.43893	0.69496	118.6158	119.43337	44.4429	0.33447	 	4411329.011	 	1.36991E-6	 	34498.171	36.0492	 
960.0	1.0	0.0	7.39737	7.38737	-6.03093	17.77771	27.97615	1.4363	0.69623	119.17643	119.85117	44.65973	0.33427	 	4879658.075	 	1.23343E-6	 	34318.067	36.0208	 
955.0	1.0	0.0	7.39959	7.38515	-6.05912	17.7604	27.91399	1.43366	0.69751	119.73706	120.26795	44.87664	0.33407	 	5402357.69	 	1.10957E-6	 	34138.102	35.993	 
950.0	1.0	0.0	7.4018	7.38294	-6.08726	17.7431	27.85184	1.43101	0.69881	120.29769	120.6837	45.0936	0.33387	 	5986264.737	 	9.97265E-7	 	33958.27	35.9664	 
945.0	1.0	0.0	7.40402	7.38073	-6.11535	17.7258	27.78968	1.42835	0.70011	120.85828	121.09841	45.31062	0.33366	 	6639140.426	 	8.95521E-7	 	33778.568	35.9404	 
940.0	1.0	0.0	7.40623	7.37853	-6.1434	17.70851	27.72751	1.42568	0.70142	121.41881	121.51206	45.52769	0.33346	 	7369803.854	 	8.03425E-7	 	33598.991	35.9154	 
935.0	1.0	0.0	7.40844	7.37633	-6.1714	17.69122	27.66535	1.42299	0.70274	121.97927	121.92463	45.74479	0.33326	 	8188286.1	 	7.20136E-7	 	33419.533	35.8916	 
930.0	1.0	0.0	7.41065	7.37413	-6.19935	17.67394	27.60318	1.42029	0.70408	122.53964	122.3361	45.96192	0.33306	 	9106008.187	 	6.44879E-7	 	33240.192	35.8682	 
925.0	1.0	0.0	7.41286	7.37194	-6.22726	17.65666	27.54101	1.41758	0.70543	123.09989	122.74646	46.17908	0.33285	 	1.013598683E7	 	5.76942E-7	 	33060.961	35.8462	 
920.0	1.0	0.0	7.41506	7.36975	-6.25511	17.63938	27.47885	1.41486	0.70678	123.66	123.15569	46.39625	0.33265	 	1.129307259E7	 	5.15667E-7	 	32881.835	35.8252	 
915.0	1.0	0.0	7.41726	7.36756	-6.28292	17.62211	27.41667	1.41213	0.70815	124.21995	123.56377	46.61342	0.33245	 	1.259422573E7	 	4.60454E-7	 	32702.809	35.8052	 
910.0	1.0	0.0	7.41946	7.36538	-6.31069	17.60485	27.3545	1.40938	0.70953	124.77972	123.97069	46.8306	0.33225	 	1.405883632E7	 	4.1075E-7	 	32523.877	35.7864	 
905.0	1.0	0.0	7.42165	7.3632	-6.3384	17.58759	27.29233	1.40662	0.71092	125.33929	124.37642	47.04776	0.33204	 	1.570909581E7	 	3.66046E-7	 	32345.035	35.7684	 
900.0	1.0	0.0	7.42384	7.36102	-6.36607	17.57033	27.23015	1.40385	0.71233	125.89864	124.78096	47.26491	0.33184	 	1.757042911E7	 	3.2588E-7	 	32166.275	35.752	 
895.0	1.0	0.0	7.42604	7.35885	-6.39369	17.55308	27.16798	1.40107	0.71374	126.45775	125.18429	47.48203	0.33164	 	1.967199738E7	 	2.89826E-7	 	31987.592	35.7366	 
890.0	1.0	0.0	7.42822	7.35668	-6.42126	17.53584	27.1058	1.39827	0.71517	127.01659	125.58639	47.69912	0.33144	 	2.204728395E7	 	2.57494E-7	 	31808.98	35.7224	 
885.0	1.0	0.0	7.43041	7.35452	-6.44878	17.5186	27.04362	1.39546	0.71661	127.57515	125.98724	47.91617	0.33123	 	2.473477779E7	 	2.2853E-7	 	31630.432	35.7096	 
880.0	1.0	0.0	7.43259	7.35236	-6.47626	17.50136	26.98144	1.39264	0.71806	128.1334	126.38683	48.13317	0.33103	 	2.777877184E7	 	2.02609E-7	 	31451.941	35.6982	 
875.0	1.0	0.0	7.43477	7.3502	-6.50369	17.48413	26.91926	1.3898	0.71953	128.69133	126.78514	48.35012	0.33083	 	3.123029644E7	 	1.79436E-7	 	31273.5	35.6882	 
870.0	1.0	0.0	7.43695	7.34805	-6.53107	17.4669	26.85709	1.38695	0.721	129.24891	127.18216	48.56699	0.33062	 	3.514821227E7	 	1.5874E-7	 	31095.101	35.6798	 
865.0	1.0	0.0	7.43913	7.3459	-6.55841	17.44968	26.7949	1.38409	0.7225	129.80612	127.57787	48.7838	0.33042	 	3.960049146E7	 	1.40277E-7	 	30916.738	35.6726	 
860.0	1.0	0.0	7.4413	7.34376	-6.5857	17.43246	26.73272	1.38122	0.724	130.36295	127.97226	49.00053	0.33022	 	4.46657212E7	 	1.23823E-7	 	30738.402	35.6672	 
855.0	1.0	0.0	7.44347	7.34162	-6.61294	17.41524	26.67054	1.37833	0.72552	130.91936	128.3653	49.21717	0.33002	 	5.043487077E7	 	1.09175E-7	 	30560.084	35.6636	 
850.0	1.0	0.0	7.44564	7.33948	-6.64013	17.39804	26.60836	1.37543	0.72705	131.47535	128.75699	49.43371	0.32981	 	5.701337063E7	 	9.61497E-8	 	30381.777	35.6614	 
845.0	1.0	0.0	7.4478	7.33734	-6.66728	17.38083	26.54619	1.37251	0.72859	132.03089	129.14731	49.65016	0.32961	 	6.452356208E7	 	8.45801E-8	 	30203.471	35.6612	 
840.0	1.0	0.0	7.44997	7.33521	-6.69438	17.36363	26.48401	1.36958	0.73015	132.58596	129.53625	49.86649	0.32941	 	7.310758706E7	 	7.43153E-8	 	30025.156	35.663	 
835.0	1.0	0.0	7.45213	7.33309	-6.72143	17.34644	26.42183	1.36664	0.73172	133.14054	129.92378	50.0827	0.32921	 	8.293080191E7	 	6.52183E-8	 	29846.823	35.6666	 
830.0	1.0	0.0	7.45429	7.33096	-6.74843	17.32925	26.35965	1.36368	0.73331	133.6946	130.3099	50.29879	0.329	 	9.41858154E7	 	5.71657E-8	 	29668.461	35.6724	 
825.0	1.0	0.0	7.45644	7.32884	-6.77539	17.31206	26.29748	1.36071	0.73491	134.24814	130.69459	50.51474	0.3288	 	1.070972716E8	 	5.00461E-8	 	29490.06	35.6802	 
820.0	1.0	0.0	7.45859	7.32673	-6.8023	17.29488	26.2353	1.35772	0.73653	134.80113	131.07784	50.73055	0.3286	 	1.21927523E8	 	4.37587E-8	 	29311.608	35.6904	 
815.0	1.0	0.0	7.46074	7.32462	-6.82917	17.27771	26.17313	1.35472	0.73816	135.35354	131.45963	50.94621	0.3284	 	1.389833689E8	 	3.82131E-8	 	29133.093	35.703	 
810.0	1.0	0.0	7.46289	7.32251	-6.85598	17.26054	26.11097	1.35171	0.7398	135.90537	131.83994	51.16172	0.32819	 	1.5862407E8	 	3.33278E-8	 	28954.503	35.718	 
805.0	1.0	0.0	7.46504	7.3204	-6.88275	17.24337	26.0488	1.34868	0.74147	136.45658	132.21877	51.37706	0.32799	 	1.812708953E8	 	2.90294E-8	 	28775.824	35.7358	 
800.0	1.0	0.0	7.46718	7.3183	-6.90947	17.22621	25.98664	1.34564	0.74314	137.00717	132.5961	51.59223	0.32779	 	2.074185106E8	 	2.52522E-8	 	28597.043	35.7562	 
795.0	1.0	0.0	7.46932	7.31621	-6.93615	17.20905	25.92448	1.34258	0.74483	137.5571	132.97191	51.80722	0.32759	 	2.376485823E8	 	2.19373E-8	 	28418.145	35.7796	 
790.0	1.0	0.0	7.47146	7.31411	-6.96278	17.1919	25.86232	1.33951	0.74654	138.10636	133.34619	52.02202	0.32738	 	2.72646055E8	 	1.90319E-8	 	28239.114	35.8062	 
785.0	1.0	0.0	7.47359	7.31202	-6.98936	17.17475	25.80017	1.33642	0.74827	138.65493	133.71893	52.23663	0.32718	 	3.132186535E8	 	1.64887E-8	 	28059.934	35.836	 
780.0	1.0	0.0	7.47573	7.30994	-7.01589	17.15761	25.73802	1.33332	0.75001	139.20279	134.09011	52.45103	0.32698	 	3.603202872E8	 	1.42655E-8	 	27880.588	35.8692	 
775.0	1.0	0.0	7.47786	7.30786	-7.04238	17.14047	25.67587	1.3302	0.75177	139.74993	134.45973	52.66523	0.32678	 	4.1507918E8	 	1.23248E-8	 	27701.056	35.9064	 
770.0	1.0	0.0	7.47998	7.30578	-7.06882	17.12334	25.61373	1.32706	0.75354	140.29631	134.82776	52.87921	0.32657	 	4.788317318E8	 	1.06329E-8	 	27521.321	35.947	 
765.0	1.0	0.0	7.48211	7.3037	-7.09521	17.10621	25.5516	1.32391	0.75534	140.84192	135.19419	53.09297	0.32637	 	5.531633467E8	 	9.15996E-9	 	27341.36	35.9922	 
760.0	1.0	0.0	7.48423	7.30163	-7.12156	17.08908	25.48946	1.32075	0.75715	141.38675	135.55902	53.30649	0.32617	 	6.399577382E8	 	7.8795E-9	 	27161.152	36.0416	 
755.0	1.0	0.0	7.48635	7.29956	-7.14786	17.07197	25.42734	1.31757	0.75897	141.93076	135.92222	53.51977	0.32597	 	7.414565708E8	 	6.76796E-9	 	26980.672	36.096	 
750.0	1.0	0.0	7.48847	7.2975	-7.17411	17.05485	25.36521	1.31437	0.76082	142.47395	136.28379	53.73281	0.32576	 	8.60331723E8	 	5.80444E-9	 	26799.897	36.155	 
745.0	1.0	0.0	7.49058	7.29544	-7.20031	17.03774	25.30309	1.31116	0.76268	143.01629	136.64371	53.94559	0.32556	 	9.997729914E8	 	4.97047E-9	 	26618.798	36.2198	 
740.0	1.0	0.0	7.4927	7.29338	-7.22647	17.02064	25.24098	1.30793	0.76457	143.55777	137.00196	54.15811	0.32536	 	1.163594715E9	 	4.2497E-9	 	26437.346	36.2904	 
735.0	1.0	0.0	7.4948	7.29133	-7.25259	17.00354	25.17887	1.30469	0.76647	144.09836	137.35855	54.37036	0.32516	 	1.356365627E9	 	3.62773E-9	 	26255.511	36.367	 
730.0	1.0	0.0	7.49691	7.28928	-7.27865	16.98644	25.11676	1.30143	0.76839	144.63804	137.71345	54.58233	0.32495	 	1.58356727E9	 	3.09183E-9	 	26073.259	36.4504	 
725.0	1.0	0.0	7.49902	7.28724	-7.30467	16.96935	25.05466	1.29815	0.77033	145.1768	138.06664	54.79402	0.32475	 	1.851787601E9	 	2.63082E-9	 	25890.553	36.5412	 
720.0	1.0	0.0	7.50112	7.28519	-7.33064	16.95226	24.99257	1.29486	0.77229	145.71462	138.41813	55.00542	0.32455	 	2.168958032E9	 	2.23486E-9	 	25707.355	36.6396	 
715.0	1.0	0.0	7.50322	7.28316	-7.35656	16.93518	24.93047	1.29155	0.77427	146.25147	138.7679	55.21652	0.32435	 	2.544644178E9	 	1.89532E-9	 	25523.621	36.7468	 
710.0	1.0	0.0	7.50531	7.28112	-7.38244	16.9181	24.86838	1.28822	0.77626	146.78735	139.11593	55.42732	0.32414	 	2.990403145E9	 	1.60464E-9	 	25339.307	36.8628	 
705.0	1.0	0.0	7.50741	7.27909	-7.40827	16.90103	24.80629	1.28488	0.77828	147.32222	139.46221	55.6378	0.32394	 	3.520223409E9	 	1.35619E-9	 	25154.362	36.989	 
700.0	1.0	0.0	7.5095	7.27706	-7.43406	16.88396	24.7442	1.28152	0.78033	147.85607	139.80673	55.84796	0.32374	 	4.151067421E9	 	1.14421E-9	 	24968.732	37.126	 
695.0	1.0	0.0	7.51159	7.27504	-7.4598	16.8669	24.68212	1.27814	0.78239	148.38888	140.14948	56.05779	0.32353	 	4.903542205E9	 	9.6365E-10	 	24782.356	37.2752	 
690.0	1.0	0.0	7.51367	7.27302	-7.48549	16.84984	24.62003	1.27474	0.78447	148.92064	140.49045	56.26728	0.32333	 	5.802729789E9	 	8.10118E-10	 	24595.172	37.4368	 
685.0	1.0	0.0	7.51576	7.271	-7.51113	16.83279	24.55794	1.27133	0.78658	149.45132	140.82962	56.47644	0.32313	 	6.879217602E9	 	6.798E-10	 	24407.106	37.6132	 
680.0	1.0	0.0	7.51784	7.26899	-7.53673	16.81574	24.49586	1.2679	0.7887	149.9809	141.16699	56.68524	0.32293	 	8.170379578E9	 	5.69385E-10	 	24218.081	37.805	 
675.0	1.0	0.0	7.51991	7.26698	-7.56228	16.7987	24.43377	1.26446	0.79085	150.50937	141.50254	56.89368	0.32272	 	9.721972237E9	 	4.76003E-10	 	24028.012	38.0138	 
670.0	1.0	0.0	7.52199	7.26498	-7.58779	16.78166	24.37168	1.26099	0.79303	151.03671	141.83626	57.10177	0.32252	 	1.15901E10	 	3.97173E-10	 	23836.802	38.242	 
665.0	1.0	0.0	7.52406	7.26298	-7.61324	16.76462	24.30958	1.25751	0.79522	151.5629	142.16814	57.30948	0.32232	 	1.3843799999999998E10	 	3.30752E-10	 	23644.347	38.491	 
660.0	1.0	0.0	7.52613	7.26098	-7.63866	16.74759	24.24748	1.25401	0.79744	152.08791	142.49817	57.51681	0.32212	 	1.6568099999999998E10	 	2.74894E-10	 	23450.531	38.7632	 
655.0	1.0	0.0	7.5282	7.25898	-7.66402	16.73057	24.18537	1.2505	0.79968	152.61174	142.82633	57.72375	0.32191	 	1.98679E10	 	2.2801E-10	 	23255.225	39.0612	 
650.0	1.0	0.0	7.53027	7.25699	-7.68934	16.71355	24.12326	1.24696	0.80195	153.13436	143.15263	57.9303	0.32171	 	2.3872899999999996E10	 	1.88736E-10	 	23058.284	39.3882	 
645.0	1.0	0.0	7.53233	7.25501	-7.71461	16.69653	24.06114	1.24341	0.80424	153.65575	143.47704	58.13646	0.32151	 	2.8743999999999996E10	 	1.55902E-10	 	22859.549	39.747	 
640.0	1.0	0.0	7.53439	7.25302	-7.73984	16.67952	23.99901	1.23984	0.80655	154.17591	143.79955	58.3422	0.32131	 	3.46812E10	 	1.28509E-10	 	22658.841	40.1416	 
635.0	1.0	0.0	7.53644	7.25104	-7.76502	16.66251	23.93687	1.23625	0.80889	154.6948	144.12016	58.54753	0.3211	 	4.19333E10	 	1.05702E-10	 	22441.016	43.565	 
630.0	1.0	0.0	7.5385	7.24907	-7.79015	16.64551	23.87472	1.23265	0.81126	155.2124	144.43885	58.75244	0.3209	 	5.081109999999999E10	 	8.67537E-11	 	22222.22	43.7592	 
625.0	1.0	0.0	7.54055	7.2471	-7.81524	16.62851	23.81255	1.22902	0.81365	155.72871	144.75562	58.95692	0.3207	 	6.170309999999999E10	 	7.10442E-11	 	22005.627	43.3186	 
620.0	1.0	0.0	7.5426	7.24513	-7.84028	16.61152	23.75038	1.22538	0.81607	156.24371	145.07045	59.16096	0.3205	 	7.50967E10	 	5.80484E-11	 	21791.157	42.894	 
615.0	1.0	0.0	7.54464	7.24316	-7.86527	16.59453	23.68818	1.22172	0.81852	156.75736	145.38333	59.36456	0.32029	 	9.16041E10	 	4.73214E-11	 	21578.731	42.4852	 
610.0	1.0	0.0	7.54669	7.2412	-7.89022	16.57755	23.62598	1.21804	0.82099	157.26967	145.69426	59.56771	0.32009	 	1.11997E11	 	3.8487E-11	 	21368.276	42.091	 
605.0	1.0	0.0	7.54873	7.23924	-7.91512	16.56057	23.56375	1.21434	0.82349	157.7806	146.00321	59.7704	0.31989	 	1.3725E11	 	3.12279E-11	 	21159.723	41.7106	 
600.0	1.0	0.0	7.55077	7.23729	-7.93997	16.5436	23.50151	1.21063	0.82602	158.29015	146.31019	59.97263	0.31969	 	1.68597E11	 	2.52769E-11	 	20953.006	41.3434	 
595.0	1.0	0.0	7.5528	7.23534	-7.96478	16.52663	23.43926	1.20689	0.82857	158.79828	146.61519	60.17439	0.31948	 	2.07605E11	 	2.041E-11	 	20748.061	40.989	 
590.0	1.0	0.0	7.55483	7.23339	-7.98954	16.50967	23.37698	1.20314	0.83116	159.305	146.91818	60.37566	0.31928	 	2.56267E11	 	1.64392E-11	 	20544.831	40.646	 
585.0	1.0	0.0	7.55686	7.23145	-8.01426	16.49271	23.31469	1.19936	0.83377	159.81026	147.21917	60.57646	0.31908	 	3.17126E11	 	1.32074E-11	 	20343.258	40.3146	 
580.0	1.0	0.0	7.55889	7.22951	-8.03893	16.47575	23.25237	1.19557	0.83642	160.31407	147.51814	60.77676	0.31888	 	3.93438E11	 	1.05837E-11	 	20143.288	39.994	 
575.0	1.0	0.0	7.56092	7.22758	-8.06355	16.4588	23.19004	1.19176	0.83909	160.8164	147.81509	60.97656	0.31867	 	4.89378E11	 	8.45892E-12	 	19944.873	39.683	 
570.0	1.0	0.0	7.56294	7.22564	-8.08813	16.44186	23.12768	1.18793	0.8418	161.31724	148.11	61.17586	0.31847	 	6.10318E11	 	6.74272E-12	 	19747.962	39.3822	 
565.0	1.0	0.0	7.56496	7.22371	-8.11266	16.42492	23.06531	1.18408	0.84454	161.81656	148.40287	61.37464	0.31827	 	7.63188E11	 	5.36015E-12	 	19552.511	39.0902	 
560.0	1.0	0.0	7.56697	7.22179	-8.13715	16.40798	23.00291	1.18021	0.84731	162.31435	148.69368	61.57291	0.31807	 	9.56955E11	 	4.24931E-12	 	19358.477	38.8068	 
555.0	1.0	0.0	7.56899	7.21987	-8.16158	16.39105	22.9405	1.17632	0.85011	162.81059	148.98243	61.77065	0.31786	 	1.20325E12	 	3.35922E-12	 	19165.817	38.532	 
550.0	1.0	0.0	7.571	7.21795	-8.18598	16.37412	22.87806	1.1724	0.85295	163.30527	149.26911	61.96785	0.31766	 	1.51722E12	 	2.64799E-12	 	18974.492	38.265	 
545.0	1.0	0.0	7.57301	7.21604	-8.21032	16.3572	22.81561	1.16847	0.85582	163.79836	149.55371	62.16451	0.31746	 	1.91863E12	 	2.08127E-12	 	18784.467	38.005	 
540.0	1.0	0.0	7.57501	7.21413	-8.23462	16.34028	22.75313	1.16452	0.85872	164.28985	149.83621	62.36063	0.31726	 	2.43336E12	 	1.63099E-12	 	18595.704	37.7526	 
535.0	1.0	0.0	7.57701	7.21222	-8.25888	16.32337	22.69063	1.16055	0.86166	164.77973	150.11662	62.5562	0.31705	 	3.0954E12	 	1.27427E-12	 	18408.17	37.5068	 
530.0	1.0	0.0	7.57901	7.21032	-8.28309	16.30646	22.62812	1.15655	0.86464	165.26797	150.39493	62.7512	0.31685	 	3.94955E12	 	9.92512E-13	 	18221.832	37.2676	 
525.0	1.0	0.0	7.58101	7.20842	-8.30725	16.28956	22.56559	1.15254	0.86765	165.75456	150.67111	62.94563	0.31665	 	5.05501E12	 	7.70636E-13	 	18036.661	37.0342	 
520.0	1.0	0.0	7.58301	7.20652	-8.33136	16.27266	22.50304	1.1485	0.8707	166.23948	150.94518	63.1395	0.31645	 	6.49031E12	 	5.96454E-13	 	17852.627	36.8068	 
515.0	1.0	0.0	7.585	7.20463	-8.35543	16.25577	22.44047	1.14444	0.87379	166.72272	151.21711	63.33278	0.31624	 	8.35996E12	 	4.60142E-13	 	17669.702	36.585	 
510.0	1.0	0.0	7.58699	7.20274	-8.37946	16.23888	22.37788	1.14036	0.87691	167.20425	151.4869	63.52547	0.31604	 	1.08035E13	 	3.53808E-13	 	17487.86	36.3684	 
505.0	1.0	0.0	7.58897	7.20086	-8.40344	16.222	22.31528	1.13626	0.88008	167.68407	151.75455	63.71757	0.31584	 	1.40079E13	 	2.7113E-13	 	17307.074	36.1572	 
500.0	1.0	0.0	7.59096	7.19897	-8.42737	16.20512	22.25267	1.13214	0.88328	168.16215	152.02003	63.90907	0.31564	 	1.82246E13	 	2.07058E-13	 	17127.322	35.9504	 
495.0	1.0	0.0	7.59294	7.1971	-8.45126	16.18824	22.19004	1.12799	0.88653	168.63848	152.28336	64.09996	0.31543	 	2.37929E13	 	1.57574E-13	 	16948.579	35.7486	 
490.0	1.0	0.0	7.59491	7.19522	-8.4751	16.17137	22.1274	1.12382	0.88982	169.11304	152.54451	64.29024	0.31523	 	3.11725E13	 	1.19488E-13	 	16770.824	35.551	 
485.0	1.0	0.0	7.59689	7.19335	-8.49889	16.15451	22.06475	1.11963	0.89315	169.58581	152.80348	64.4799	0.31503	 	4.09884E13	 	9.02778E-14	 	16594.034	35.358	 
480.0	1.0	0.0	7.59886	7.19148	-8.52264	16.13765	22.00209	1.11541	0.89653	170.05679	153.06027	64.66894	0.31483	 	5.40934E13	 	6.79554E-14	 	16418.191	35.1686	 
475.0	1.0	0.0	7.60083	7.18962	-8.54634	16.12079	21.93941	1.11117	0.89995	170.52594	153.31486	64.85734	0.31462	 	7.16563E13	 	5.0959E-14	 	16243.275	34.9832	 
470.0	1.0	0.0	7.6028	7.18776	-8.57	16.10394	21.87673	1.10691	0.90342	170.99327	153.56726	65.0451	0.31442	 	9.52848E13	 	3.80662E-14	 	16069.267	34.8016	 
465.0	1.0	0.0	7.60476	7.18591	-8.59361	16.08709	21.81404	1.10262	0.90693	171.45875	153.81744	65.23221	0.31422	 	1.2719999999999998E14	 	2.83234E-14	 	15896.148	34.6238	 
460.0	1.0	0.0	7.60672	7.18405	-8.61718	16.07025	21.75135	1.09831	0.91049	171.92236	154.06541	65.41868	0.31402	 	1.7048E14	 	2.09897E-14	 	15723.903	34.449	 
455.0	1.0	0.0	7.60868	7.1822	-8.6407	16.05341	21.68865	1.09397	0.9141	172.38409	154.31116	65.60448	0.31381	 	2.29417E14	 	1.54911E-14	 	15552.515	34.2776	 
450.0	1.0	0.0	7.61064	7.18036	-8.66417	16.03658	21.62594	1.08961	0.91776	172.84392	154.55468	65.78962	0.31361	 	3.10009E14	 	1.13852E-14	 	15381.967	34.1096	 
445.0	1.0	0.0	7.61259	7.17852	-8.6876	16.01975	21.56323	1.08522	0.92147	173.30185	154.79596	65.97409	0.31341	 	4.20687E14	 	8.33188E-15	 	15212.245	33.9444	 
440.0	1.0	0.0	7.61454	7.17668	-8.71098	16.00293	21.50051	1.08081	0.92523	173.75785	155.035	66.15789	0.31321	 	5.73347E14	 	6.07086E-15	 	15043.335	33.782	 
435.0	1.0	0.0	7.61649	7.17484	-8.73432	15.98611	21.4378	1.07637	0.92905	174.2119	155.2718	66.341	0.313	 	7.84855E14	 	4.40375E-15	 	14875.221	33.6228	 
430.0	1.0	0.0	7.61843	7.17301	-8.75761	15.9693	21.37508	1.07191	0.93291	174.664	155.50634	66.52342	0.3128	 	1.07923E15	 	3.17995E-15	 	14707.892	33.4658	 
425.0	1.0	0.0	7.62037	7.17118	-8.78085	15.95249	21.31236	1.06742	0.93684	175.11413	155.73862	66.70515	0.3126	 	1.49085E15	 	2.2856E-15	 	14541.333	33.3118	 
420.0	1.0	0.0	7.62231	7.16936	-8.80405	15.93568	21.24964	1.0629	0.94082	175.56227	155.96864	66.88618	0.3124	 	2.06916E15	 	1.63501E-15	 	14375.532	33.1602	 
415.0	1.0	0.0	7.62425	7.16754	-8.82721	15.91888	21.18691	1.05836	0.94486	176.00841	156.19638	67.0665	0.31219	 	2.88559E15	 	1.16395E-15	 	14210.478	33.0108	 
410.0	1.0	0.0	7.62618	7.16572	-8.85032	15.90209	21.12419	1.05379	0.94896	176.45253	156.42185	67.2461	0.31199	 	4.04392E15	 	8.24517E-16	 	14046.158	32.864	 
405.0	1.0	0.0	7.62811	7.16391	-8.87338	15.8853	21.06147	1.04919	0.95311	176.89462	156.64503	67.42499	0.31179	 	5.69568E15	 	5.81122E-16	 	13882.561	32.7194	 
400.0	1.0	0.0	7.63004	7.1621	-8.8964	15.86851	20.99875	1.04457	0.95733	177.33467	156.86593	67.60316	0.31159	 	8.06325E15	 	4.07463E-16	 	13719.677	32.5768	 
395.0	1.0	0.0	7.63196	7.1603	-8.91937	15.85173	20.93603	1.03991	0.96162	177.77266	157.08454	67.78059	0.31138	 	1.14748E16	 	2.84193E-16	 	13557.495	32.4364	 
390.0	1.0	0.0	7.63388	7.15849	-8.9423	15.83496	20.87331	1.03523	0.96597	178.20858	157.30085	67.95729	0.31118	 	1.64175E16	 	1.97148E-16	 	13396.005	32.298	 
385.0	1.0	0.0	7.6358	7.15669	-8.96518	15.81819	20.8106	1.03052	0.97038	178.64242	157.51486	68.13325	0.31098	 	2.36179E16	 	1.3601E-16	 	13235.198	32.1614	 
380.0	1.0	0.0	7.63772	7.1549	-8.98801	15.80142	20.74788	1.02579	0.97486	179.07416	157.72656	68.30846	0.31078	 	3.4166900000000004E16	 	9.33027E-17	 	13075.063	32.027	 
375.0	1.0	0.0	7.63963	7.15311	-9.0108	15.78466	20.68517	1.02102	0.97941	179.50378	157.93596	68.48293	0.31057	 	4.97114E16	 	6.36366E-17	 	12915.591	31.8944	 
370.0	1.0	0.0	7.64154	7.15132	-9.03355	15.7679	20.62245	1.01622	0.98403	179.93128	158.14304	68.65663	0.31037	 	7.27526E16	 	4.3147E-17	 	12756.775	31.7632	 
365.0	1.0	0.0	7.64345	7.14953	-9.05625	15.75115	20.55974	1.0114	0.98873	180.35664	158.3478	68.82957	0.31017	 	1.07114E17	 	2.9078E-17	 	12598.604	31.6342	 
360.0	1.0	0.0	7.64535	7.14775	-9.0789	15.7344	20.49703	1.00655	0.9935	180.77986	158.55024	69.00175	0.30997	 	1.58673E17	 	1.94755E-17	 	12441.072	31.5064	 
355.0	1.0	0.0	7.64725	7.14598	-9.10151	15.71766	20.43432	1.00166	0.99834	181.20091	158.75036	69.17315	0.30976	 	2.36532E17	 	1.29616E-17	 	12284.169	31.3806	 
350.0	1.0	0.0	7.64915	7.1442	-9.12407	15.70092	20.37161	0.99675	1.00326	181.61978	158.94814	69.34378	0.30956	 	3.5487E17	 	8.57058E-18	 	12127.889	31.256	 
345.0	1.0	0.0	7.65105	7.14243	-9.14659	15.68418	20.3089	0.9918	1.00827	182.03647	159.1436	69.51362	0.30936	 	5.3593E17	 	5.62954E-18	 	11972.223	31.1332	 
340.0	1.0	0.0	7.65294	7.14067	-9.16906	15.66746	20.24619	0.98683	1.01335	182.45097	159.33673	69.68268	0.30916	 	8.14847E17	 	3.67263E-18	 	11817.164	31.0118	 
335.0	1.0	0.0	7.65483	7.1389	-9.19149	15.65073	20.18348	0.98182	1.01852	182.86325	159.52752	69.85095	0.30895	 	1.24751E18	 	2.37931E-18	 	11662.705	30.8918	 
330.0	1.0	0.0	7.65672	7.13714	-9.21387	15.63401	20.12077	0.97678	1.02377	183.27332	159.71598	70.01842	0.30875	 	1.92349E18	 	1.53046E-18	 	11508.84	30.773	 
325.0	1.0	0.0	7.6586	7.13539	-9.23621	15.6173	20.05806	0.97171	1.02911	183.68116	159.90209	70.18509	0.30855	 	2.98736E18	 	9.77257E-19	 	11355.561	30.6558	 
320.0	1.0	0.0	7.66048	7.13363	-9.2585	15.60059	19.99535	0.96661	1.03454	184.08676	160.08587	70.35095	0.30835	 	4.67431E18	 	6.19347E-19	 	11202.862	30.5398	 
315.0	1.0	0.0	7.66236	7.13189	-9.28075	15.58388	19.93264	0.96148	1.04006	184.4901	160.2673	70.51601	0.30814	 	7.36987E18	 	3.89507E-19	 	11050.737	30.425	 
310.0	1.0	0.0	7.66424	7.13014	-9.30295	15.56718	19.86992	0.95632	1.04568	184.89119	160.44639	70.68026	0.30794	 	1.17112E19	 	2.43033E-19	 	10899.18	30.3114	 
305.0	1.0	0.0	7.66611	7.1284	-9.3251	15.55048	19.80721	0.95112	1.05139	185.29001	160.62314	70.84369	0.30774	 	1.87599E19	 	1.50417E-19	 	10748.184	30.1992	 
300.0	1.0	0.0	7.66798	7.12666	-9.34721	15.53379	19.74449	0.94589	1.05721	185.68656	160.79755	71.0063	0.30754	 	3.02995E19	 	9.23249E-20	 	10597.744	30.088	 
295.0	1.0	0.0	7.66985	7.12493	-9.36928	15.51711	19.68177	0.94063	1.06312	186.08082	160.96962	71.16808	0.30733	 	4.9353E19	 	5.6187E-20	 	10447.855	29.9778	 
290.0	1.0	0.0	7.67171	7.12319	-9.3913	15.50042	19.61904	0.93533	1.06914	186.47279	161.13934	71.32904	0.30713	 	8.10887E19	 	3.38962E-20	 	10298.511	29.8688	 
285.0	1.0	0.0	7.67357	7.12147	-9.41327	15.48375	19.55631	0.93	1.07527	186.86245	161.30672	71.48917	0.30693	 	1.3442399999999998E20	 	2.02657E-20	 	10149.706	29.761	 
280.0	1.0	0.0	7.67543	7.11974	-9.4352	15.46707	19.49358	0.92463	1.08151	187.24981	161.47177	71.64846	0.30673	 	2.2488899999999997E20	 	1.2005E-20	 	10001.436	29.654	 
275.0	1.0	0.0	7.67729	7.11802	-9.45709	15.45041	19.43084	0.91923	1.08786	187.63486	161.63447	71.80692	0.30652	 	3.7979E20	 	7.04438E-21	 	9853.697	29.5478	 
270.0	1.0	0.0	7.67914	7.11631	-9.47893	15.43374	19.3681	0.9138	1.09433	188.01759	161.79485	71.96454	0.30632	 	6.476099999999999E20	 	4.09348E-21	 	9706.482	29.443	 
265.0	1.0	0.0	7.68099	7.11459	-9.50072	15.41708	19.30535	0.90833	1.10092	188.39799	161.95289	72.12132	0.30612	 	1.1153100000000001E21	 	2.35502E-21	 	9559.788	29.3388	 
260.0	1.0	0.0	7.68283	7.11288	-9.52247	15.40043	19.2426	0.90282	1.10763	188.77607	162.1086	72.27726	0.30592	 	1.94049E21	 	1.34098E-21	 	9413.61	29.2356	 
255.0	1.0	0.0	7.68468	7.11118	-9.54418	15.38378	19.17984	0.89728	1.11447	189.15181	162.26198	72.43235	0.30571	 	3.41183E21	 	7.55538E-22	 	9267.944	29.1332	 
250.0	1.0	0.0	7.68652	7.10947	-9.56584	15.36714	19.11707	0.89171	1.12144	189.52521	162.41305	72.5866	0.30551	 	6.0639E21	 	4.21076E-22	 	9122.785	29.0318	 
245.0	1.0	0.0	7.68835	7.10777	-9.58745	15.3505	19.0543	0.88609	1.12855	189.89628	162.5618	72.73999	0.30531	 	1.08979E22	 	2.3206E-22	 	8978.13	28.931	 
240.0	1.0	0.0	7.69019	7.10608	-9.60902	15.33386	18.99153	0.88044	1.13579	190.26501	162.70824	72.89254	0.30511	 	1.98106E22	 	1.26425E-22	 	8833.976	28.8308	 
235.0	1.0	0.0	7.69202	7.10439	-9.63054	15.31723	18.92874	0.87476	1.14317	190.63139	162.85237	73.04424	0.3049	 	3.6438799999999997E22	 	6.80636E-23	 	8690.317	28.7318	 
230.0	1.0	0.0	7.69385	7.1027	-9.65202	15.30061	18.86595	0.86903	1.1507	190.99543	162.99421	73.19508	0.3047	 	6.78415E22	 	3.61984E-23	 	8547.152	28.633	 
225.0	1.0	0.0	7.69568	7.10101	-9.67346	15.28399	18.80315	0.86327	1.15838	191.35713	163.13376	73.34508	0.3045	 	1.2789399999999999E23	 	1.90107E-23	 	8404.475	28.5354	 
220.0	1.0	0.0	7.6975	7.09933	-9.69485	15.26737	18.74035	0.85747	1.16622	191.71649	163.27103	73.49423	0.3043	 	2.4422499999999998E23	 	9.85543E-24	 	8262.285	28.438	 
215.0	1.0	0.0	7.69932	7.09765	-9.71619	15.25076	18.67753	0.85163	1.17422	192.07351	163.40602	73.64252	0.30409	 	4.7259599999999994E23	 	5.04139E-24	 	8120.579	28.3412	 
210.0	1.0	0.0	7.70114	7.09598	-9.73749	15.23415	18.61471	0.84575	1.18238	192.42819	163.53875	73.78996	0.30389	 	9.271E23	 	2.54356E-24	 	7979.352	28.2454	 
205.0	1.0	0.0	7.70295	7.09431	-9.75875	15.21755	18.55188	0.83983	1.19071	192.78054	163.66923	73.93656	0.30369	 	1.8445300000000002E24	 	1.26522E-24	 	7838.603	28.1498	 
200.0	1.0	0.0	7.70476	7.09264	-9.77996	15.20095	18.48905	0.83388	1.19922	193.13057	163.79747	74.08231	0.30349	 	3.7236E24	 	6.20186E-25	 	7698.33	28.0546	 
195.0	1.0	0.0	7.70657	7.09098	-9.80113	15.18436	18.4262	0.82788	1.20791	193.47828	163.92348	74.22721	0.30328	 	7.63062E24	 	2.99441E-25	 	7558.529	27.9602	 
190.0	1.0	0.0	7.70837	7.08932	-9.82225	15.16777	18.36334	0.82184	1.21678	193.82367	164.04728	74.37128	0.30308	 	1.5881300000000001E25	 	1.42338E-25	 	7419.198	27.8662	 
185.0	1.0	0.0	7.71018	7.08766	-9.84332	15.15119	18.30048	0.81576	1.22585	194.16676	164.16887	74.5145	0.30288	 	3.35864E25	 	6.6578E-26	 	7280.337	27.7722	 
180.0	1.0	0.0	7.71197	7.08601	-9.86436	15.13461	18.23761	0.80964	1.23512	194.50756	164.28829	74.65689	0.30268	 	7.22139E25	 	3.06272E-26	 	7141.941	27.6792	 
175.0	1.0	0.0	7.71377	7.08436	-9.88534	15.11804	18.17472	0.80348	1.24459	194.84608	164.40553	74.79845	0.30247	 	1.57942E26	 	1.38488E-26	 	7004.011	27.586	 
170.0	1.0	0.0	7.71556	7.08271	-9.90629	15.10147	18.11183	0.79727	1.25428	195.18233	164.52062	74.93918	0.30227	 	3.51599E26	 	6.15162E-27	 	6866.544	27.4934	 
165.0	1.0	0.0	7.71735	7.08107	-9.92718	15.0849	18.04893	0.79102	1.26419	195.51633	164.63358	75.07908	0.30207	 	7.971340000000001E26	 	2.68274E-27	 	6729.54	27.4008	 
160.0	1.0	0.0	7.71914	7.07943	-9.94804	15.06834	17.98602	0.78473	1.27432	195.84809	164.74443	75.21818	0.30187	 	1.8417199999999998E27	 	1.14789E-27	 	6592.997	27.3086	 
155.0	1.0	0.0	7.72092	7.07779	-9.96885	15.05179	17.9231	0.7784	1.28469	196.17764	164.85319	75.35646	0.30166	 	4.3392099999999995E27	 	4.81584E-28	 	6456.914	27.2166	 
150.0	1.0	0.0	7.72271	7.07616	-9.98961	15.03524	17.86016	0.77202	1.29531	196.50498	164.95988	75.49395	0.30146	 	1.04327E28	 	1.97964E-28	 	6321.29	27.1248	 
145.0	1.0	0.0	7.72448	7.07453	-10.01033	15.01869	17.79722	0.76559	1.30618	196.83016	165.06454	75.63064	0.30126	 	2.56149E28	 	7.96757E-29	 	6186.126	27.0328	 
140.0	1.0	0.0	7.72626	7.0729	-10.031	15.00215	17.73427	0.75912	1.31731	197.15318	165.16718	75.76655	0.30106	 	6.4273800000000006E28	 	3.13733E-29	 	6051.421	26.941	 
135.0	1.0	0.0	7.72803	7.07128	-10.05163	14.98561	17.6713	0.75261	1.32871	197.47408	165.26784	75.90168	0.30085	 	1.64955E29	 	1.20765E-29	 	5917.176	26.849	 
130.0	1.0	0.0	7.7298	7.06966	-10.07222	14.96908	17.60833	0.74605	1.3404	197.79289	165.36654	76.03605	0.30065	 	4.33361E29	 	4.5405E-30	 	5783.39	26.7572	 
125.0	1.0	0.0	7.73157	7.06805	-10.09276	14.95256	17.54534	0.73944	1.35238	198.10963	165.46332	76.16967	0.30045	 	1.1664599999999999E30	 	1.66595E-30	 	5650.064	26.6652	 
120.0	1.0	0.0	7.73333	7.06644	-10.11326	14.93603	17.48235	0.73278	1.36466	198.42435	165.55822	76.30255	0.30025	 	3.21982E30	 	5.95955E-31	 	5517.199	26.573	 
115.0	1.0	0.0	7.73509	7.06483	-10.13371	14.91952	17.41934	0.72608	1.37725	198.73707	165.65126	76.43471	0.30004	 	9.123329999999999E30	 	2.07651E-31	 	5384.796	26.4806	 
110.0	1.0	0.0	7.73685	7.06323	-10.15412	14.903	17.35632	0.71933	1.39018	199.04785	165.7425	76.56616	0.29984	 	2.6563199999999997E31	 	7.04003E-32	 	5252.857	26.3878	 
105.0	1.0	0.0	7.7386	7.06163	-10.17448	14.8865	17.29328	0.71253	1.40345	199.35673	165.83196	76.69691	0.29964	 	7.95578E31	 	2.31989E-32	 	5121.384	26.2946	 
100.0	1.0	0.0	7.74035	7.06003	-10.1948	14.86999	17.23024	0.70568	1.41707	199.66374	165.91971	76.827	0.29944	 	2.45387E32	 	7.42195E-33	 	4990.378	26.2012	 
95.0	1.0	0.0	7.7421	7.05843	-10.21507	14.85349	17.16718	0.69878	1.43106	199.96896	166.00578	76.95643	0.29923	 	7.80386E32	 	2.30251E-33	 	4859.843	26.107	 
90.0	1.0	0.0	7.74384	7.05684	-10.2353	14.837	17.10411	0.69184	1.44543	200.27242	166.09023	77.08522	0.29903	 	2.56214E33	 	6.91782E-34	 	4729.781	26.0124	 
85.0	1.0	0.0	7.74559	7.05526	-10.25549	14.82051	17.04103	0.68484	1.4602	200.5742	166.17311	77.21341	0.29883	 	8.69587E33	 	2.0102E-34	 	4600.195	25.9172	 
80.0	1.0	0.0	7.74732	7.05367	-10.27563	14.80403	16.97793	0.67779	1.47539	200.87435	166.25448	77.34101	0.29863	 	3.05528E34	 	5.64151E-35	 	4471.09	25.821	 
75.0	1.0	0.0	7.74906	7.05209	-10.29573	14.78755	16.91482	0.67068	1.49102	201.17294	166.3344	77.46805	0.29843	 	1.1129199999999998E35	 	1.52682E-35	 	4342.47	25.724	 
70.0	1.0	0.0	7.75079	7.05052	-10.31578	14.77107	16.8517	0.66353	1.5071	201.47006	166.41294	77.59457	0.29822	 	4.20958E35	 	3.97862E-36	 	4214.339	25.6262	 
65.0	1.0	0.0	7.75252	7.04894	-10.33579	14.7546	16.78857	0.65632	1.52365	201.76579	166.49018	77.72058	0.29802	 	1.65615E36	 	9.96544E-37	 	4086.702	25.5274	 
60.0	1.0	0.0	7.75425	7.04737	-10.35575	14.73814	16.72542	0.64905	1.5407	202.0602	166.56618	77.84613	0.29782	 	6.789159999999999E36	 	2.39503E-37	 	3959.566	25.4272	 
55.0	1.0	0.0	7.75597	7.04581	-10.37567	14.72167	16.66225	0.64174	1.55827	202.3534	166.64103	77.97125	0.29762	 	2.90539E37	 	5.51257E-38	 	3832.938	25.3256	 
50.0	1.0	0.0	7.75769	7.04425	-10.39555	14.70522	16.59907	0.63436	1.57638	202.64549	166.71482	78.09598	0.29741	 	1.3005699999999999E38	 	1.21271E-38	 	3706.823	25.223	 
45.0	1.0	0.0	7.75941	7.04269	-10.41538	14.68877	16.53588	0.62693	1.59506	202.93657	166.78763	78.22036	0.29721	 	6.1026699999999995E38	 	2.54448E-39	 	3581.23	25.1186	 
40.0	1.0	0.0	7.76112	7.04113	-10.43517	14.67232	16.47267	0.61945	1.61434	203.22677	166.85957	78.34444	0.29701	 	3.0084800000000004E39	 	5.08033E-40	 	3456.168	25.0124	 
35.0	1.0	0.0	7.76284	7.03958	-10.45491	14.65588	16.40945	0.61191	1.63423	203.51621	166.93076	78.46827	0.29681	 	1.56192E40	 	9.62922E-41	 	3331.645	24.9046	 
30.0	1.0	0.0	7.76454	7.03803	-10.47461	14.63945	16.34621	0.60431	1.65479	203.80503	167.00129	78.5919	0.2966	 	8.5617899999999995E40	 	1.72814E-41	 	3207.673	24.7944	 
25.0	1.0	0.0	7.76625	7.03649	-10.49426	 	16.28296	0.59665	1.67603	204.09338	167.07129	78.71538	0.2964	 	4.96883E41	 	2.92865E-42	 	3084.261	 	 
