T (C)	Fraction solid (wt)-TOTAL	Fraction liquid (wt)-LIQUID	Density (g/(cm)^3)-TOTAL	Molar volume (cm^3)-TOTAL	Volume change (%)-  	Average expansion coeff. (10e-6 1/K)-  	Thermal conductivity (W/(m*K))-TOTAL	Electrical resistivity (10e-6 Ohm*m)-TOTAL	Electrical conductivity (10e6 1/(Ohm*m))-TOTAL	Young's modulus (GPa)-TOTAL	Bulk modulus (GPa)-TOTAL	Shear modulus(GPa)-TOTAL	Poisson's ratio-TOTAL	Liquid viscosity (mPa s)-  	Total viscosity (mPa s)-  	Liquid diffusivity (10e-9 (m^2)/s)-  	Total diffusivity (10e-9 (m^2)/s)-  	Surface Tension (mN/m)-  	Enthalpy (J/mole)-TOTAL	Specific heat (J/(mole K))-TOTAL	Latent heat (J/mole)-TOTAL
700.0	0.0	1.0	1.6377	15.05119	0.0	54.16173	78.64287	0.30317	3.29848	0.0	26.50576	0.0	0.5	1.22924	1.22924	3.86394	3.86394	550.06835	27116.653	 	0.0
695.0	1.0E-5	0.99999	1.639	15.0392	-0.079622	54.12635	78.31039	0.30289	3.3015	1.1712E-19	26.57327	3.90402E-20	0.5	1.24356	1.24356	3.79981	3.79981	551.79404	26945.945	34.1416	0.305
690.0	2.0E-5	0.99998	1.64029	15.02744	-0.15779	54.09851	77.97869	0.30261	3.30458	9.36433E-19	26.64094	3.12145E-19	0.5	1.2582	1.2582	3.7362	3.7362	553.51996	26775.267	34.1356	0.586
685.0	3.0E-5	0.99997	1.64158	15.01558	-0.23656	54.06687	77.64628	0.30233	3.30766	3.27494E-18	26.70843	1.09165E-18	0.49999	1.27317	1.27317	3.6731	3.6731	555.24617	26604.614	34.1306	0.838
680.0	3.0E-5	0.99997	1.64286	15.00393	-0.31397	54.04246	77.31463	0.30204	3.31081	7.83174E-18	26.77616	2.61058E-18	0.5	1.28848	1.28848	3.61052	3.61052	556.97259	26433.986	34.1256	1.067
675.0	4.0E-5	0.99996	1.64414	14.99219	-0.39199	54.0142	76.98227	0.30175	3.31396	1.50442E-17	26.8437	5.01475E-18	0.49999	1.30414	1.30414	3.54846	3.54846	558.69927	26263.38	34.1212	1.272
670.0	5.0E-5	0.99995	1.64542	14.98049	-0.46974	53.98702	76.64987	0.30146	3.31715	2.50742E-17	26.91119	8.35812E-18	0.49999	1.32016	1.32016	3.48692	3.48692	560.4262	26092.793	34.1174	1.458
665.0	5.0E-5	0.99995	1.6467	14.969	-0.54606	53.96769	76.31827	0.30117	3.3204	3.78358E-17	26.97898	1.2612E-17	0.49999	1.33655	1.33655	3.4259	3.4259	562.15331	25922.225	34.1136	1.624
660.0	5.0E-5	0.99995	1.64797	14.95741	-0.62307	53.94405	75.98592	0.30087	3.32365	5.30602E-17	27.04653	1.76868E-17	0.49999	1.35332	1.35332	3.36541	3.36541	563.88067	25751.671	34.1108	1.774
655.0	6.0E-5	0.99994	1.64924	14.94588	-0.69967	53.92243	75.65362	0.30058	3.32694	7.0377E-17	27.11413	2.34592E-17	0.49999	1.37049	1.37049	3.30544	3.30544	565.60824	25581.152	34.1038	1.909
654.92	6.0E-5	0.99994	1.64926	14.94569	-0.70094	53.92209	75.64811	0.30057	3.327	7.06767E-17	27.11525	2.3559E-17	0.49999	1.37078	1.37078	3.30445	3.30445	565.63691	25578.323	34.1049	1.911
650.0	3.6E-4	0.99964	1.65053	14.93423	-0.77705	53.89585	75.32621	0.30026	3.33049	2.64277E-14	27.18097	8.80948E-15	0.49996	1.38771	1.38771	3.24684	3.24684	567.31573	25403.667	35.5205	9.04
645.0	6.5E-4	0.99935	1.65181	14.92256	-0.85463	53.86767	74.99827	0.29994	3.33405	4.01938E-13	27.24776	1.33986E-13	0.49992	1.40534	1.40534	3.18873	3.18873	569.01807	25226.716	35.3902	15.971
640.0	9.3E-4	0.99907	1.6531	14.91106	-0.93103	53.84613	74.67069	0.29961	3.33766	1.89634E-12	27.31485	6.32159E-13	0.49989	1.42342	1.42342	3.13109	3.13109	570.727	25050.736	35.196	22.592
635.0	0.0012	0.9988	1.65437	14.89956	-1.00744	53.82415	74.34264	0.29929	3.34129	5.55534E-12	27.38188	1.85195E-12	0.49986	1.44195	1.44195	3.07392	3.07392	572.43662	24875.709	35.0054	28.914
630.0	0.00146	0.99854	1.65565	14.88807	-1.08373	53.80253	74.01419	0.29896	3.34495	1.25441E-11	27.44895	4.18183E-12	0.49983	1.46095	1.46095	3.01724	3.01724	574.1469	24701.615	34.8188	34.948
625.0	0.0017	0.9983	1.65692	14.87658	-1.16007	53.78025	73.68527	0.29863	3.34862	2.40291E-11	27.51595	8.01077E-12	0.4998	1.48044	1.48044	2.96105	2.96105	575.85784	24528.434	34.6362	40.702
620.0	0.00193	0.99807	1.65818	14.86526	-1.23532	53.76441	73.35666	0.2983	3.35235	4.11043E-11	27.58324	1.37035E-11	0.49978	1.50042	1.50042	2.90535	2.90535	577.56937	24356.148	34.4572	46.187
615.0	0.00215	0.99785	1.65944	14.85392	-1.31064	53.74783	73.02757	0.29797	3.3561	6.47047E-11	27.65045	2.15718E-11	0.49975	1.52092	1.52092	2.85015	2.85015	579.28154	24184.738	34.282	51.413
610.0	0.00236	0.99764	1.6607	14.84273	-1.38497	53.73719	72.69875	0.29763	3.3599	9.56102E-11	27.71787	3.18759E-11	0.49973	1.54195	1.54195	2.79545	2.79545	580.99428	24014.186	34.1104	56.388
605.0	0.00256	0.99744	1.66195	14.83153	-1.45942	53.72565	72.36942	0.29729	3.36372	1.34403E-10	27.78521	4.48098E-11	0.4997	1.56353	1.56353	2.74125	2.74125	582.70762	23844.473	33.9426	61.122
600.0	0.00275	0.99725	1.6632	14.82047	-1.53292	53.72005	72.04034	0.29695	3.3676	1.81461E-10	27.85277	6.04997E-11	0.49968	1.58568	1.58568	2.68757	2.68757	584.42151	23675.583	33.778	65.623
595.82	0.0029	0.9971	1.66423	14.81129	-1.59387	53.71829	71.76537	0.29666	3.37088	2.27277E-10	27.90929	7.57759E-11	0.49967	1.60465	1.60465	2.6431	2.6431	585.85413	23535.075	 	69.207
595.0	0.02313	0.97687	1.66564	14.79869	-1.67757	53.25257	72.48836	0.29342	3.40806	4.48699E-6	27.88854	1.49937E-6	0.49629	1.60841	1.65761	2.63442	2.55623	586.24922	23347.087	65.6992	230.312
590.0	0.13305	0.86695	1.6734	14.73009	-2.13339	50.7397	76.3735	0.27689	3.61152	0.00786354	28.09252	0.0026605	0.47783	1.63166	3.50199	2.58192	1.20298	588.65201	22314.309	206.556	1099.855
585.0	0.22208	0.77792	1.67989	14.67321	-2.51129	48.69657	79.59211	0.26416	3.78565	0.0645366	28.2848	0.0220605	0.46272	1.65553	15.7797	2.52995	0.26543	591.05421	21453.48	172.166	1798.014
583.61	0.2436	0.7564	1.68149	14.65921	-2.60427	48.20193	80.39339	0.2611	3.82996	0.0943567	28.33649	0.0323353	0.45904	1.66227	22.51992	2.51563	0.18569	591.72101	21240.382	 	1966.059
575.0	0.3576	0.6424	1.69022	14.5835	-3.10733	45.57343	84.68168	0.24539	4.07522	0.45798	28.64633	0.15909	0.43939	1.70518	115.5384	2.42767	0.0358289	595.85548	20082.054	137.143	2845.761
570.0	0.40941	0.59059	1.69439	14.54764	-3.34557	44.37456	86.72505	0.23819	4.1983	0.80159	28.81704	0.28021	0.43034	1.73099	218.42945	2.37737	0.01884	598.25534	19525.995	111.212	3240.794
565.0	0.45372	0.54628	1.69808	14.51594	-3.55619	43.34275	88.5016	0.23203	4.30986	1.22896	28.98258	0.43197	0.42252	1.75749	364.85068	2.32764	0.0112123	600.65453	19030.79	99.041	3575.504
560.0	0.49203	0.50797	1.7014	14.48764	-3.74423	42.44771	90.04542	0.22669	4.41136	1.72402	29.14389	0.60889	0.41571	1.7847	560.40737	2.27847	0.00725615	603.05303	18584.515	89.255	3861.811
555.0	0.52542	0.47458	1.70439	14.46214	-3.91362	41.66602	91.3628	0.22208	4.50292	2.27106	29.30123	0.8055	0.40971	1.81265	811.13628	2.22988	0.00498313	605.45088	18178.078	81.2874	4108.795
550.0	0.55474	0.44526	1.70713	14.43893	-4.06785	40.97618	92.52112	0.21797	4.58771	2.85618	29.45523	1.01687	0.4044	1.84136	1124.06953	2.18186	0.00357415	607.84814	17804.444	74.7268	4323.484
545.0	0.5807	0.4193	1.70965	14.41759	-4.20962	40.36171	93.51987	0.21434	4.66557	3.46773	29.60591	1.23878	0.39965	1.87086	1507.36415	2.13441	0.00264912	610.24495	17458.096	69.2696	4511.388
542.49	0.59258	0.40742	1.71085	14.40757	-4.27616	40.0822	93.96996	0.21265	4.70248	3.78064	29.68065	1.35268	0.39746	1.886	1729.09415	2.11077	0.00230231	611.44998	17293.157	 	4596.843
542.49	0.59258	0.40742	1.71085	14.40757	-4.27616	40.08219	93.96996	0.21265	4.70248	3.78064	29.68065	1.35268	0.39746	1.886	1729.09415	2.11077	0.00230231	611.44998	17293.156	 	4596.844
540.0	0.60384	0.39616	1.71199	14.39793	-4.34024	39.81544	94.38942	0.21106	4.73791	4.09692	29.75361	1.46803	0.39538	1.9011	1971.43838	2.08762	0.00201314	612.63941	17133.565	64.9062	4677.968
535.0	0.62478	0.37522	1.71419	14.37945	-4.46305	39.31506	95.13496	0.20812	4.80487	4.74161	29.89848	1.70381	0.39147	1.93214	2530.93201	2.04145	0.00155847	615.03243	16826.856	61.3418	4827.216
530.0	0.64359	0.35641	1.71624	14.36219	-4.57768	38.86467	95.76698	0.20547	4.86691	5.38889	30.04121	1.94134	0.38793	1.96409	3196.87288	1.99582	0.00122619	617.4262	16537.507	57.8698	4959.583
525.0	0.66057	0.33943	1.71818	14.34597	-4.68548	38.45585	96.2991	0.20306	4.92461	6.03446	30.18159	2.17898	0.3847	1.99699	3986.26416	1.95072	9.77249E-4	619.82059	16262.952	54.911	5077.629
520.0	0.67599	0.32401	1.72001	14.33069	-4.78701	38.08563	96.74322	0.20086	4.97851	6.67503	30.32017	2.41546	0.38173	2.03086	4919.09905	1.90618	7.86967E-4	622.21543	16001.106	52.3692	5183.43
515.0	0.69005	0.30995	1.72176	14.31611	-4.88383	37.74334	97.10929	0.19884	5.02905	7.3086	30.45654	2.64998	0.37899	2.06573	6019.58583	1.86218	6.39041E-4	624.61085	15750.253	50.1706	5278.696
510.0	0.70293	0.29707	1.72342	14.30227	-4.97581	37.43094	97.40636	0.19698	5.07664	7.93324	30.5912	2.88176	0.37646	2.10165	7316.07786	1.81874	5.2246E-4	627.00667	15508.974	48.2558	5364.839
505.0	0.71476	0.28524	1.72502	14.28899	-5.06403	37.14106	97.64132	0.19525	5.12158	8.54764	30.72395	3.11028	0.3741	2.13866	8842.08523	1.77586	4.29532E-4	629.40304	15276.081	46.5786	5443.039
500.0	0.7257	0.2743	1.72655	14.27625	-5.14867	36.87291	97.82173	0.19364	5.16423	9.15162	30.85499	3.3354	0.37189	2.1768	10638.60487	1.73353	3.54704E-4	631.79994	15050.577	45.1008	5514.289
495.0	0.73582	0.26418	1.72803	14.26395	-5.23039	36.62201	97.95285	0.19213	5.20481	9.74478	30.98426	3.55694	0.36982	2.21611	12753.41555	1.69177	2.93972E-4	634.19754	14831.614	43.7926	5579.428
490.0	0.74523	0.25477	1.72947	14.2521	-5.3091	36.38965	98.04059	0.19071	5.2436	10.32692	31.11205	3.77479	0.36788	2.25663	15244.51925	1.65058	2.44333E-4	636.59577	14618.472	42.6284	5639.172
485.0	0.75399	0.24601	1.73086	14.24061	-5.38549	36.17096	98.08795	0.18937	5.28074	10.89782	31.23814	3.98882	0.36604	2.29843	18178.88859	1.60995	2.03552E-4	638.99486	14410.533	41.5878	5694.133
480.0	0.7622	0.2378	1.73221	14.22948	-5.4594	35.96763	98.09971	0.1881	5.31643	11.45788	31.36281	4.19916	0.36431	2.34154	21639.18748	1.56988	1.69874E-4	641.39476	14207.264	40.6538	5744.849
475.0	0.76989	0.23011	1.73353	14.21866	-5.53128	35.77637	98.0786	0.18689	5.35081	12.00709	31.48601	4.40576	0.36266	2.38604	25722.18088	1.53037	1.41961E-4	643.79567	14008.204	39.812	5791.733
470.0	0.77711	0.22289	1.73481	14.20807	-5.60169	35.59315	98.0278	0.18573	5.38402	12.54638	31.60754	4.60896	0.36109	2.43197	30546.06302	1.49144	1.18743E-4	646.19789	13812.952	39.0504	5835.243
465.0	0.78393	0.21607	1.73606	14.19778	-5.67002	35.42319	97.95094	0.18463	5.41624	13.07581	31.72784	4.80875	0.35959	2.4794	36252.73763	1.45306	9.93781E-5	648.60119	13621.157	38.359	5875.7
460.0	0.79036	0.20964	1.73729	14.18767	-5.73721	35.25901	97.84813	0.18357	5.44745	13.59562	31.84661	5.0052	0.35815	2.5284	43008.08034	1.41525	8.32012E-5	651.00608	13432.511	37.7292	5913.418
455.0	0.79645	0.20355	1.7385	14.17783	-5.80257	35.10678	97.72398	0.18255	5.4779	14.10667	31.96414	5.19861	0.35677	2.57902	51021.475	1.37801	6.96554E-5	653.41231	13246.743	37.1536	5948.624
450.0	0.80223	0.19777	1.73968	14.16813	-5.86701	34.95889	97.57795	0.18157	5.50753	14.6091	32.08021	5.38903	0.35545	2.63136	60534.93408	1.34133	5.83054E-5	655.82042	13063.615	36.6256	5981.609
445.0	0.80773	0.19227	1.74084	14.15862	-5.9302	34.81858	97.41265	0.18062	5.53648	15.10371	32.19491	5.57673	0.35417	2.68548	71850.35607	1.30521	4.87835E-5	658.23033	12882.912	36.1406	6012.558
444.9	0.80784	0.19216	1.74087	14.15843	-5.93145	34.81623	97.40915	0.1806	5.53709	15.11383	32.19731	5.58058	0.35415	2.68663	72107.87654	1.30446	4.86022E-5	658.28064	12879.167	 	6013.18
436.94	0.81612	0.18388	1.74268	14.14365	-6.02966	34.60645	97.10401	0.17916	5.58156	15.8883	32.3773	5.87498	0.3522	2.77663	94840.93909	1.2482	3.65432E-5	662.11694	12596.111	 	6058.818
435.0	0.81809	0.18191	1.74312	14.14008	-6.05337	34.55657	97.02691	0.17881	5.59243	16.07873	32.42125	5.94746	0.35173	2.79918	101464.1751	1.23475	3.40643E-5	663.05778	12526.905	35.6007	6070.164
434.14	0.81896	0.18104	1.74331	14.13853	-6.06368	34.5359	96.99219	0.17866	5.59722	16.16209	32.44069	5.97919	0.35153	2.80925	104537.6937	1.22884	3.30227E-5	663.47351	12496.443	 	6075.069
430.0	0.95185	0.0481532	1.75296	14.05969	-6.58751	30.10486	99.80552	0.17261	5.79349	28.92746	32.74589	10.87362	0.33017	2.91071	212560.4109	1.17906	1.61455E-5	664.14706	11498.447	205.692	6950.004
425.0	0.97664	0.023362	1.75535	14.03969	-6.72038	29.2525	100.11653	0.17085	5.85317	32.11739	32.89321	12.1119	0.32586	3.03805	273637.548	1.12161	1.24526E-5	665.75986	11187.97	62.0954	7112.252
420.0	0.98547	0.0145265	1.75665	14.0285	-6.79473	28.92649	100.03574	0.16976	5.89063	33.42533	33.0115	12.62191	0.3241	3.17053	330802.0971	1.06704	1.02269E-5	667.59924	10982.469	41.1002	7169.888
418.36	0.98722	0.0127796	1.757	14.02547	-6.81486	28.85763	99.98019	0.16945	5.9013	33.71084	33.04794	12.73352	0.3237	3.215	350566.6295	1.0498	9.62756E-6	668.2226	10922.741	 	7181.267
415.0	1.0	0.0	1.7584	14.01347	-6.89461	28.35003	100.08551	0.16845	5.93638	35.48807	33.13811	13.42705	0.32151	 	408932.8026	 	8.2133E-6	 	10739.376	48.6186	7265.461
410.0	1.0	0.0	1.75921	14.00697	-6.93777	28.30359	99.78239	0.16774	5.96172	35.66845	33.24047	13.49892	0.32116	 	479533.47	 	6.95319E-6	 	10570.611	33.753	 
405.0	1.0	0.0	1.76003	14.00049	-6.9808	28.25715	99.47921	0.16702	5.98743	35.84791	33.34159	13.57048	0.3208	 	563645.2317	 	5.87228E-6	 	10423.699	29.3824	 
400.0	1.0	0.0	1.76084	13.99404	-7.0237	28.21071	99.17598	0.16629	6.01352	36.02644	33.44149	13.64173	0.32045	 	664102.9562	 	4.94724E-6	 	10277.081	29.3236	 
395.0	1.0	0.0	1.76165	13.9876	-7.06648	28.16427	98.87268	0.16556	6.03999	36.20406	33.54018	13.71266	0.3201	 	784388.2173	 	4.15747E-6	 	10130.754	29.2654	 
390.0	1.0	0.0	1.76246	13.98118	-7.10914	28.11783	98.56932	0.16483	6.06686	36.38074	33.63765	13.78328	0.31974	 	928788.6391	 	3.48483E-6	 	9984.716	29.2076	 
385.0	1.0	0.0	1.76327	13.97478	-7.15166	28.0714	98.2659	0.16409	6.09413	36.55651	33.73393	13.85359	0.31939	 	1102599.42	 	2.91336E-6	 	9838.965	29.1502	 
380.0	1.0	0.0	1.76407	13.9684	-7.19406	28.02497	97.96241	0.16335	6.12182	36.73135	33.82901	13.92358	0.31903	 	1312378.976	 	2.42907E-6	 	9693.5	29.093	 
375.0	1.0	0.0	1.76487	13.96203	-7.23634	27.97855	97.65886	0.1626	6.14993	36.90527	33.9229	13.99326	0.31868	 	1566274.243	 	2.01974E-6	 	9548.321	29.0358	 
370.0	1.0	0.0	1.76568	13.95569	-7.27849	27.93212	97.35524	0.16185	6.17847	37.07827	34.01562	14.06262	0.31833	 	1874435.943	 	1.67467E-6	 	9403.426	28.979	 
365.0	1.0	0.0	1.76648	13.94936	-7.32051	27.8857	97.05156	0.1611	6.20746	37.25034	34.10716	14.13167	0.31797	 	2249550.399	 	1.38457E-6	 	9258.814	28.9224	 
360.0	1.0	0.0	1.76728	13.94306	-7.36241	27.83928	96.7478	0.16034	6.23689	37.42149	34.19754	14.2004	0.31762	 	2707522.89	 	1.14136E-6	 	9114.486	28.8656	 
355.0	1.0	0.0	1.76807	13.93677	-7.40418	27.79286	96.44398	0.15957	6.2668	37.59171	34.28675	14.26882	0.31727	 	3268358.684	 	9.38038E-7	 	8970.44	28.8092	 
350.0	1.0	0.0	1.76887	13.9305	-7.44583	27.74645	96.14008	0.1588	6.29718	37.76101	34.37482	14.33692	0.31692	 	3957302.883	 	7.68564E-7	 	8826.675	28.753	 
345.0	1.0	0.0	1.76966	13.92425	-7.48735	27.70004	95.83611	0.15803	6.32804	37.92939	34.46175	14.4047	0.31656	 	4806320.338	 	6.27723E-7	 	8683.19	28.697	 
340.0	1.0	0.0	1.77046	13.91802	-7.52875	27.65363	95.53206	0.15725	6.3594	38.09685	34.54753	14.47217	0.31621	 	5856024.049	 	5.11035E-7	 	8539.986	28.6408	 
335.0	1.0	0.0	1.77125	13.91181	-7.57002	27.60722	95.22794	0.15646	6.39128	38.26338	34.63219	14.53933	0.31586	 	7158197.295	 	4.14662E-7	 	8397.061	28.585	 
330.0	1.0	0.0	1.77203	13.90562	-7.61116	27.56082	94.92374	0.15567	6.42367	38.42899	34.71572	14.60616	0.31551	 	8779104.805	 	3.35322E-7	 	8254.414	28.5294	 
325.0	1.0	0.0	1.77282	13.89944	-7.65218	27.51441	94.61946	0.15488	6.45661	38.59368	34.79813	14.67268	0.31515	 	1.080385671E7	 	2.7022E-7	 	8112.046	28.4736	 
320.0	1.0	0.0	1.77361	13.89329	-7.69307	27.46802	94.31509	0.15408	6.49009	38.75744	34.87943	14.73888	0.3148	 	1.334218283E7	 	2.16982E-7	 	7969.955	28.4182	 
315.0	1.0	0.0	1.77439	13.88715	-7.73384	27.42162	94.01064	0.15328	6.52413	38.92028	34.95963	14.80476	0.31445	 	1.653610431E7	 	1.73597E-7	 	7828.141	28.3628	 
310.0	1.0	0.0	1.77517	13.88104	-7.77448	27.37522	93.7061	0.15247	6.55876	39.0822	35.03873	14.87033	0.3141	 	2.057016823E7	 	1.38366E-7	 	7686.604	28.3074	 
305.0	1.0	0.0	1.77595	13.87494	-7.815	27.32883	93.40148	0.15165	6.59397	39.24319	35.11674	14.93558	0.31375	 	2.568516009E7	 	1.09861E-7	 	7545.343	28.2522	 
300.0	1.0	0.0	1.77673	13.86886	-7.85539	27.28244	93.09676	0.15083	6.6298	39.40326	35.19367	15.0005	0.3134	 	3.219655601E7	 	8.68852E-8	 	7404.358	28.197	 
295.0	1.0	0.0	1.77751	13.8628	-7.89565	27.23606	92.79196	0.15001	6.66624	39.56241	35.26952	15.06511	0.31305	 	4.051946431E7	 	6.84362E-8	 	7263.648	28.142	 
290.0	1.0	0.0	1.77828	13.85676	-7.93579	27.18967	92.48706	0.14918	6.70333	39.72063	35.34429	15.1294	0.3127	 	5.120249332E7	 	5.36809E-8	 	7123.213	28.087	 
285.0	1.0	0.0	1.77906	13.85073	-7.97581	27.14329	92.18206	0.14834	6.74108	39.87793	35.418	15.19337	0.31235	 	6.497395666E7	 	4.19274E-8	 	6983.053	28.032	 
280.0	1.0	0.0	1.77983	13.84473	-8.0157	27.09691	91.87696	0.1475	6.7795	40.03431	35.49065	15.25702	0.312	 	8.280521417E7	 	3.26041E-8	 	6843.168	27.977	 
275.0	1.0	0.0	1.7806	13.83875	-8.05546	27.05054	91.57176	0.14666	6.81861	40.18976	35.56224	15.32036	0.31165	 	1.059979332E8	 	2.524E-8	 	6703.557	27.9222	 
270.0	1.0	0.0	1.78137	13.83278	-8.09509	27.00416	91.26645	0.14581	6.85844	40.34429	35.63279	15.38337	0.3113	 	1.36304914E8	 	1.94489E-8	 	6564.221	27.8672	 
265.0	1.0	0.0	1.78213	13.82683	-8.13461	26.95779	90.96104	0.14495	6.899	40.4979	35.70229	15.44606	0.31095	 	1.760982601E8	 	1.49154E-8	 	6425.16	27.8122	 
260.0	1.0	0.0	1.7829	13.8209	-8.17399	26.91142	90.65552	0.14409	6.94031	40.65059	35.77076	15.50843	0.3106	 	2.286046979E8	 	1.13828E-8	 	6286.372	27.7576	 
255.0	1.0	0.0	1.78366	13.815	-8.21325	26.86505	90.34989	0.14322	6.98239	40.80235	35.8382	15.57047	0.31025	 	2.982366624E8	 	8.64337E-9	 	6147.859	27.7026	 
250.0	1.0	0.0	1.78442	13.80911	-8.25239	26.81869	90.04414	0.14234	7.02527	40.95318	35.90462	15.6322	0.3099	 	3.910607499E8	 	6.52933E-9	 	6009.621	27.6476	 
245.0	1.0	0.0	1.78518	13.80323	-8.2914	26.77233	89.73828	0.14146	7.06897	41.1031	35.97001	15.69361	0.30955	 	5.154643633E8	 	4.90618E-9	 	5871.657	27.5928	 
240.0	1.0	0.0	1.78594	13.79738	-8.33028	26.72597	89.43229	0.14058	7.11351	41.25209	36.0344	15.75469	0.3092	 	6.831100453E8	 	3.6664E-9	 	5733.968	27.5378	 
235.0	1.0	0.0	1.78669	13.79155	-8.36904	26.67962	89.12618	0.13969	7.15892	41.40016	36.09778	15.81545	0.30885	 	9.103099939E8	 	2.72452E-9	 	5596.555	27.4826	 
230.0	1.0	0.0	1.78744	13.78573	-8.40767	26.63326	88.81994	0.13879	7.20521	41.5473	36.16016	15.87589	0.3085	 	1.220018198E9	 	2.01288E-9	 	5459.417	27.4276	 
225.0	1.0	0.0	1.7882	13.77994	-8.44618	26.58691	88.51357	0.13788	7.25243	41.69352	36.22154	15.936	0.30816	 	1.644736357E9	 	1.47826E-9	 	5322.555	27.3724	 
220.0	1.0	0.0	1.78895	13.77416	-8.48456	26.54056	88.20707	0.13698	7.3006	41.83882	36.28193	15.9958	0.30781	 	2.230780894E9	 	1.07897E-9	 	5185.969	27.3172	 
215.0	1.0	0.0	1.78969	13.7684	-8.52282	26.49422	87.90043	0.13606	7.34973	41.9832	36.34134	16.05526	0.30746	 	3.044591384E9	 	7.82548E-10	 	5049.66	27.2618	 
210.0	1.0	0.0	1.79044	13.76266	-8.56095	26.44787	87.59364	0.13514	7.39988	42.12665	36.39977	16.11441	0.30711	 	4.18212267E9	 	5.63861E-10	 	4913.629	27.2062	 
205.0	1.0	0.0	1.79119	13.75694	-8.59896	26.40153	87.28671	0.13421	7.45106	42.26918	36.45722	16.17323	0.30676	 	5.782929244E9	 	4.03555E-10	 	4777.876	27.1506	 
200.0	1.0	0.0	1.79193	13.75124	-8.63684	26.35519	86.97963	0.13327	7.50331	42.41078	36.51371	16.23173	0.30642	 	8.051443637E9	 	2.86822E-10	 	4642.402	27.0948	 
195.0	1.0	0.0	1.79267	13.74556	-8.67459	26.30886	86.67239	0.13233	7.55666	42.55146	36.56924	16.2899	0.30607	 	1.12894E10	 	2.02396E-10	 	4507.208	27.0388	 
190.0	1.0	0.0	1.79341	13.7399	-8.71222	26.26252	86.365	0.13139	7.61115	42.69122	36.62381	16.34775	0.30572	 	1.5945399999999998E10	 	1.41766E-10	 	4372.295	26.9826	 
185.0	1.0	0.0	1.79415	13.73425	-8.74973	26.21619	86.05744	0.13043	7.66681	42.83006	36.67742	16.40527	0.30538	 	2.26921E10	 	9.85418E-11	 	4237.663	26.9264	 
180.0	1.0	0.0	1.79488	13.72862	-8.7871	26.16986	85.74971	0.12947	7.72369	42.96797	36.73009	16.46247	0.30503	 	3.2545799999999996E10	 	6.7957E-11	 	4103.313	26.87	 
175.0	1.0	0.0	1.79561	13.72302	-8.82436	26.12353	85.44181	0.1285	7.78182	43.10496	36.78182	16.51934	0.30468	 	4.705539999999999E10	 	4.64837E-11	 	3969.248	26.813	 
170.0	1.0	0.0	1.79635	13.71743	-8.86149	26.07721	85.13373	0.12753	7.84124	43.24102	36.83261	16.57588	0.30434	 	6.860219999999999E10	 	3.15282E-11	 	3835.467	26.7562	 
165.0	1.0	0.0	1.79707	13.71186	-8.89849	26.03089	84.82547	0.12655	7.90201	43.37617	36.88247	16.6321	0.30399	 	1.0088E11	 	2.11986E-11	 	3701.973	26.6988	 
160.0	1.0	0.0	1.7978	13.70631	-8.93537	25.98457	84.51701	0.12556	7.96416	43.51039	36.93141	16.688	0.30364	 	1.4967E11	 	1.41251E-11	 	3568.766	26.6414	 
155.0	1.0	0.0	1.79853	13.70078	-8.97212	25.93826	84.20836	0.12457	8.02774	43.64368	36.97942	16.74356	0.3033	 	2.24113E11	 	9.32428E-12	 	3435.848	26.5836	 
150.0	1.0	0.0	1.79925	13.69526	-9.00875	25.89194	83.89951	0.12357	8.0928	43.77605	37.02652	16.7988	0.30295	 	3.388E11	 	6.09589E-12	 	3303.221	26.5254	 
145.0	1.0	0.0	1.79997	13.68977	-9.04525	25.84563	83.59044	0.12256	8.1594	43.9075	37.0727	16.85371	0.30261	 	5.17264E11	 	3.94554E-12	 	3170.886	26.467	 
140.0	1.0	0.0	1.80069	13.6843	-9.08162	25.79932	83.28117	0.12154	8.2276	44.03803	37.11798	16.9083	0.30226	 	7.97865E11	 	2.52735E-12	 	3038.844	26.4084	 
135.0	1.0	0.0	1.80141	13.67884	-9.11787	25.75302	82.97166	0.12052	8.29744	44.16763	37.16236	16.96255	0.30192	 	1.24382E12	 	1.60158E-12	 	2907.099	26.349	 
130.0	1.0	0.0	1.80213	13.6734	-9.154	25.70671	82.66193	0.11949	8.36899	44.29631	37.20584	17.01648	0.30157	 	1.96051E12	 	1.00366E-12	 	2775.651	26.2896	 
125.0	1.0	0.0	1.80284	13.66798	-9.19	25.66041	82.35196	0.11845	8.44231	44.42407	37.24843	17.07008	0.30123	 	3.12567E12	 	6.21714E-13	 	2644.502	26.2298	 
120.0	1.0	0.0	1.80356	13.66258	-9.22588	25.61412	82.04174	0.11741	8.51747	44.5509	37.29013	17.12335	0.30088	 	5.04278E12	 	3.80518E-13	 	2513.656	26.1692	 
115.0	1.0	0.0	1.80427	13.6572	-9.26163	25.56782	81.73127	0.11635	8.59454	44.67681	37.33095	17.17629	0.30054	 	8.23662E12	 	2.30005E-13	 	2383.114	26.1084	 
110.0	1.0	0.0	1.80498	13.65184	-9.29725	25.52153	81.42053	0.11529	8.67359	44.8018	37.37089	17.2289	0.30019	 	1.36266E13	 	1.37236E-13	 	2252.879	26.047	 
105.0	1.0	0.0	1.80568	13.6465	-9.33275	25.47524	81.10952	0.11422	8.75471	44.92586	37.40996	17.28118	0.29985	 	2.2846E13	 	8.07868E-14	 	2122.953	25.9852	 
100.0	1.0	0.0	1.80639	13.64117	-9.36813	25.42895	80.79822	0.11315	8.83796	45.049	37.44816	17.33314	0.29951	 	3.88371E13	 	4.68947E-14	 	1993.34	25.9226	 
95.0	1.0	0.0	1.80709	13.63587	-9.40338	25.38266	80.48663	0.11206	8.92345	45.17121	37.4855	17.38476	0.29916	 	6.69795E13	 	2.68268E-14	 	1864.043	25.8594	 
90.0	1.0	0.0	1.80779	13.63058	-9.4385	25.33638	80.17473	0.11097	9.01126	45.29251	37.52197	17.43605	0.29882	 	1.17261E14	 	1.51153E-14	 	1735.065	25.7956	 
85.0	1.0	0.0	1.80849	13.62531	-9.4735	25.2901	79.86252	0.10987	9.10148	45.41288	37.55759	17.48701	0.29847	 	2.08525E14	 	8.38287E-15	 	1606.41	25.731	 
80.0	1.0	0.0	1.80919	13.62006	-9.50837	25.24382	79.54997	0.10876	9.19422	45.53232	37.59236	17.53764	0.29813	 	3.76914E14	 	4.57302E-15	 	1478.081	25.6658	 
75.0	1.0	0.0	1.80988	13.61483	-9.54312	25.19755	79.23708	0.10765	9.28958	45.65085	37.62629	17.58794	0.29779	 	6.92963E14	 	2.45213E-15	 	1350.084	25.5994	 
70.0	1.0	0.0	1.81057	13.60962	-9.57774	25.15127	78.92384	0.10652	9.38768	45.76845	37.65937	17.63791	0.29745	 	1.29683E15	 	1.29148E-15	 	1222.423	25.5322	 
65.0	1.0	0.0	1.81127	13.60443	-9.61224	25.105	78.61022	0.10539	9.48863	45.88512	37.69162	17.68754	0.2971	 	2.47234E15	 	6.67557E-16	 	1095.103	25.464	 
60.0	1.0	0.0	1.81195	13.59926	-9.64662	25.05873	78.29622	0.10425	9.59257	46.00088	37.72303	17.73685	0.29676	 	4.80555E15	 	3.38364E-16	 	968.129	25.3948	 
55.0	1.0	0.0	1.81264	13.5941	-9.68086	25.01247	77.98181	0.1031	9.69962	46.11571	37.75361	17.78582	0.29642	 	9.53177E15	 	1.6803E-16	 	841.509	25.324	 
50.0	1.0	0.0	1.81333	13.58897	-9.71499	24.9662	77.66698	0.10194	9.80994	46.22961	37.78337	17.83445	0.29608	 	1.93112E16	 	8.16738E-17	 	715.248	25.2522	 
45.0	1.0	0.0	1.81401	13.58385	-9.74899	24.91994	77.35172	0.10077	9.92366	46.3426	37.81231	17.88276	0.29573	 	4.0002E16	 	3.88184E-17	 	589.354	25.1788	 
40.0	1.0	0.0	1.81469	13.57875	-9.78286	24.87369	77.03599	0.0995921	10.04096	46.45466	37.84043	17.93073	0.29539	 	8.48113E16	 	1.80213E-17	 	463.835	25.1038	 
35.0	1.0	0.0	1.81537	13.57367	-9.81661	24.82744	76.71979	0.0984058	10.162	46.56579	37.86774	17.97837	0.29505	 	1.84254E17	 	8.16265E-18	 	338.7	25.027	 
30.0	1.0	0.0	1.81605	13.56861	-9.85023	24.78119	76.40308	0.0972104	10.28696	46.67601	37.89425	18.02567	0.29471	 	4.10674E17	 	3.60286E-18	 	213.958	24.9484	 
25.0	1.0	0.0	1.81672	13.56357	-9.88373	 	76.08585	0.0960057	10.41605	46.7853	37.91995	18.07264	0.29437	 	9.40266E17	 	1.54764E-18	 	89.62	 	 
