T (C)	Fraction solid (wt)-TOTAL	Fraction liquid (wt)-LIQUID	Density (g/(cm)^3)-TOTAL	Molar volume (cm^3)-TOTAL	Volume change (%)-  	Average expansion coeff. (10e-6 1/K)-  	Thermal conductivity (W/(m*K))-TOTAL	Electrical resistivity (10e-6 Ohm*m)-TOTAL	Electrical conductivity (10e6 1/(Ohm*m))-TOTAL	Young's modulus (GPa)-TOTAL	Bulk modulus (GPa)-TOTAL	Shear modulus(GPa)-TOTAL	Poisson's ratio-TOTAL	Liquid viscosity (mPa s)-  	Total viscosity (mPa s)-  	Liquid diffusivity (10e-9 (m^2)/s)-  	Total diffusivity (10e-9 (m^2)/s)-  	Surface Tension (mN/m)-  	Enthalpy (J/mole)-TOTAL	Specific heat (J/(mole K))-TOTAL	Latent heat (J/mole)-TOTAL
700.0	0.0	1.0	1.61736	15.1955	0.0	52.50421	79.83398	0.29865	3.34844	0.0	25.51281	0.0	0.5	1.24812	1.24812	3.80549	3.80549	546.65747	27409.032	 	0.0
695.0	0.0	1.0	1.61864	15.18345	-0.079306	52.45952	79.49541	0.29838	3.35145	0.0	25.58078	0.0	0.5	1.2628	1.2628	3.74193	3.74193	548.39565	27238.382	34.13	0.0
690.0	0.0	1.0	1.61992	15.17145	-0.15829	52.41593	79.15683	0.29811	3.3545	0.0	25.64876	0.0	0.5	1.2778	1.2778	3.67888	3.67888	550.13398	27067.734	34.1296	0.0
688.44	0.0	1.0	1.62032	15.1677	-0.18294	52.40253	79.05092	0.29802	3.35547	0.0	25.67002	0.0	0.5	1.28257	1.28257	3.65927	3.65927	550.67782	27014.349	34.1299	0.0
685.0	1.0E-5	0.99999	1.62119	15.15961	-0.23616	52.37797	78.81894	0.29783	3.35762	0.0	25.71671	0.0	0.5	1.29314	1.29314	3.61638	3.61638	551.86831	26896.892	34.1859	0.189
680.0	1.0E-5	0.99999	1.62247	15.14761	-0.31514	52.3331	78.48013	0.29756	3.36072	1.02647E-19	25.78465	3.42158E-20	0.5	1.30882	1.30882	3.5544	3.5544	553.60104	26725.985	34.1814	0.449
675.0	2.0E-5	0.99998	1.62374	15.13568	-0.39364	52.29028	78.14136	0.29728	3.36386	5.54141E-19	25.85245	1.84714E-19	0.5	1.32487	1.32487	3.49295	3.49295	555.33404	26555.102	34.1766	0.686
670.0	2.0E-5	0.99998	1.62501	15.12397	-0.47071	52.255	77.80342	0.29699	3.36707	1.6512E-18	25.92056	5.50402E-19	0.5	1.34128	1.34128	3.43201	3.43201	557.06728	26384.242	34.172	0.901
666.08	3.0E-5	0.99997	1.626	15.11471	-0.53168	52.22356	77.53804	0.29677	3.36958	3.11833E-18	25.9737	1.03945E-18	0.5	1.3544	1.3544	3.38464	3.38464	558.42534	26250.399	 	1.055
665.0	1.3E-4	0.99987	1.62629	15.11212	-0.54868	52.21397	77.46658	0.2967	3.37036	2.90727E-16	25.98811	9.69098E-17	0.49999	1.35795	1.35795	3.3719	3.3719	558.79451	26211.014	34.6456	3.483
660.0	5.9E-4	0.99941	1.62759	15.10006	-0.62806	52.16414	77.13558	0.29639	3.37394	2.65004E-13	26.05445	8.83384E-14	0.49994	1.37458	1.37458	3.31337	3.31337	560.49975	26029.434	36.316	14.419
655.0	0.00103	0.99897	1.62888	15.08792	-0.70794	52.11054	76.80355	0.29608	3.37751	2.70379E-12	26.12071	9.01332E-13	0.49989	1.39162	1.39162	3.25526	3.25526	562.20597	25848.318	36.2232	24.9
650.0	0.00146	0.99854	1.63017	15.07601	-0.78633	52.06488	76.47202	0.29576	3.38115	1.1099E-11	26.18736	3.70005E-12	0.49984	1.40908	1.40908	3.19759	3.19759	563.91309	25667.658	36.132	34.941
645.0	0.00186	0.99814	1.63146	15.06416	-0.86434	52.0208	76.14017	0.29544	3.38481	3.03359E-11	26.2541	1.01133E-11	0.4998	1.42699	1.42699	3.14037	3.14037	565.61758	25487.755	35.9806	44.556
640.0	0.00225	0.99775	1.63274	15.05237	-0.94191	51.97855	75.80804	0.29512	3.3885	6.57759E-11	26.32098	2.19288E-11	0.49976	1.44535	1.44535	3.08359	3.08359	567.32672	25308.937	35.7636	53.759
635.0	0.00262	0.99738	1.63402	15.04062	-1.01923	51.93722	75.47553	0.29479	3.39221	1.22802E-10	26.3879	4.09418E-11	0.49972	1.46417	1.46417	3.02728	3.02728	569.0367	25131.182	35.551	62.563
630.0	0.00297	0.99703	1.63529	15.02893	-1.09615	51.89754	75.14271	0.29447	3.39595	2.06461E-10	26.45496	6.8835E-11	0.49968	1.48348	1.48348	2.97143	2.97143	570.74748	24954.467	35.343	70.982
625.0	0.00331	0.99669	1.63656	15.01729	-1.17281	51.8589	74.80954	0.29414	3.39971	3.21162E-10	26.52207	1.0708E-10	0.49964	1.50328	1.50328	2.91605	2.91605	572.45905	24778.769	35.1396	79.029
620.0	0.00363	0.99637	1.63782	15.00567	-1.24925	51.82087	74.47598	0.29382	3.4035	4.70618E-10	26.58921	1.56914E-10	0.49961	1.52361	1.52361	2.86114	2.86114	574.17138	24604.067	34.9404	86.716
618.08	0.00375	0.99625	1.6383	15.00127	-1.27819	51.80861	74.34816	0.29369	3.40497	5.37838E-10	26.61506	1.79328E-10	0.49959	1.53154	1.53154	2.8402	2.8402	574.82857	24537.297	 	89.572
616.66	0.00443	0.99557	1.63866	14.99793	-1.3002	51.79593	74.25296	0.2936	3.40605	6.07388E-10	26.63482	2.02531E-10	0.49949	1.53711	1.53711	2.8254	2.8254	575.3013	24472.706	 	106.849
615.0	0.0971107	0.90289	1.64438	14.9458	-1.64324	49.79746	78.27911	0.27798	3.59744	0.00163873	26.71526	5.52042E-4	0.48424	1.54368	2.00974	2.80813	2.15692	576.08156	23591.434	202.527	932.959
610.0	0.30591	0.69409	1.6576	14.82654	-2.42807	45.27564	88.14088	0.24548	4.07359	0.19971	27.08302	0.0688906	0.44944	1.56402	31.5957	2.75599	0.13642	578.43969	21578.245	402.638	2780.375
606.96	0.39349	0.60651	1.66336	14.77529	-2.76533	43.37474	92.93849	0.23201	4.31013	0.5745	27.2676	0.20023	0.43463	1.57673	87.96606	2.72439	0.0488327	579.87721	20708.695	 	3549.574
606.96	0.39349	0.60651	1.66336	14.77529	-2.76533	43.37471	92.93849	0.23201	4.31013	0.5745	27.2676	0.20023	0.43463	1.57673	87.96606	2.72439	0.0488327	579.87721	20708.687	 	3549.582
605.0	0.43999	0.56001	1.66649	14.7475	-2.94821	42.35883	95.70126	0.22481	4.44819	0.92014	27.3764	0.32247	0.4267	1.58508	141.61416	2.70399	0.0302656	580.80856	20237.636	268.122	3955.818
600.0	0.53501	0.46499	1.67306	14.68951	-3.32986	40.27949	101.48814	0.21078	4.74417	2.10821	27.62913	0.74739	0.41038	1.60679	338.57883	2.65227	0.0125868	583.18326	19250.355	197.456	4778.533
595.0	0.60453	0.39547	1.67811	14.64524	-3.62117	38.74809	106.29449	0.2001	4.99747	3.55306	27.85417	1.27052	0.39827	1.62911	607.78534	2.60094	0.00697158	585.56252	18491.541	151.763	5373.369
590.0	0.65734	0.34266	1.68216	14.61001	-3.85303	37.57768	110.12345	0.19203	5.20748	5.09321	28.06017	1.83345	0.38897	1.65205	937.7952	2.55005	0.00449226	587.94416	17882.063	121.896	5819.45
585.0	0.6986	0.3014	1.6855	14.58096	-4.04422	36.65417	113.17317	0.18577	5.38287	6.62951	28.25238	2.3992	0.3816	1.67561	1322.79425	2.49964	0.00316634	590.32684	17375.003	101.412	6163.683
580.0	0.73161	0.26839	1.68834	14.55638	-4.20595	35.90973	115.60925	0.1808	5.53097	8.10948	28.43423	2.94755	0.37563	1.69979	1761.87036	2.44973	0.0023634	592.70959	16940.915	86.8176	6435.509
577.34	0.74649	0.25351	1.68968	14.54475	-4.28252	35.57126	116.69869	0.17855	5.60053	8.85823	28.52728	3.22608	0.37291	1.71289	2016.75236	2.42341	0.00205828	593.97603	16733.699	 	6556.707
570.0	0.78102	0.21898	1.693	14.51614	-4.47077	34.77671	119.11941	0.17342	5.76649	10.82157	28.7751	3.95958	0.3665	1.75008	2816.1647	2.35143	0.00146128	597.47301	16219.565	72.135	6833.989
565.0	0.79979	0.20021	1.69496	14.49924	-4.58202	34.33896	120.37313	0.17059	5.86194	12.03679	28.93676	4.41571	0.36295	1.77624	3442.07787	2.30306	0.00118847	599.85334	15910.828	61.7474	6982.102
560.0	0.81576	0.18424	1.69675	14.48381	-4.68354	33.96012	121.37936	0.16817	5.94642	13.1652	29.09372	4.8406	0.35987	1.80311	4146.24237	2.25521	9.80743E-4	602.23255	15626.574	56.8508	7106.26
555.0	0.8295	0.1705	1.69841	14.46962	-4.77697	33.63047	122.18505	0.16606	6.02203	14.21314	29.24676	5.23628	0.35718	1.83071	4939.96266	2.20788	8.18224E-4	604.61048	15361.871	52.9406	7211.389
550.0	0.84142	0.15858	1.69995	14.45643	-4.86377	33.34105	122.8266	0.16419	6.09042	15.18718	29.39628	5.60498	0.35479	1.85907	5836.55864	2.16107	6.88349E-4	606.98708	15113.006	49.773	7301.191
545.0	0.85186	0.14814	1.7014	14.444	-4.94555	33.08164	123.33297	0.16252	6.1529	16.09508	29.54256	5.94942	0.35266	1.88822	6851.88126	2.11479	5.82787E-4	609.36252	14877.137	47.1738	7378.499
540.0	0.86107	0.13893	1.70277	14.43226	-5.02278	32.84982	123.72707	0.16102	6.21052	16.94311	29.68604	6.27179	0.35074	1.9182	8004.19479	2.06902	4.95838E-4	611.73666	14652.057	45.016	7445.511
538.5	0.8636	0.1364	1.70316	14.42887	-5.04513	32.78505	123.82656	0.16059	6.22697	17.18429	29.72839	6.36359	0.3502	1.92733	8377.76934	2.05542	4.72856E-4	612.44697	14586.63	 	7463.731
538.5	0.8636	0.1364	1.70316	14.42887	-5.04513	32.78505	123.82656	0.16059	6.22697	17.18429	29.72839	6.36359	0.3502	1.92733	8377.76934	2.05542	4.72856E-4	612.44697	14586.63	 	7463.731
535.0	0.86929	0.13071	1.70408	14.42107	-5.09641	32.63944	124.03461	0.15963	6.26448	17.74011	29.82678	6.57534	0.34899	1.94891	9316.18355	2.02389	4.2339E-4	614.10798	14435.352	43.341	7504.641
530.0	0.87667	0.12333	1.70534	14.41031	-5.16723	32.44543	124.26085	0.15835	6.31497	18.49278	29.96508	6.86251	0.34738	1.98049	10813.8669	1.97929	3.62495E-4	616.47816	14226.092	41.852	7556.81
525.0	0.88329	0.11671	1.70655	14.4	-5.23507	32.26953	124.41689	0.15717	6.36251	19.19926	30.10121	7.13249	0.3459	2.01304	12522.73611	1.93517	3.1108E-4	618.84784	14023.676	40.4832	7602.608
520.0	0.88924	0.11076	1.70771	14.39005	-5.30055	32.1077	124.51601	0.15606	6.40772	19.86667	30.23519	7.38793	0.34453	2.04657	14478.2614	1.89154	2.67378E-4	621.21703	13827.101	39.315	7643.032
515.0	0.89465	0.10535	1.70885	14.38043	-5.36392	31.95841	124.56424	0.15502	6.45087	20.49759	30.36722	7.62976	0.34327	2.08112	16718.89342	1.84841	2.30085E-4	623.58563	13635.557	38.3088	7678.885
510.0	0.89955	0.10045	1.70995	14.37106	-5.42553	31.8194	124.56968	0.15403	6.49234	21.09604	30.49729	7.85945	0.34208	2.11674	19291.30789	1.80578	1.98139E-4	625.95371	13448.379	37.4356	7710.833
505.0	0.90404	0.0959587	1.71102	14.36193	-5.48564	31.68904	124.53704	0.15308	6.53235	21.66569	30.62551	8.07838	0.34097	2.15345	22250.08858	1.76366	1.70694E-4	628.32132	13265.019	36.672	7739.378
500.0	0.90817	0.0918321	1.71207	14.35303	-5.54422	31.5678	124.47266	0.15218	6.57119	22.20923	30.75199	8.28753	0.33992	2.1913	25659.58726	1.72206	1.47062E-4	630.68836	13085.021	35.9996	7765.029
495.0	0.91197	0.0880336	1.7131	14.3443	-5.60163	31.45317	124.37956	0.15131	6.60902	22.72943	30.87674	8.48794	0.33892	2.23033	29595.21667	1.68098	1.26681E-4	633.05505	12908.001	35.404	7788.142
490.0	0.91548	0.0845206	1.71411	14.33574	-5.65798	31.34453	124.26182	0.15047	6.64602	23.22823	30.9998	8.68034	0.33798	2.2706	34145.86463	1.64042	1.09083E-4	635.42147	12733.634	34.8734	7809.048
485.0	0.91874	0.0812616	1.71511	14.32734	-5.71325	31.24211	124.12159	0.14965	6.6823	23.70771	31.12128	8.86549	0.33708	2.31216	39416.96695	1.60039	9.38769E-5	637.78759	12561.645	34.3978	7828.0
480.0	0.92177	0.0782281	1.71609	14.31906	-5.76775	31.14373	123.96127	0.14885	6.71798	24.16977	31.24113	9.04412	0.33621	2.35504	45533.1909	1.56088	8.0731E-5	640.15371	12391.796	33.9698	7845.214
475.0	0.9246	0.0753967	1.71705	14.31092	-5.8213	31.05093	123.78384	0.14808	6.75319	24.61563	31.35954	9.21667	0.33539	2.39932	52642.64392	1.5219	6.93646E-5	642.51968	12223.884	33.5824	7860.946
470.0	0.92726	0.0727449	1.718	14.30288	-5.87421	30.96131	123.59061	0.14732	6.78802	25.04691	31.47635	9.38376	0.33459	2.44505	60921.26295	1.48346	5.9538E-5	644.88588	12057.731	33.2306	7875.341
465.0	0.92974	0.0702555	1.71895	14.29495	-5.9264	30.87577	123.3827	0.14657	6.8225	25.46486	31.59176	9.54585	0.33382	2.49228	70579.15399	1.44555	5.10452E-5	647.25224	11893.185	32.9092	7888.547
460.0	0.93209	0.0679132	1.71988	14.28711	-5.978	30.79322	123.16197	0.14584	6.85674	25.87054	31.70567	9.70334	0.33307	2.5411	81866.71622	1.40818	4.37091E-5	649.61903	11730.11	32.615	7900.7
455.0	0.9343	0.0657027	1.7208	14.27936	-6.02899	30.71401	122.92889	0.14512	6.89076	26.26495	31.8182	9.85661	0.33235	2.59155	95083.86497	1.37135	3.73767E-5	651.98624	11568.388	32.3444	7911.898
450.0	0.93639	0.0636128	1.72171	14.2717	-6.07943	30.63768	122.68542	0.14441	6.92466	26.64891	31.92933	10.00597	0.33165	2.64373	110590.1123	1.33505	3.19153E-5	654.35407	11407.917	32.0942	7922.236
445.0	0.93837	0.0616312	1.72262	14.2641	-6.12943	30.56341	122.43162	0.14371	6.95845	27.02353	32.03907	10.15183	0.33097	2.6977	128818.2702	1.2993	2.72097E-5	656.72277	11248.602	31.863	7931.825
442.69	0.93925	0.0607536	1.72303	14.26062	-6.15232	30.53036	122.31227	0.14339	6.97411	27.19299	32.08933	10.21786	0.33066	2.72327	138300.4012	1.28296	2.52626E-5	657.81786	11175.352	 	7936.004
435.0	0.94206	0.0579419	1.72441	14.24912	-6.22803	30.42193	121.89402	0.14233	7.02572	27.74829	32.25458	10.43443	0.32965	2.81133	175638.224	1.22942	1.96785E-5	661.46276	10933.061	31.5541	7949.018
432.48	0.94293	0.0570733	1.72485	14.24538	-6.25262	30.38773	121.75511	0.14199	7.0428	27.92532	32.30808	10.50354	0.32933	2.84126	190122.4959	1.21214	1.81146E-5	662.65913	10854.112	 	7952.98
430.0	0.97698	0.0230203	1.72734	14.22377	-6.39486	29.27846	122.38857	0.14076	7.10439	32.05108	32.41322	12.10558	0.32381	2.89594	235027.1332	1.18507	1.46021E-5	663.26009	10562.856	74.041	8170.661
425.0	0.99499	0.00500988	1.72908	14.20763	-6.50108	28.66513	122.52597	0.1396	7.1633	34.52793	32.54607	13.07246	0.32064	3.00922	293710.338	1.13235	1.16016E-5	664.97942	10301.886	52.194	8283.437
420.0	1.0	0.0	1.72998	14.19849	-6.56121	28.4666	122.36714	0.13878	7.20562	35.36758	32.65676	13.4019	0.3195	 	349528.6964	 	9.67901E-6	 	10124.11	35.5552	8313.383
415.0	1.0	0.0	1.73079	14.19188	-6.60469	28.42044	122.08455	0.1381	7.24122	35.54577	32.75745	13.47302	0.31915	 	408932.8026	 	8.2133E-6	 	9933.87	38.048	 
410.0	1.0	0.0	1.73159	14.1853	-6.64804	28.37429	121.80191	0.13741	7.27733	35.72303	32.85692	13.54382	0.31879	 	479533.47	 	6.95319E-6	 	9788.359	29.1022	 
405.0	1.0	0.0	1.73239	14.17873	-6.69127	28.32814	121.51923	0.13672	7.31397	35.89937	32.95516	13.6143	0.31844	 	563645.2317	 	5.87228E-6	 	9643.129	29.046	 
400.0	1.0	0.0	1.7332	14.17218	-6.73437	28.28199	121.2365	0.13603	7.35115	36.07478	33.05219	13.68447	0.31809	 	664102.9562	 	4.94724E-6	 	9498.18	28.9898	 
395.0	1.0	0.0	1.73399	14.16565	-6.77735	28.23584	120.95372	0.13534	7.38889	36.24926	33.148	13.75432	0.31774	 	784388.2173	 	4.15747E-6	 	9353.511	28.9338	 
390.0	1.0	0.0	1.73479	14.15914	-6.8202	28.18969	120.6709	0.13464	7.42719	36.42281	33.24262	13.82386	0.31739	 	928788.6391	 	3.48483E-6	 	9209.119	28.8784	 
385.0	1.0	0.0	1.73559	14.15264	-6.86293	28.14354	120.38804	0.13394	7.46608	36.59543	33.33604	13.89308	0.31704	 	1102599.42	 	2.91336E-6	 	9065.005	28.8228	 
380.0	1.0	0.0	1.73638	14.14617	-6.90553	28.09739	120.10512	0.13323	7.50555	36.76713	33.42827	13.96199	0.31669	 	1312378.976	 	2.42907E-6	 	8921.167	28.7676	 
375.0	1.0	0.0	1.73717	14.13972	-6.948	28.05125	119.82216	0.13253	7.54563	36.9379	33.51933	14.03058	0.31634	 	1566274.243	 	2.01974E-6	 	8777.603	28.7128	 
370.0	1.0	0.0	1.73797	14.13328	-6.99035	28.00511	119.53915	0.13182	7.58633	37.10775	33.60921	14.09886	0.31598	 	1874435.943	 	1.67467E-6	 	8634.313	28.658	 
365.0	1.0	0.0	1.73875	14.12686	-7.03258	27.95896	119.25609	0.1311	7.62767	37.27666	33.69793	14.16681	0.31563	 	2249550.399	 	1.38457E-6	 	8491.295	28.6036	 
360.0	1.0	0.0	1.73954	14.12047	-7.07468	27.91282	118.97299	0.13038	7.66965	37.44466	33.78549	14.23446	0.31528	 	2707522.89	 	1.14136E-6	 	8348.549	28.5492	 
355.0	1.0	0.0	1.74033	14.11409	-7.11665	27.86669	118.68983	0.12966	7.7123	37.61172	33.8719	14.30178	0.31493	 	3268358.684	 	9.38038E-7	 	8206.072	28.4954	 
350.0	1.0	0.0	1.74111	14.10773	-7.1585	27.82055	118.40663	0.12894	7.75563	37.77787	33.95716	14.36879	0.31458	 	3957302.883	 	7.68564E-7	 	8063.865	28.4414	 
345.0	1.0	0.0	1.7419	14.10139	-7.20022	27.77441	118.12338	0.12821	7.79966	37.94309	34.04129	14.43548	0.31423	 	4806320.338	 	6.27723E-7	 	7921.926	28.3878	 
340.0	1.0	0.0	1.74268	14.09507	-7.24182	27.72828	117.84008	0.12748	7.84441	38.10738	34.12429	14.50185	0.31388	 	5856024.049	 	5.11035E-7	 	7780.254	28.3344	 
335.0	1.0	0.0	1.74346	14.08877	-7.2833	27.68215	117.55673	0.12674	7.88989	38.27075	34.20616	14.56791	0.31353	 	7158197.295	 	4.14662E-7	 	7638.848	28.2812	 
330.0	1.0	0.0	1.74423	14.08248	-7.32464	27.63601	117.27333	0.12601	7.93611	38.43319	34.28692	14.63365	0.31318	 	8779104.805	 	3.35322E-7	 	7497.707	28.2282	 
325.0	1.0	0.0	1.74501	14.07622	-7.36587	27.58988	116.98987	0.12526	7.98311	38.59472	34.36656	14.69907	0.31283	 	1.080385671E7	 	2.7022E-7	 	7356.831	28.1752	 
320.0	1.0	0.0	1.74579	14.06997	-7.40696	27.54376	116.70637	0.12452	8.0309	38.75531	34.44511	14.76418	0.31248	 	1.334218283E7	 	2.16982E-7	 	7216.218	28.1226	 
315.0	1.0	0.0	1.74656	14.06375	-7.44794	27.49763	116.42282	0.12377	8.07949	38.91499	34.52255	14.82896	0.31213	 	1.653610431E7	 	1.73597E-7	 	7075.868	28.07	 
310.0	1.0	0.0	1.74733	14.05754	-7.48878	27.4515	116.13921	0.12302	8.12891	39.07374	34.5989	14.89343	0.31178	 	2.057016823E7	 	1.38366E-7	 	6935.78	28.0176	 
305.0	1.0	0.0	1.7481	14.05135	-7.52951	27.40538	115.85556	0.12226	8.17919	39.23157	34.67417	14.95758	0.31143	 	2.568516009E7	 	1.09861E-7	 	6795.952	27.9656	 
300.0	1.0	0.0	1.74887	14.04518	-7.5701	27.35925	115.57185	0.1215	8.23034	39.38848	34.74836	15.02142	0.31108	 	3.219655601E7	 	8.68852E-8	 	6656.386	27.9132	 
295.0	1.0	0.0	1.74963	14.03903	-7.61057	27.31313	115.28809	0.12074	8.28238	39.54447	34.82148	15.08493	0.31073	 	4.051946431E7	 	6.84362E-8	 	6517.079	27.8614	 
290.0	1.0	0.0	1.7504	14.0329	-7.65092	27.26701	115.00428	0.11997	8.33535	39.69953	34.89353	15.14812	0.31038	 	5.120249332E7	 	5.36809E-8	 	6378.031	27.8096	 
285.0	1.0	0.0	1.75116	14.02679	-7.69114	27.22089	114.72042	0.1192	8.38926	39.85367	34.96453	15.211	0.31003	 	6.497395666E7	 	4.19274E-8	 	6239.241	27.758	 
280.0	1.0	0.0	1.75192	14.0207	-7.73124	27.17478	114.4365	0.11843	8.44414	40.00689	35.03447	15.27356	0.30968	 	8.280521417E7	 	3.26041E-8	 	6100.71	27.7062	 
275.0	1.0	0.0	1.75268	14.01463	-7.77121	27.12866	114.15253	0.11765	8.50002	40.15919	35.10336	15.33579	0.30933	 	1.059979332E8	 	2.524E-8	 	5962.436	27.6548	 
270.0	1.0	0.0	1.75344	14.00857	-7.81106	27.08255	113.86851	0.11686	8.55693	40.31057	35.17121	15.39771	0.30898	 	1.36304914E8	 	1.94489E-8	 	5824.42	27.6032	 
265.0	1.0	0.0	1.75419	14.00253	-7.85078	27.03643	113.58444	0.11608	8.61488	40.46103	35.23803	15.45931	0.30863	 	1.760982601E8	 	1.49154E-8	 	5686.66	27.552	 
260.0	1.0	0.0	1.75495	13.99652	-7.89037	26.99032	113.30031	0.11529	8.67392	40.61057	35.30382	15.52059	0.30828	 	2.286046979E8	 	1.13828E-8	 	5549.156	27.5008	 
255.0	1.0	0.0	1.7557	13.99052	-7.92984	26.94421	113.01613	0.11449	8.73408	40.75919	35.36858	15.58155	0.30793	 	2.982366624E8	 	8.64337E-9	 	5411.908	27.4496	 
250.0	1.0	0.0	1.75645	13.98454	-7.96919	26.8981	112.73189	0.1137	8.79538	40.90689	35.43233	15.64219	0.30758	 	3.910607499E8	 	6.52933E-9	 	5274.916	27.3984	 
245.0	1.0	0.0	1.7572	13.97858	-8.00841	26.852	112.44761	0.11289	8.85786	41.05367	35.49506	15.70251	0.30723	 	5.154643633E8	 	4.90618E-9	 	5138.18	27.3472	 
240.0	1.0	0.0	1.75795	13.97264	-8.0475	26.80589	112.16327	0.11209	8.92155	41.19953	35.55679	15.7625	0.30688	 	6.831100453E8	 	3.6664E-9	 	5001.7	27.296	 
235.0	1.0	0.0	1.75869	13.96672	-8.08647	26.75979	111.87887	0.11128	8.98649	41.34447	35.61752	15.82218	0.30653	 	9.103099939E8	 	2.72452E-9	 	4865.475	27.245	 
230.0	1.0	0.0	1.75944	13.96082	-8.12532	26.71368	111.59442	0.11046	9.05272	41.48849	35.67725	15.88154	0.30619	 	1.220018198E9	 	2.01288E-9	 	4729.505	27.194	 
225.0	1.0	0.0	1.76018	13.95493	-8.16404	26.66758	111.30992	0.10965	9.12027	41.63159	35.73599	15.94057	0.30584	 	1.644736357E9	 	1.47826E-9	 	4593.792	27.1426	 
220.0	1.0	0.0	1.76092	13.94907	-8.20263	26.62148	111.02537	0.10882	9.18919	41.77377	35.79376	15.99929	0.30549	 	2.230780894E9	 	1.07897E-9	 	4458.334	27.0916	 
215.0	1.0	0.0	1.76166	13.94322	-8.2411	26.57538	110.74076	0.108	9.25951	41.91503	35.85054	16.05768	0.30514	 	3.044591384E9	 	7.82548E-10	 	4323.132	27.0404	 
210.0	1.0	0.0	1.76239	13.9374	-8.27945	26.52928	110.4561	0.10717	9.33129	42.05538	35.90635	16.11575	0.30479	 	4.18212267E9	 	5.63861E-10	 	4188.187	26.989	 
205.0	1.0	0.0	1.76313	13.93159	-8.31767	26.48319	110.17139	0.10633	9.40456	42.19481	35.96119	16.1735	0.30444	 	5.782929244E9	 	4.03555E-10	 	4053.499	26.9376	 
200.0	1.0	0.0	1.76386	13.9258	-8.35576	26.43709	109.88662	0.10549	9.47938	42.33332	36.01507	16.23092	0.30409	 	8.051443637E9	 	2.86822E-10	 	3919.068	26.8862	 
195.0	1.0	0.0	1.76459	13.92003	-8.39373	26.391	109.60181	0.10465	9.55579	42.47091	36.068	16.28803	0.30375	 	1.12894E10	 	2.02396E-10	 	3784.895	26.8346	 
190.0	1.0	0.0	1.76532	13.91428	-8.43158	26.34491	109.31694	0.1038	9.63385	42.60758	36.11997	16.34481	0.3034	 	1.5945399999999998E10	 	1.41766E-10	 	3650.981	26.7828	 
185.0	1.0	0.0	1.76605	13.90855	-8.46929	26.29882	109.03202	0.10295	9.7136	42.74334	36.171	16.40127	0.30305	 	2.26921E10	 	9.85418E-11	 	3517.327	26.7308	 
180.0	1.0	0.0	1.76677	13.90284	-8.50689	26.25273	108.74704	0.10209	9.79511	42.87818	36.22108	16.45741	0.3027	 	3.2545799999999996E10	 	6.7957E-11	 	3383.933	26.6788	 
175.0	1.0	0.0	1.7675	13.89714	-8.54436	26.20664	108.46202	0.10123	9.87844	43.0121	36.27023	16.51322	0.30235	 	4.705539999999999E10	 	4.64837E-11	 	3250.801	26.6264	 
170.0	1.0	0.0	1.76822	13.89147	-8.5817	26.16056	108.17695	0.10036	9.96364	43.1451	36.31845	16.56871	0.30201	 	6.860219999999999E10	 	3.15282E-11	 	3117.932	26.5738	 
165.0	1.0	0.0	1.76894	13.88581	-8.61892	26.11447	107.89183	0.0994948	10.05078	43.27719	36.36575	16.62387	0.30166	 	1.0088E11	 	2.11986E-11	 	2985.326	26.5212	 
160.0	1.0	0.0	1.76966	13.88017	-8.65602	26.06839	107.60666	0.0986201	10.13992	43.40836	36.41212	16.67872	0.30131	 	1.4967E11	 	1.41251E-11	 	2852.986	26.468	 
155.0	1.0	0.0	1.77037	13.87456	-8.69299	26.02231	107.32144	0.0977407	10.23115	43.53862	36.45758	16.73324	0.30096	 	2.24113E11	 	9.32428E-12	 	2720.913	26.4146	 
150.0	1.0	0.0	1.77109	13.86896	-8.72983	25.97623	107.03617	0.0968567	10.32453	43.66795	36.50213	16.78743	0.30061	 	3.388E11	 	6.09589E-12	 	2589.108	26.361	 
145.0	1.0	0.0	1.7718	13.86338	-8.76655	25.93015	106.75086	0.0959681	10.42013	43.79638	36.54578	16.8413	0.30027	 	5.17264E11	 	3.94554E-12	 	2457.574	26.3068	 
140.0	1.0	0.0	1.77251	13.85782	-8.80314	25.88407	106.4655	0.0950747	10.51805	43.92388	36.58852	16.89485	0.29992	 	7.97865E11	 	2.52735E-12	 	2326.313	26.2522	 
135.0	1.0	0.0	1.77322	13.85228	-8.83961	25.83799	106.1801	0.0941765	10.61836	44.05047	36.63037	16.94807	0.29957	 	1.24382E12	 	1.60158E-12	 	2195.326	26.1974	 
130.0	1.0	0.0	1.77393	13.84675	-8.87596	25.79192	105.89466	0.0932736	10.72115	44.17614	36.67133	17.00096	0.29922	 	1.96051E12	 	1.00366E-12	 	2064.616	26.142	 
125.0	1.0	0.0	1.77463	13.84125	-8.91218	25.74585	105.60918	0.0923658	10.82652	44.3009	36.7114	17.05353	0.29888	 	3.12567E12	 	6.21714E-13	 	1934.186	26.086	 
120.0	1.0	0.0	1.77534	13.83577	-8.94827	25.69977	105.32366	0.0914531	10.93457	44.42475	36.75059	17.10578	0.29853	 	5.04278E12	 	3.80518E-13	 	1804.038	26.0296	 
115.0	1.0	0.0	1.77604	13.8303	-8.98424	25.6537	105.0381	0.0905355	11.04539	44.54767	36.7889	17.1577	0.29818	 	8.23662E12	 	2.30005E-13	 	1674.175	25.9726	 
110.0	1.0	0.0	1.77674	13.82485	-9.02008	25.60764	104.7525	0.0896129	11.15911	44.66968	36.82634	17.20929	0.29784	 	1.36266E13	 	1.37236E-13	 	1544.601	25.9148	 
105.0	1.0	0.0	1.77744	13.81943	-9.0558	25.56157	104.46687	0.0886853	11.27583	44.79078	36.86292	17.26056	0.29749	 	2.2846E13	 	8.07868E-14	 	1415.319	25.8564	 
100.0	1.0	0.0	1.77813	13.81402	-9.0914	25.5155	104.18121	0.0877526	11.39567	44.91096	36.89863	17.3115	0.29714	 	3.88371E13	 	4.68947E-14	 	1286.333	25.7972	 
95.0	1.0	0.0	1.77883	13.80863	-9.12687	25.46944	103.89552	0.0868149	11.51876	45.03023	36.93348	17.36211	0.2968	 	6.69795E13	 	2.68268E-14	 	1157.647	25.7372	 
90.0	1.0	0.0	1.77952	13.80326	-9.16221	25.42338	103.6098	0.0858719	11.64525	45.14858	36.96748	17.4124	0.29645	 	1.17261E14	 	1.51153E-14	 	1029.265	25.6764	 
85.0	1.0	0.0	1.78021	13.7979	-9.19743	25.37731	103.32406	0.0849238	11.77526	45.26602	37.00063	17.46236	0.2961	 	2.08525E14	 	8.38287E-15	 	901.192	25.6146	 
80.0	1.0	0.0	1.7809	13.79257	-9.23252	25.33125	103.03829	0.0839705	11.90895	45.38254	37.03294	17.51199	0.29576	 	3.76914E14	 	4.57302E-15	 	773.433	25.5518	 
75.0	1.0	0.0	1.78158	13.78726	-9.26749	25.28519	102.75251	0.0830118	12.04647	45.49815	37.0644	17.5613	0.29541	 	6.92963E14	 	2.45213E-15	 	645.993	25.488	 
70.0	1.0	0.0	1.78227	13.78196	-9.30234	25.23914	102.46672	0.0820479	12.18801	45.61284	37.09503	17.61028	0.29506	 	1.29683E15	 	1.29148E-15	 	518.879	25.4228	 
65.0	1.0	0.0	1.78295	13.77669	-9.33706	25.19308	102.18092	0.0810785	12.33373	45.72662	37.12483	17.65893	0.29472	 	2.47234E15	 	6.67557E-16	 	392.097	25.3564	 
60.0	1.0	0.0	1.78363	13.77143	-9.37165	25.14703	101.89511	0.0801037	12.48382	45.83948	37.1538	17.70725	0.29437	 	4.80555E15	 	3.38364E-16	 	265.653	25.2888	 
55.0	1.0	0.0	1.78431	13.76619	-9.40612	25.10098	101.6093	0.0791234	12.63848	45.95144	37.18195	17.75524	0.29402	 	9.53177E15	 	1.6803E-16	 	139.556	25.2194	 
50.0	1.0	0.0	1.78499	13.76097	-9.44047	25.05492	101.32349	0.0781376	12.79794	46.06247	37.20928	17.80291	0.29368	 	1.93112E16	 	8.16738E-17	 	13.812	25.1488	 
45.0	1.0	0.0	1.78566	13.75577	-9.47469	25.00888	101.0377	0.0771462	12.9624	46.1726	37.23579	17.85024	0.29333	 	4.0002E16	 	3.88184E-17	 	-111.568	25.076	 
40.0	1.0	0.0	1.78633	13.75059	-9.50879	24.96282	100.75192	0.0761492	13.13212	46.28181	37.2615	17.89725	0.29299	 	8.48113E16	 	1.80213E-17	 	-236.576	25.0016	 
35.0	1.0	0.0	1.78701	13.74543	-9.54276	24.91678	100.46616	0.0751464	13.30735	46.3901	37.2864	17.94393	0.29264	 	1.84254E17	 	8.16265E-18	 	-361.201	24.925	 
30.0	1.0	0.0	1.78767	13.74029	-9.5766	24.87076	100.18043	0.074138	13.48836	46.49749	37.31049	17.99028	0.29229	 	4.10674E17	 	3.60286E-18	 	-485.433	24.8464	 
25.0	1.0	0.0	1.78834	13.73516	-9.61032	 	99.89474	0.0731237	13.67545	46.60395	37.33379	18.0363	0.29195	 	9.40266E17	 	1.54764E-18	 	-609.259	 	 
