T (C)	Fraction solid (wt)-TOTAL	Fraction liquid (wt)-LIQUID	Density (g/(cm)^3)-TOTAL	Molar volume (cm^3)-TOTAL	Volume change (%)-  	Average expansion coeff. (10e-6 1/K)-  	Thermal conductivity (W/(m*K))-TOTAL	Electrical resistivity (10e-6 Ohm*m)-TOTAL	Electrical conductivity (10e6 1/(Ohm*m))-TOTAL	Young's modulus (GPa)-TOTAL	Bulk modulus (GPa)-TOTAL	Shear modulus(GPa)-TOTAL	Poisson's ratio-TOTAL	Liquid viscosity (mPa s)-  	Total viscosity (mPa s)-  	Liquid diffusivity (10e-9 (m^2)/s)-  	Total diffusivity (10e-9 (m^2)/s)-  	Surface Tension (mN/m)-  	Enthalpy (J/mole)-TOTAL	Specific heat (J/(mole K))-TOTAL	Latent heat (J/mole)-TOTAL
1400.0	0.0	1.0	7.63114	7.94738	0.0	34.28214	32.61583	1.25682	0.79566	0.0	125.06413	0.0	0.5	7.15343	7.15343	1.14158	1.14158	1846.64854	40489.778	 	0.0
1395.0	0.0	1.0	7.63559	7.94275	-0.0582106	34.24559	32.52891	1.25641	0.79592	0.0	125.19863	0.0	0.5	7.2317	7.2317	1.12585	1.12585	1849.96168	40290.535	39.8486	0.0
1390.0	0.0	1.0	7.64002	7.93814	-0.11626	34.20924	32.44198	1.256	0.79618	0.0	125.33313	0.0	0.5	7.31131	7.31131	1.11026	1.11026	1853.28419	40091.733	39.7604	0.0
1385.0	0.0	1.0	7.64445	7.93354	-0.17414	34.17308	32.35506	1.25559	0.79644	0.0	125.46763	0.0	0.5	7.39228	7.39228	1.09479	1.09479	1856.61599	39893.371	39.6724	0.0
1380.47	0.0	1.0	7.64846	7.92939	-0.22639	34.14051	32.27637	1.25522	0.79668	0.0	125.58938	0.0	0.5	7.46678	7.46678	1.08091	1.08091	1859.63995	39714.196	39.58759	0.0
1380.0	0.01403	0.98597	7.65375	7.92392	-0.29516	33.95937	32.31148	1.25349	0.79777	3.6112E-6	126.00707	1.20504E-6	0.49837	7.47372	7.61413	1.0796	1.05969	1859.77292	39480.566	492.93189	214.874
1375.0	0.15513	0.84487	7.70764	7.86851	-0.99246	32.11995	32.66794	1.23606	0.80902	0.0558667	130.17992	0.0188514	0.48177	7.55117	15.45321	1.06529	0.52055	1861.15712	37132.528	469.6076	2365.419
1370.0	0.27146	0.72854	7.75293	7.82251	-1.57118	30.60226	32.95875	1.22144	0.81871	0.53826	133.65719	0.18335	0.46783	7.63288	71.96446	1.05069	0.11144	1862.4968	35176.028	391.3	4124.854
1365.0	0.36819	0.63181	7.79139	7.78389	-2.05712	29.33672	33.19653	1.209	0.82713	1.86435	136.58193	0.64021	0.45605	7.71898	229.81299	1.03581	0.0347909	1863.79492	33529.662	329.2732	5574.583
1360.0	0.4493	0.5507	7.82423	7.75123	-2.46816	28.27513	33.39047	1.19831	0.83451	4.21675	139.06475	1.45805	0.44603	7.8092	520.93103	1.02072	0.0153014	1865.05269	32130.791	279.7742	6777.24
1355.0	0.51782	0.48218	7.85254	7.72323	-2.82044	27.37367	33.54754	1.18905	0.84101	7.56815	141.19115	2.63251	0.43744	7.90363	956.68349	1.00544	0.0083064	1866.2739	30930.866	239.985	7781.374
1350.0	0.57611	0.42389	7.87701	7.69915	-3.12341	26.60699	33.67327	1.18097	0.84676	11.77041	143.02913	4.1154	0.43005	8.00192	1535.4012	0.99004	0.00515969	1867.45827	29891.995	207.7742	8624.869
1345.0	0.626	0.374	7.89838	7.67825	-3.38644	25.94963	33.77225	1.17388	0.85187	16.62599	144.63163	5.83925	0.42364	8.10436	2248.64911	0.97451	0.00351224	1868.6079	28984.395	181.52	9337.51
1340.0	0.66896	0.33104	7.91715	7.6599	-3.6173	25.38033	33.848	1.16764	0.85643	21.93538	146.03886	7.73431	0.41806	8.21083	3085.78851	0.9589	0.0025515	1869.72564	28184.494	159.9802	9942.863
1335.0	0.70615	0.29385	7.9337	7.64376	-3.82034	24.88752	33.90399	1.1621	0.86051	27.52064	147.2857	9.7372	0.41317	8.32111	4036.76105	0.94326	0.00194438	1870.8104	27473.512	142.1964	10459.708
1330.0	0.73848	0.26152	7.94842	7.62942	-4.00086	24.45655	33.94278	1.15716	0.86419	33.23162	148.39792	11.79372	0.40887	8.4355	5092.6043	0.92758	0.00153646	1871.86497	26836.389	127.4246	10903.101
1325.0	0.76674	0.23326	7.96154	7.61662	-4.16187	24.07941	33.96672	1.15274	0.8675	38.94919	149.39734	13.86025	0.40507	8.55373	6246.60804	0.9119	0.00124871	1872.88876	26260.971	115.0836	11285.194
1320.0	0.79154	0.20846	7.97334	7.6051	-4.30688	23.74633	33.97781	1.14875	0.87051	44.58771	150.30187	15.90498	0.40169	8.67595	7494.71256	0.89624	0.0010375	1873.88475	25737.391	104.716	11615.849
1315.0	0.81339	0.18661	7.98398	7.59468	-4.438	23.45165	33.97771	1.14515	0.87325	50.07924	151.12569	17.90236	0.39868	8.8022	8834.20666	0.88062	8.77426E-4	1874.85128	25257.593	95.9596	11903.121
1310.0	0.83269	0.16731	7.99363	7.58519	-4.55733	23.18957	33.96785	1.14188	0.87575	55.3787	151.88045	19.83508	0.39598	8.93242	10264.56235	0.86505	7.5278E-4	1875.79022	24814.96	88.5266	12153.624
1305.0	0.84983	0.15017	8.00243	7.57653	-4.66636	22.95608	33.94957	1.13889	0.87805	60.45989	152.57655	21.69273	0.39355	9.06664	11787.75954	0.84955	6.53437E-4	1876.70089	24404.029	82.1862	12372.82
1300.0	0.86509	0.13491	8.01048	7.56856	-4.76657	22.74707	33.92387	1.13614	0.88018	65.304	153.22188	23.46767	0.39136	9.20489	13406.34399	0.83414	5.72725E-4	1877.58432	24020.266	76.7526	12565.237
1296.79	0.87388	0.12612	8.01526	7.56381	-4.82638	22.62553	33.90341	1.1345	0.88144	68.24368	153.60971	24.54665	0.39008	9.29564	14489.8181	0.82431	5.28819E-4	1878.13143	23788.136	 	12674.798
1295.0	0.87941	0.12059	8.01856	7.56051	-4.86792	22.533	33.85297	1.1349	0.88114	70.19835	153.85454	25.26574	0.3892	9.35791	15183.44743	0.81789	5.04085E-4	1878.64971	23637.187	76.6158	12757.359
1290.0	0.89359	0.10641	8.02714	7.55191	-4.9761	22.29669	33.71789	1.13581	0.88043	75.42067	154.50067	27.18991	0.38692	9.53467	17192.9142	0.80017	4.43749E-4	1880.11455	23236.799	80.0776	12967.176
1285.0	0.90572	0.0942754	8.03473	7.54423	-5.07268	22.09352	33.59192	1.13642	0.87995	80.16364	155.0885	28.94119	0.38494	9.71554	19285.47027	0.78276	3.94335E-4	1881.58003	22869.356	73.4886	13144.432
1280.0	0.9162	0.0838025	8.04152	7.53732	-5.15965	21.91789	33.47342	1.13679	0.87967	84.47674	155.62912	30.53676	0.3832	9.9005	21473.17217	0.76567	3.53024E-4	1883.04478	22528.648	68.1416	13295.332
1275.0	0.9253	0.0746985	8.04765	7.53102	-5.23902	21.76397	33.36102	1.13695	0.87955	88.40706	156.13039	31.99327	0.38165	10.08972	23768.38637	0.74889	3.17907E-4	1884.51235	22209.867	63.7562	13424.685
1270.0	0.93327	0.0667323	8.05324	7.52523	-5.31184	21.62883	33.25368	1.13693	0.87956	91.99642	156.59913	33.32551	0.38027	10.28315	26184.763	0.73243	2.87638E-4	1885.98038	21909.238	60.1258	13536.261
1265.0	0.94028	0.0597201	8.05838	7.51986	-5.37938	21.50884	33.15055	1.13677	0.87968	95.28482	157.04037	34.54785	0.37903	10.48112	28736.76083	0.71627	2.61245E-4	1887.45131	21623.773	57.093	13633.049
1260.0	0.94649	0.0535141	8.06315	7.51484	-5.4425	21.40146	33.05092	1.13649	0.8799	98.30669	157.45823	35.67266	0.3779	10.68365	31439.67305	0.70041	2.38009E-4	1888.92597	21351.074	54.5398	13717.44
1255.0	0.95201	0.0479922	8.06759	7.51014	-5.50175	21.30518	32.9542	1.13611	0.88019	101.09215	157.85584	36.7108	0.37687	10.89077	34309.32173	0.68485	2.1739E-4	1890.40324	21089.206	52.3736	13791.37
1250.0	0.95694	0.0430551	8.07175	7.50568	-5.55781	21.21801	32.85994	1.13564	0.88056	103.66831	158.23631	37.67211	0.37593	11.10269	37363.57357	0.66958	1.98967E-4	1891.884	20836.591	50.523	13856.412
1245.0	0.96138	0.0386216	8.07569	7.50144	-5.6111	21.13877	32.76771	1.1351	0.88098	106.05898	158.60151	38.56524	0.37506	11.31951	40620.41827	0.6546	1.82414E-4	1893.36854	20591.932	48.9318	13913.864
1240.0	0.96538	0.0346226	8.07882	7.49695	-5.66762	21.0488	32.60791	1.13691	0.87958	108.37752	158.88949	39.43603	0.37409	11.54135	44099.85314	0.6399	1.67468E-4	1897.12251	20314.92576	55.40125	13964.794
1235.0	0.969	0.0310019	8.08729	7.4906	-5.74754	20.88447	32.23673	1.1462	0.87245	111.07403	159.16473	40.46176	0.37258	11.76836	48489.18387	0.62548	1.51805E-4	1900.86179	19948.14633	73.35589	14010.095
1230.0	0.97229	0.0277114	8.09517	7.48441	-5.82548	20.72503	31.8819	1.15511	0.86572	113.61284	159.41911	41.4297	0.37115	12.00059	53257.52666	0.61135	1.37755E-4	1904.58732	19590.79165	71.47094	14050.516
1225.0	0.97529	0.0247107	8.10252	7.47836	-5.90151	20.57033	31.54194	1.16368	0.85934	116.00735	159.65572	42.34459	0.3698	12.23846	58440.83453	0.59747	1.2512E-4	1908.29834	19242.07444	69.74344	14086.686
1220.0	0.97804	0.0219635	8.10938	7.47246	-5.97577	20.41996	31.21587	1.17191	0.85331	118.27128	159.87703	43.21136	0.36852	12.48158	64079.7172	0.58388	1.13729E-4	1911.99499	18901.31339	68.15221	14119.14
1215.0	0.98056	0.0194407	8.11578	7.46669	-6.04837	20.27364	30.9028	1.17982	0.84759	120.41544	160.08495	44.03388	0.3673	12.73056	70217.64516	0.57054	1.0344E-4	1915.678	18567.90754	66.68117	14148.335
1210.0	0.98288	0.0171168	8.12176	7.46105	-6.11939	20.13116	30.60198	1.18741	0.84217	122.45036	160.28122	44.81593	0.36615	12.98552	76903.05052	0.55746	9.413E-5	1919.34659	18241.32625	65.31626	14174.66
1205.0	0.98503	0.0149692	8.12735	7.45552	-6.18892	19.99228	30.31269	1.1947	0.83703	124.38412	160.46714	45.56043	0.36505	13.24633	84188.18415	0.54464	8.56947E-5	1923.00123	17921.09742	64.04577	14198.452
1200.0	0.98702	0.0129795	8.13259	7.45011	-6.25702	19.85682	30.03429	1.2017	0.83216	126.22648	160.6441	46.27092	0.36399	13.51332	92132.21982	0.53207	7.80409E-5	1926.6399	17606.80245	62.85899	14220.001
1195.0	0.98887	0.0111295	8.1375	7.4448	-6.32382	19.72448	29.76615	1.20841	0.82753	127.98353	160.81305	46.94959	0.36299	13.78663	100798.2122	0.51976	7.10893E-5	1930.26526	17298.06162	61.74817	14239.56
1190.0	0.99059	0.00940528	8.1421	7.4396	-6.38934	19.59515	29.5077	1.21484	0.82315	129.66267	160.97486	47.59916	0.36203	14.06631	110256.7417	0.50769	6.47695E-5	1933.87577	16994.53021	60.70628	14257.349
1185.0	0.99221	0.00779269	8.14642	7.43448	-6.45369	19.46852	29.25839	1.22101	0.819	131.27069	161.1305	48.2221	0.36111	14.35265	120586.337	0.49586	5.90189E-5	1937.47238	16695.90216	59.72561	14273.559
1180.0	0.99372	0.00628098	8.15048	7.42946	-6.51692	19.34452	29.01771	1.22691	0.81505	132.8122	161.28055	48.8201	0.36022	14.64579	131871.5204	0.48427	5.37831E-5	1941.05489	16401.89202	58.80203	14288.362
1175.0	0.99514	0.00485936	8.1543	7.42451	-6.5791	19.2229	28.78519	1.23257	0.81131	134.29327	161.42577	49.39539	0.35937	14.94575	144208.0218	0.47291	4.90129E-5	1944.62189	16112.24361	57.92968	14301.905
1170.0	0.99688	0.0031215	8.15767	7.41942	-6.64315	19.09404	28.56621	1.23773	0.80793	135.95183	161.58367	50.03767	0.35849	15.31241	157946.6962	0.46	4.45952E-5	1948.19354	15822.13474	58.02177	14318.904
1160.0	1.0	0.0	8.16384	7.40965	-6.76612	18.85003	28.14551	1.24752	0.80159	139.04416	161.88496	51.2379	0.35685	 	189397.9965	 	3.6932E-5	 	15251.51363	57.06211	14351.897
1155.0	1.0	0.0	8.16821	7.40568	-6.81604	18.76538	27.93678	1.25246	0.79843	139.7084	161.99162	51.50503	0.35626	 	206840.9511	 	3.36995E-5	 	15054.18392	39.46594	 
1150.0	1.0	0.0	8.17253	7.40177	-6.8653	18.68219	27.73411	1.25719	0.79542	140.35754	162.09753	51.76624	0.35569	 	226036.0053	 	3.07298E-5	 	14809.75102	48.88658	 
1145.0	1.0	0.0	8.1768	7.3979	-6.91392	18.6004	27.53721	1.26174	0.79256	140.99229	162.20282	52.02178	0.35513	 	247173.2468	 	2.80032E-5	 	14567.62469	48.42527	 
1140.0	1.0	0.0	8.18102	7.39409	-6.96194	18.51997	27.34581	1.26609	0.78984	141.61332	162.30762	52.27191	0.35458	 	270464.8976	 	2.55014E-5	 	14327.72796	47.97935	 
1135.0	1.0	0.0	8.1852	7.39032	-7.00936	18.44084	27.15964	1.27026	0.78724	142.22125	162.41201	52.51687	0.35405	 	296148.0558	 	2.32074E-5	 	14089.987	47.54819	 
1130.0	1.0	0.0	8.18932	7.3866	-7.05621	18.36297	26.97847	1.27424	0.78478	142.81668	162.51611	52.75689	0.35354	 	324487.7962	 	2.11053E-5	 	13854.33093	47.13121	 
1125.0	1.0	0.0	8.1934	7.38292	-7.10251	18.28631	26.80206	1.27806	0.78244	143.40017	162.61998	52.99218	0.35303	 	355780.691	 	1.91804E-5	 	13620.69182	46.72782	 
1120.0	1.0	0.0	8.19744	7.37928	-7.14826	18.21082	26.63018	1.28171	0.78021	143.97225	162.7237	53.22295	0.35254	 	390358.8083	 	1.74189E-5	 	13389.0045	46.33746	 
1115.0	1.0	0.0	8.20144	7.37569	-7.1935	18.13644	26.46263	1.2852	0.77809	144.53345	162.82734	53.4494	0.35206	 	428594.2296	 	1.5808E-5	 	13159.20648	45.9596	 
1110.0	1.0	0.0	8.20539	7.37213	-7.23824	18.06315	26.29922	1.28852	0.77608	145.08423	162.93096	53.67172	0.35159	 	470904.1923	 	1.43358E-5	 	12931.23782	45.59373	 
1105.0	1.0	0.0	8.20931	7.36861	-7.28248	17.9909	26.13975	1.2917	0.77417	145.62506	163.03461	53.89007	0.35113	 	517756.9193	 	1.29914E-5	 	12705.04105	45.23935	 
1100.0	1.0	0.0	8.21319	7.36513	-7.32626	17.91966	25.98404	1.29472	0.77237	146.15638	163.13833	54.10464	0.35068	 	569678.2638	 	1.17645E-5	 	12480.56104	44.896	 
1095.0	1.0	0.0	8.21703	7.36169	-7.36957	17.84938	25.83194	1.29761	0.77065	146.6786	163.24219	54.31557	0.35024	 	627259.2578	 	1.06457E-5	 	12257.74493	44.56322	 
1090.0	1.0	0.0	8.22083	7.35829	-7.41244	17.78003	25.68327	1.30035	0.76903	147.19211	163.34621	54.52304	0.34982	 	691164.7144	 	9.62607E-6	 	12036.54197	44.24059	 
1085.0	1.0	0.0	8.2246	7.35491	-7.45488	17.71157	25.53789	1.30295	0.76749	147.69731	163.45043	54.72717	0.3494	 	762143.0338	 	8.69757E-6	 	11816.90352	43.92769	 
1080.0	1.0	0.0	8.22834	7.35157	-7.4969	17.64398	25.39566	1.30543	0.76603	148.19453	163.55489	54.92812	0.34899	 	841037.3805	 	7.85267E-6	 	11598.78286	43.62413	 
1075.0	1.0	0.0	8.23204	7.34827	-7.53851	17.57722	25.25644	1.30777	0.76466	148.68414	163.65962	55.12602	0.34858	 	928798.4673	 	7.08441E-6	 	11382.13519	43.32953	 
1070.0	1.0	0.0	8.23571	7.34499	-7.57972	17.51127	25.1201	1.30999	0.76336	149.16645	163.76464	55.32099	0.34819	 	1026499.141	 	6.38635E-6	 	11166.91744	43.04355	 
1065.0	1.0	0.0	8.23935	7.34175	-7.62055	17.44608	24.98653	1.31209	0.76214	149.64177	163.86998	55.51316	0.3478	 	1135351.071	 	5.75256E-6	 	10953.08833	42.76582	 
1060.0	1.0	0.0	8.24296	7.33853	-7.66101	17.38164	24.85559	1.31408	0.76099	150.11041	163.97568	55.70265	0.34743	 	1256723.866	 	5.17757E-6	 	10740.60814	42.49604	 
1055.0	1.0	0.0	8.24654	7.33534	-7.7011	17.31792	24.7272	1.31595	0.75991	150.57264	164.08174	55.88956	0.34706	 	1392166.963	 	4.65632E-6	 	10529.43873	42.23388	 
1050.0	1.0	0.0	8.25009	7.33219	-7.74084	17.25489	24.60123	1.31771	0.7589	151.02875	164.18818	56.074	0.34669	 	1543434.728	 	4.18415E-6	 	10319.54347	41.97905	 
1045.0	1.0	0.0	8.25362	7.32906	-7.78024	17.19252	24.4772	1.31938	0.75793	151.47898	164.29504	56.25608	0.34633	 	1712515.278	 	3.75679E-6	 	10110.8871	41.73127	 
1040.0	1.0	0.0	8.25711	7.32595	-7.8193	17.13079	24.3558	1.32092	0.75705	151.92359	164.40232	56.43588	0.34598	 	1901663.593	 	3.37029E-6	 	9903.43575	41.49027	 
1035.0	1.0	0.0	8.26059	7.32287	-7.85803	17.06968	24.23656	1.32237	0.75622	152.36281	164.51003	56.61352	0.34564	 	2113439.56	 	3.02103E-6	 	9697.15684	41.25578	 
1030.0	1.0	0.0	8.26403	7.31982	-7.89645	17.00916	24.11937	1.32371	0.75545	152.79687	164.61821	56.78907	0.3453	 	2350751.835	 	2.70567E-6	 	9492.01897	41.02757	 
1025.0	1.0	0.0	8.26745	7.31679	-7.93456	16.94921	24.00418	1.32496	0.75474	153.22413	164.72484	56.96193	0.34497	 	2616908.296	 	2.42116E-6	 	9287.99228	40.80534	 
1020.0	1.0	0.0	8.27085	7.31379	-7.97237	16.88982	23.89089	1.32612	0.75408	153.64853	164.83399	57.13357	0.34464	 	2915674.174	 	2.16469E-6	 	9085.0482	40.58882	 
1015.0	1.0	0.0	8.27422	7.3108	-8.00988	16.83095	23.77943	1.32718	0.75348	154.0684	164.94363	57.30338	0.34432	 	3251339.406	 	1.93371E-6	 	8883.15805	40.37803	 
1010.0	1.0	0.0	8.27757	7.30785	-8.04711	16.7726	23.66974	1.32816	0.75292	154.48392	165.05377	57.47142	0.34401	 	3628796.114	 	1.72584E-6	 	8682.29486	40.17264	 
1005.0	1.0	0.0	8.2809	7.30491	-8.08405	16.71473	23.56175	1.32905	0.75242	154.89528	165.16442	57.63777	0.3437	 	4053628.48	 	1.53895E-6	 	8482.43263	39.97245	 
1000.0	1.0	0.0	8.2842	7.302	-8.12073	16.65734	23.45539	1.32985	0.75196	155.30264	165.27559	57.80251	0.34339	 	4532216.558	 	1.37106E-6	 	8283.5463	39.77727	 
995.0	1.0	0.0	8.28749	7.2991	-8.15713	16.60041	23.35061	1.33057	0.75156	155.70618	165.38729	57.96568	0.34309	 	5071856.813	 	1.22037E-6	 	8085.6117	39.58692	 
990.0	1.0	0.0	8.29075	7.29623	-8.19328	16.54391	23.24734	1.33121	0.75119	156.10606	165.49951	58.12737	0.34279	 	5680901.809	 	1.08524E-6	 	7888.60529	39.40128	 
985.0	1.0	0.0	8.29399	7.29338	-8.22917	16.48783	23.14554	1.33178	0.75088	156.50242	165.61228	58.28763	0.3425	 	6368922.178	 	9.64169E-7	 	7692.50503	39.22005	 
980.0	1.0	0.0	8.29722	7.29054	-8.26481	16.43215	23.04515	1.33226	0.7506	156.89542	165.72559	58.44651	0.34221	 	7146895.493	 	8.558E-7	 	7497.28898	39.04321	 
975.0	1.0	0.0	8.30042	7.28773	-8.30021	16.37686	22.94612	1.33267	0.75037	157.28519	165.83945	58.60408	0.34193	 	8027425.41	 	7.58887E-7	 	7302.93619	38.87056	 
970.0	1.0	0.0	8.3036	7.28494	-8.33537	16.32195	22.8484	1.33301	0.75018	157.67187	165.95387	58.7604	0.34165	 	9024997.217	 	6.723E-7	 	7109.42639	38.70196	 
965.0	1.0	0.0	8.30677	7.28216	-8.3703	16.26739	22.75194	1.33328	0.75003	158.0556	166.06885	58.9155	0.34138	 	1.015627576E7	 	5.95012E-7	 	6916.74004	38.53727	 
960.0	1.0	0.0	8.30991	7.2794	-8.405	16.21317	22.65671	1.33348	0.74992	158.4365	166.1844	59.06944	0.3411	 	1.144045316E7	 	5.26089E-7	 	6724.85825	38.37636	 
955.0	1.0	0.0	8.31304	7.27666	-8.43948	16.15928	22.56266	1.3336	0.74985	158.81468	166.30051	59.22228	0.34084	 	1.289965522E7	 	4.64686E-7	 	6533.76274	38.2191	 
950.0	1.0	0.0	8.31616	7.27394	-8.47374	16.10571	22.46975	1.33367	0.74981	159.19026	166.4172	59.37405	0.34057	 	1.455941665E7	 	4.10036E-7	 	6343.43589	38.06537	 
945.0	1.0	0.0	8.31925	7.27123	-8.50779	16.05244	22.37795	1.33366	0.74981	159.56336	166.53447	59.5248	0.34031	 	1.644923792E7	 	3.61445E-7	 	6153.86061	37.91506	 
940.0	1.0	0.0	8.32233	7.26854	-8.54162	15.99947	22.28721	1.3336	0.74985	159.93408	166.65232	59.67457	0.34005	 	1.860323768E7	 	3.18282E-7	 	5965.0204	37.76804	 
935.0	1.0	0.0	8.32539	7.26587	-8.57526	15.94676	22.1975	1.33347	0.74992	160.30252	166.77075	59.82341	0.3398	 	2.106091918E7	 	2.79982E-7	 	5776.89929	37.62422	 
930.0	1.0	0.0	8.32843	7.26322	-8.60869	15.89432	22.10879	1.33328	0.75003	160.66878	166.88977	59.97136	0.33955	 	2.386806985E7	 	2.46031E-7	 	5589.48184	37.48349	 
925.0	1.0	0.0	8.33146	7.26057	-8.64192	15.84214	22.02105	1.33303	0.75017	161.03296	167.00938	60.11844	0.3393	 	2.707782089E7	 	2.15965E-7	 	5402.7531	37.34575	 
920.0	1.0	0.0	8.33448	7.25795	-8.67496	15.79019	21.93424	1.33272	0.75035	161.39515	167.12959	60.26471	0.33905	 	3.075189421E7	 	1.89369E-7	 	5216.69859	37.2109	 
915.0	1.0	0.0	8.33748	7.25534	-8.7078	15.73848	21.84834	1.33235	0.75055	161.75543	167.25039	60.41019	0.33881	 	3.496207336E7	 	1.65867E-7	 	5031.30432	37.07885	 
910.0	1.0	0.0	8.34046	7.25274	-8.74046	15.68698	21.76332	1.33193	0.75079	162.1139	167.3718	60.55492	0.33857	 	3.97919401E7	 	1.45121E-7	 	4846.5567	36.94952	 
905.0	1.0	0.0	8.34343	7.25016	-8.77294	15.6357	21.67915	1.33145	0.75106	162.47062	167.4938	60.69894	0.33833	 	4.533892699E7	 	1.26828E-7	 	4662.44261	36.82282	 
900.0	1.0	0.0	8.34639	7.24759	-8.80524	15.58461	21.5958	1.33092	0.75136	162.82569	167.61641	60.84226	0.3381	 	5.17167462E7	 	1.10716E-7	 	4478.94932	36.69866	 
895.0	1.0	0.0	8.34933	7.24504	-8.83736	15.53371	21.51325	1.33033	0.75169	163.17917	167.73963	60.98493	0.33786	 	5.905826917E7	 	9.65394E-8	 	4296.0645	36.57697	 
890.0	1.0	0.0	8.35225	7.2425	-8.8693	15.48299	21.43148	1.32969	0.75206	163.53114	167.86345	61.12698	0.33763	 	6.751894053E7	 	8.40808E-8	 	4113.77619	36.45766	 
885.0	1.0	0.0	8.35517	7.23998	-8.90108	15.43243	21.35046	1.329	0.75245	163.88167	167.98789	61.26843	0.33741	 	7.72808356E7	 	7.31442E-8	 	3932.07281	36.34068	 
880.0	1.0	0.0	8.35807	7.23747	-8.93268	15.38204	21.27018	1.32825	0.75287	164.23083	168.11294	61.4093	0.33718	 	8.855748598E7	 	6.35546E-8	 	3750.94306	36.22595	 
875.0	1.0	0.0	8.36095	7.23497	-8.96412	15.33179	21.1906	1.32746	0.75332	164.57868	168.2386	61.54963	0.33696	 	1.015996282E8	 	5.51561E-8	 	3570.37601	36.11341	 
870.0	1.0	0.0	8.36383	7.23248	-8.9954	15.28169	21.11172	1.32662	0.7538	164.92529	168.36489	61.68945	0.33674	 	1.167020541E8	 	4.78092E-8	 	3390.36125	36.00295	 
865.0	1.0	0.0	8.36669	7.23001	-9.02652	15.23172	21.0335	1.32573	0.7543	165.27071	168.49179	61.82877	0.33652	 	1.342117974E8	 	4.139E-8	 	3210.88857	35.89454	 
860.0	1.0	0.0	8.36953	7.22755	-9.05747	15.18187	20.95594	1.32479	0.75484	165.61501	168.61932	61.96762	0.3363	 	1.545379188E8	 	3.57881E-8	 	3031.948	35.78811	 
855.0	1.0	0.0	8.37237	7.2251	-9.08827	15.13214	20.87901	1.3238	0.7554	165.95825	168.74747	62.10602	0.33609	 	1.781632221E8	 	3.09055E-8	 	2853.52993	35.68361	 
850.0	1.0	0.0	8.37519	7.22267	-9.11892	15.08251	20.8027	1.32277	0.75599	166.30047	168.87625	62.244	0.33588	 	2.056583013E8	 	2.6655E-8	 	2675.62498	35.58099	 
845.0	1.0	0.0	8.37747	7.2207	-9.14359	15.06002	20.74348	1.32064	0.75721	166.62872	169.06419	62.37345	0.33573	 	2.336779299E8	 	2.33544E-8	 	2524.04499	30.316	 
840.0	1.0	0.0	8.37974	7.21875	-9.1682	15.03751	20.68426	1.3185	0.75844	166.95645	169.25133	62.50273	0.33559	 	2.658198922E8	 	2.04387E-8	 	2369.56234	30.89653	 
835.0	1.0	0.0	8.382	7.2168	-9.19275	15.015	20.62502	1.31635	0.75968	167.28365	169.43767	62.63184	0.33545	 	3.027347901E8	 	1.78658E-8	 	2215.27176	30.85811	 
830.0	1.0	0.0	8.38426	7.21485	-9.21725	14.99248	20.56577	1.31418	0.76093	167.61032	169.62321	62.76078	0.33531	 	3.451827859E8	 	1.55981E-8	 	2061.17257	30.81984	 
825.0	1.0	0.0	8.38652	7.21291	-9.24169	14.96994	20.50652	1.31201	0.76219	167.93647	169.80795	62.88954	0.33517	 	3.94053202E8	 	1.36017E-8	 	1907.26407	30.7817	 
820.0	1.0	0.0	8.38878	7.21097	-9.26608	14.9474	20.44724	1.30982	0.76346	168.26209	169.9919	63.01813	0.33503	 	4.503878307E8	 	1.18462E-8	 	1753.54552	30.74371	 
815.0	1.0	0.0	8.39103	7.20904	-9.2904	14.92485	20.38796	1.30762	0.76475	168.58719	170.17506	63.14654	0.33489	 	5.154086951E8	 	1.03044E-8	 	1600.01615	30.70587	 
810.0	1.0	0.0	8.39327	7.20711	-9.31467	14.90228	20.32867	1.30541	0.76604	168.91175	170.35743	63.27479	0.33475	 	5.905511599E8	 	8.95195E-9	 	1446.67517	30.6682	 
805.0	1.0	0.0	8.39551	7.20518	-9.33888	14.87971	20.26936	1.30318	0.76735	169.23579	170.53902	63.40286	0.33461	 	6.775034758E8	 	7.76702E-9	 	1293.52172	30.63069	 
800.0	1.0	0.0	8.39775	7.20326	-9.36304	14.85713	20.21004	1.30095	0.76867	169.55931	170.71982	63.53076	0.33447	 	7.782540795E8	 	6.73017E-9	 	1140.55496	30.59335	 
795.0	1.0	0.0	8.39998	7.20135	-9.38713	14.83453	20.15071	1.2987	0.77	169.88229	170.89984	63.65848	0.33433	 	8.95148252E8	 	5.82404E-9	 	987.77394	30.5562	 
790.0	1.0	0.0	8.40221	7.19944	-9.41117	14.81193	20.09137	1.29644	0.77135	170.20476	171.07908	63.78604	0.33419	 	1.030956086E9	 	5.03316E-9	 	835.17773	30.51924	 
785.0	1.0	0.0	8.40444	7.19753	-9.43516	14.78931	20.03201	1.29416	0.7727	170.52669	171.25754	63.91341	0.33404	 	1.188954146E9	 	4.34379E-9	 	682.7653	30.48248	 
780.0	1.0	0.0	8.40666	7.19563	-9.45908	14.76669	19.97264	1.29188	0.77407	170.8481	171.43523	64.04062	0.3339	 	1.373023726E9	 	3.74368E-9	 	530.53563	30.44593	 
775.0	1.0	0.0	8.40888	7.19373	-9.48295	14.74406	19.91325	1.28958	0.77545	171.16898	171.61214	64.16765	0.33376	 	1.587769262E9	 	3.22198E-9	 	378.48761	30.4096	 
770.0	1.0	0.0	8.41109	7.19184	-9.50676	14.72141	19.85385	1.28727	0.77684	171.48934	171.78828	64.29452	0.33362	 	1.838661264E9	 	2.76906E-9	 	226.62009	30.37351	 
765.0	1.0	0.0	8.4133	7.18995	-9.53051	14.69876	19.79444	1.28494	0.77825	171.80917	171.96366	64.4212	0.33348	 	2.132209102E9	 	2.37639E-9	 	74.93184	30.33765	 
760.0	1.0	0.0	8.4155	7.18807	-9.55421	14.67609	19.73502	1.2826	0.77967	172.12847	172.13826	64.54772	0.33334	 	2.476170237E9	 	2.03643E-9	 	-76.57841	30.30205	 
755.0	1.0	0.0	8.4177	7.18619	-9.57784	14.65342	19.67558	1.28025	0.7811	172.44725	172.3121	64.67406	0.3332	 	2.879803993E9	 	1.74253E-9	 	-227.91198	30.26671	 
750.0	1.0	0.0	8.4199	7.18432	-9.60142	14.63073	19.61612	1.27789	0.78254	172.7655	172.48519	64.80023	0.33306	 	3.354179848E9	 	1.48881E-9	 	-379.07029	30.23166	 
745.0	1.0	0.0	8.42209	7.18245	-9.62495	14.60804	19.55665	1.27551	0.784	173.08322	172.65751	64.92622	0.33292	 	3.912552608E9	 	1.2701E-9	 	-530.05483	30.19691	 
740.0	1.0	0.0	8.42427	7.18058	-9.64841	14.58533	19.49717	1.27312	0.78547	173.40042	172.82907	65.05204	0.33278	 	4.570819731E9	 	1.08185E-9	 	-680.86716	30.16246	 
735.0	1.0	0.0	8.42646	7.17872	-9.67182	14.56262	19.43767	1.27071	0.78696	173.7171	172.99987	65.17769	0.33264	 	5.348079769E9	 	9.20055E-10	 	-831.50892	30.12835	 
730.0	1.0	0.0	8.42864	7.17687	-9.69516	14.53989	19.37816	1.26829	0.78846	174.03324	173.16993	65.30316	0.3325	 	6.267315464E9	 	7.81216E-10	 	-981.98185	30.09459	 
725.0	1.0	0.0	8.43081	7.17502	-9.71846	14.51716	19.31863	1.26586	0.78998	174.34887	173.33923	65.42846	0.33236	 	7.356230822E9	 	6.62258E-10	 	-1132.28779	30.06119	 
720.0	1.0	0.0	8.43298	7.17317	-9.74169	14.49441	19.25908	1.26341	0.79151	174.66396	173.50778	65.55359	0.33222	 	8.648278706E9	 	5.60495E-10	 	-1282.42866	30.02817	 
715.0	1.0	0.0	8.43515	7.17133	-9.76486	14.47165	19.19952	1.26095	0.79305	174.97853	173.67558	65.67854	0.33208	 	1.01839E10	 	4.73581E-10	 	-1432.40651	29.99557	 
710.0	1.0	0.0	8.43731	7.16949	-9.78798	14.44889	19.13994	1.25848	0.79461	175.29258	173.84264	65.80332	0.33194	 	1.2012199999999998E10	 	3.9947E-10	 	-1582.22351	29.9634	 
705.0	1.0	0.0	8.43947	7.16766	-9.81104	14.42611	19.08034	1.25599	0.79619	175.6061	174.00895	65.92793	0.3318	 	1.4192599999999998E10	 	3.36379E-10	 	-1731.88194	29.93169	 
700.0	1.0	0.0	8.44162	7.16583	-9.83404	14.40333	19.02073	1.25348	0.79778	175.91909	174.17452	66.05236	0.33166	 	1.6797599999999998E10	 	2.8276E-10	 	-1881.38421	29.90046	 
695.0	1.0	0.0	8.44377	7.16401	-9.85698	14.38053	18.9611	1.25096	0.79938	176.23156	174.33936	66.17662	0.33152	 	1.99154E10	 	2.37269E-10	 	-2030.73289	29.86974	 
690.0	1.0	0.0	8.44591	7.16219	-9.87987	14.35772	18.90146	1.24843	0.801	176.5435	174.50345	66.3007	0.33138	 	2.3653599999999996E10	 	1.98739E-10	 	-2179.9307	29.83956	 
685.0	1.0	0.0	8.44805	7.16038	-9.90269	14.33491	18.84179	1.24588	0.80264	176.85492	174.66681	66.42461	0.33125	 	2.8143999999999996E10	 	1.66163E-10	 	-2328.98051	29.80996	 
680.0	1.0	0.0	8.45019	7.15857	-9.92546	14.31208	18.78211	1.24332	0.8043	177.16581	174.82944	66.54835	0.33111	 	3.3547999999999996E10	 	1.3867E-10	 	-2477.88536	29.78097	 
675.0	1.0	0.0	8.45232	7.15676	-9.94817	14.28924	18.72241	1.24074	0.80597	177.47618	174.99134	66.67191	0.33097	 	4.00637E10	 	1.15508E-10	 	-2626.6485	29.75263	 
670.0	1.0	0.0	8.45444	7.15496	-9.97082	14.2664	18.66269	1.23815	0.80766	177.78602	175.1525	66.7953	0.33083	 	4.793509999999999E10	 	9.60315E-11	 	-2775.27335	29.72497	 
665.0	1.0	0.0	8.45657	7.15317	-9.99341	14.24354	18.60295	1.23554	0.80936	178.09534	175.31294	66.91851	0.33069	 	5.746269999999999E10	 	7.96843E-11	 	-2923.76358	29.69805	 
660.0	1.0	0.0	8.45868	7.15137	-10.01595	14.22067	18.54319	1.23291	0.81109	178.40413	175.47266	67.04155	0.33055	 	6.9018E10	 	6.59896E-11	 	-3072.1126	29.6698	 
655.0	1.0	0.0	8.4608	7.14959	-10.03843	14.1978	18.48341	1.23027	0.81283	178.71239	175.63165	67.16441	0.33041	 	8.30608E10	 	5.45392E-11	 	-3220.26209	29.6299	 
650.0	1.0	0.0	8.46291	7.14781	-10.06084	14.17491	18.42361	1.22762	0.81459	179.02013	175.78991	67.2871	0.33027	 	1.00162E11	 	4.4984E-11	 	-3368.13477	29.57454	 
645.0	1.0	0.0	8.46501	7.14603	-10.0832	14.15201	18.3638	1.22495	0.81636	179.32735	175.94746	67.40962	0.33013	 	1.2103E11	 	3.70262E-11	 	-3515.73177	29.5194	 
640.0	1.0	0.0	8.46711	7.14426	-10.1055	14.12911	18.30396	1.22226	0.81816	179.63404	176.1043	67.53196	0.32999	 	1.46549E11	 	3.04121E-11	 	-3663.05423	29.46449	 
635.0	1.0	0.0	8.46921	7.14249	-10.12775	14.10619	18.2441	1.21955	0.81997	179.9402	176.26041	67.65413	0.32985	 	1.77823E11	 	2.49262E-11	 	-3810.10331	29.40982	 
630.0	1.0	0.0	8.4713	7.14073	-10.14993	14.08326	18.18422	1.21683	0.8218	180.24584	176.41581	67.77612	0.32971	 	2.16234E11	 	2.03856E-11	 	-3956.88015	29.35537	 
625.0	1.0	0.0	8.47338	7.13897	-10.17205	14.06032	18.12431	1.2141	0.82366	180.55096	176.5705	67.89794	0.32958	 	2.63514E11	 	1.66353E-11	 	-4103.38599	29.30117	 
620.0	1.0	0.0	8.47547	7.13721	-10.19412	14.03738	18.06439	1.21134	0.82553	180.85555	176.72448	68.01958	0.32944	 	3.21845E11	 	1.35445E-11	 	-4249.62225	29.24725	 
615.0	1.0	0.0	8.47754	7.13547	-10.21613	14.01442	18.00444	1.20857	0.82742	181.15961	176.87776	68.14105	0.3293	 	3.93974E11	 	1.10028E-11	 	-4395.58992	29.19353	 
610.0	1.0	0.0	8.47962	7.13372	-10.23808	13.99145	17.94447	1.20579	0.82934	181.46315	177.03032	68.26234	0.32916	 	4.83374E11	 	8.9174E-12	 	-4541.29015	29.14005	 
605.0	1.0	0.0	8.48168	7.13198	-10.25997	13.96847	17.88448	1.20298	0.83127	181.76616	177.18218	68.38346	0.32902	 	5.94442E11	 	7.21018E-12	 	-4686.72405	29.08678	 
600.0	1.0	0.0	8.48375	7.13025	-10.2818	13.94548	17.82446	1.20016	0.83322	182.06865	177.33334	68.5044	0.32888	 	7.32765E11	 	5.81582E-12	 	-4831.89277	29.03374	 
595.0	1.0	0.0	8.48581	7.12852	-10.30357	13.92249	17.76442	1.19732	0.8352	182.37062	177.4838	68.62517	0.32874	 	9.05454E11	 	4.67967E-12	 	-4976.79743	28.98093	 
590.0	1.0	0.0	8.48786	7.12679	-10.32528	13.89948	17.70435	1.19446	0.8372	182.67206	177.63356	68.74576	0.32861	 	1.12159E12	 	3.75613E-12	 	-5121.43916	28.92835	 
585.0	1.0	0.0	8.48991	7.12507	-10.34694	13.87646	17.64426	1.19159	0.83922	182.97297	177.78263	68.86618	0.32847	 	1.39278E12	 	3.00723E-12	 	-5265.81909	28.87599	 
580.0	1.0	0.0	8.49196	7.12335	-10.36853	13.85343	17.58414	1.18869	0.84126	183.27336	177.93099	68.98642	0.32833	 	1.73394E12	 	2.40147E-12	 	-5409.93835	28.82385	 
575.0	1.0	0.0	8.494	7.12164	-10.39007	13.83039	17.524	1.18578	0.84332	183.57322	178.07867	69.10649	0.32819	 	2.16426E12	 	1.91272E-12	 	-5553.79805	28.77194	 
570.0	1.0	0.0	8.49603	7.11994	-10.41154	13.80734	17.46383	1.18285	0.84541	183.87256	178.22565	69.22638	0.32805	 	2.70847E12	 	1.51938E-12	 	-5697.3993	28.72025	 
565.0	1.0	0.0	8.49807	7.11823	-10.43296	13.78428	17.40364	1.17991	0.84752	184.17138	178.37195	69.3461	0.32791	 	3.39862E12	 	1.20366E-12	 	-5840.74326	28.66879	 
560.0	1.0	0.0	8.50009	7.11654	-10.45432	13.76121	17.34341	1.17694	0.84966	184.46967	178.51755	69.46564	0.32778	 	4.27626E12	 	9.50923E-13	 	-5983.831	28.61755	 
555.0	1.0	0.0	8.50212	7.11484	-10.47562	13.73814	17.28316	1.17396	0.85182	184.76743	178.66247	69.585	0.32764	 	5.39548E12	 	7.49144E-13	 	-6126.66368	28.56653	 
550.0	1.0	0.0	8.50413	7.11315	-10.49686	13.71505	17.22288	1.17095	0.85401	185.06467	178.80671	69.70419	0.3275	 	6.82689E12	 	5.88495E-13	 	-6269.24237	28.51574	 
545.0	1.0	0.0	8.50615	7.11147	-10.51804	13.69195	17.16258	1.16793	0.85622	185.36139	178.95026	69.82321	0.32736	 	8.66293E12	 	4.60951E-13	 	-6411.56821	28.46517	 
540.0	1.0	0.0	8.50815	7.10979	-10.53916	13.66884	17.10224	1.16489	0.85845	185.65758	179.09314	69.94205	0.32722	 	1.1025E13	 	3.59981E-13	 	-6553.64229	28.41482	 
535.0	1.0	0.0	8.51016	7.10812	-10.56023	13.64572	17.04187	1.16183	0.86071	185.95324	179.23533	70.06071	0.32709	 	1.4073E13	 	2.80279E-13	 	-6695.46575	28.36469	 
530.0	1.0	0.0	8.51216	7.10645	-10.58123	13.62259	16.98147	1.15874	0.863	186.24838	179.37685	70.17919	0.32695	 	1.80184E13	 	2.17554E-13	 	-6837.03965	28.31478	 
525.0	1.0	0.0	8.51415	7.10479	-10.60217	13.59945	16.92104	1.15564	0.86532	186.543	179.51769	70.29751	0.32681	 	2.31415E13	 	1.68337E-13	 	-6978.36512	28.26509	 
520.0	1.0	0.0	8.51614	7.10313	-10.62305	13.5763	16.86058	1.15252	0.86766	186.83709	179.65786	70.41564	0.32667	 	2.98151E13	 	1.29839E-13	 	-7119.44325	28.21563	 
515.0	1.0	0.0	8.51812	7.10147	-10.64388	13.55314	16.80009	1.14938	0.87003	187.13066	179.79736	70.5336	0.32654	 	3.85368E13	 	9.98204E-14	 	-7260.27514	28.16638	 
510.0	1.0	0.0	8.5201	7.09982	-10.66464	13.52997	16.73956	1.14622	0.87243	187.4237	179.93618	70.65138	0.3264	 	4.99735E13	 	7.64878E-14	 	-7400.86189	28.11735	 
505.0	1.0	0.0	8.52208	7.09817	-10.68535	13.50679	16.679	1.14303	0.87486	187.71621	180.07434	70.76899	0.32626	 	6.5021E13	 	5.84112E-14	 	-7541.20458	28.06854	 
500.0	1.0	0.0	8.52405	7.09653	-10.70599	13.4836	16.61841	1.13983	0.87732	188.00821	180.21183	70.88642	0.32612	 	8.4888E13	 	4.44533E-14	 	-7681.30431	28.01995	 
495.0	1.0	0.0	8.52602	7.0949	-10.72658	13.4604	16.55778	1.13661	0.87981	188.29967	180.34866	71.00367	0.32599	 	1.11211E14	 	3.37122E-14	 	-7821.16216	27.97157	 
490.0	1.0	0.0	8.52798	7.09327	-10.7471	13.43719	16.49711	1.13336	0.88233	188.59061	180.48482	71.12075	0.32585	 	1.46212E14	 	2.5475E-14	 	-7960.77921	27.92341	 
485.0	1.0	0.0	8.52993	7.09164	-10.76757	13.41397	16.43641	1.13009	0.88488	188.88103	180.62033	71.23765	0.32571	 	1.92924E14	 	1.91803E-14	 	-8100.15654	27.87547	 
480.0	1.0	0.0	8.53188	7.09002	-10.78798	13.39074	16.37567	1.1268	0.88747	189.17092	180.75517	71.35437	0.32557	 	2.5549999999999997E14	 	1.43873E-14	 	-8239.29524	27.82774	 
475.0	1.0	0.0	8.53383	7.0884	-10.80832	13.3675	16.31489	1.12349	0.89008	189.46029	180.88935	71.47092	0.32544	 	3.39644E14	 	1.07511E-14	 	-8378.19637	27.78023	 
470.0	1.0	0.0	8.53577	7.08679	-10.82861	13.34424	16.25408	1.12016	0.89273	189.74914	181.02288	71.58729	0.3253	 	4.53233E14	 	8.00279E-15	 	-8516.861	27.73293	 
465.0	1.0	0.0	8.53771	7.08518	-10.84884	13.32098	16.19322	1.11681	0.89541	190.03745	181.15575	71.70348	0.32516	 	6.07179E14	 	5.93355E-15	 	-8655.29022	27.68584	 
460.0	1.0	0.0	8.53964	7.08358	-10.869	13.29771	16.13233	1.11343	0.89813	190.32525	181.28797	71.8195	0.32502	 	8.16664E14	 	4.38163E-15	 	-8793.48506	27.63897	 
455.0	1.0	0.0	8.54157	7.08198	-10.88911	13.27443	16.07139	1.11003	0.90088	190.61252	181.41954	71.93534	0.32489	 	1.10291E15	 	3.22232E-15	 	-8931.4466	27.59231	 
450.0	1.0	0.0	8.54349	7.08039	-10.90916	13.25114	16.01041	1.1066	0.90367	190.89926	181.55045	72.051	0.32475	 	1.49568E15	 	2.35981E-15	 	-9069.17589	27.54586	 
445.0	1.0	0.0	8.54541	7.0788	-10.92914	13.22784	15.94939	1.10316	0.90649	191.18548	181.68072	72.16648	0.32461	 	2.03695E15	 	1.72077E-15	 	-9206.674	27.49962	 
440.0	1.0	0.0	8.54732	7.07722	-10.94907	13.20453	15.88833	1.09969	0.90935	191.47117	181.81035	72.28179	0.32448	 	2.78614E15	 	1.2493E-15	 	-9343.94194	27.45359	 
435.0	1.0	0.0	8.54922	7.07564	-10.96893	13.18121	15.82722	1.09619	0.91225	191.75634	181.93932	72.39692	0.32434	 	3.82777E15	 	9.02955E-16	 	-9480.98079	27.40777	 
430.0	1.0	0.0	8.55113	7.07406	-10.98874	13.15787	15.76606	1.09267	0.91519	192.04099	182.06766	72.51188	0.3242	 	5.28264E15	 	6.49656E-16	 	-9617.79157	27.36216	 
425.0	1.0	0.0	8.55302	7.07249	-11.00849	13.13453	15.70486	1.08913	0.91816	192.32511	182.19535	72.62665	0.32407	 	7.3242E15	 	4.65238E-16	 	-9754.37517	27.31672	 
420.0	1.0	0.0	8.55492	7.07093	-11.02817	13.11118	15.64361	1.08557	0.92118	192.6087	182.3224	72.74125	0.32393	 	1.02027E16	 	3.31587E-16	 	-9890.73286	27.27154	 
415.0	1.0	0.0	8.5568	7.06937	-11.0478	13.08782	15.58231	1.08198	0.92424	192.89177	182.44881	72.85568	0.32379	 	1.42812E16	 	2.35182E-16	 	-10026.86505	27.22644	 
410.0	1.0	0.0	8.55869	7.06781	-11.06736	13.06445	15.52096	1.07836	0.92733	193.17432	182.57459	72.96992	0.32366	 	2.00887E16	 	1.65978E-16	 	-10162.77189	27.18137	 
405.0	1.0	0.0	8.56056	7.06626	-11.08686	13.04106	15.45956	1.07472	0.93048	193.45634	182.69973	73.08399	0.32352	 	2.84003E16	 	1.16544E-16	 	-10298.45354	27.13633	 
400.0	1.0	0.0	8.56244	7.06472	-11.10631	13.01767	15.39811	1.07105	0.93366	193.73783	182.82424	73.19788	0.32338	 	4.03579E16	 	8.14085E-17	 	-10433.91014	27.09132	 
395.0	1.0	0.0	8.5643	7.06318	-11.12569	12.99427	15.33661	1.06736	0.93689	194.0188	182.94811	73.31159	0.32325	 	5.76525E16	 	5.65643E-17	 	-10569.14185	27.04634	 
390.0	1.0	0.0	8.56617	7.06164	-11.14501	12.97086	15.27505	1.06364	0.94017	194.29925	183.07136	73.42512	0.32311	 	8.28024E16	 	3.90891E-17	 	-10704.14881	27.00139	 
385.0	1.0	0.0	8.56802	7.06011	-11.16428	12.94743	15.21343	1.0599	0.94349	194.57917	183.19397	73.53847	0.32298	 	1.1958E17	 	2.6863E-17	 	-10838.93113	26.95647	 
380.0	1.0	0.0	8.56988	7.05859	-11.18348	12.924	15.15176	1.05613	0.94686	194.85856	183.31596	73.65165	0.32284	 	1.73666E17	 	1.83563E-17	 	-10973.48896	26.91156	 
375.0	1.0	0.0	8.57172	7.05707	-11.20262	12.90056	15.09003	1.05233	0.95027	195.13743	183.43732	73.76465	0.3227	 	2.53672E17	 	1.24707E-17	 	-11107.82241	26.86669	 
370.0	1.0	0.0	8.57357	7.05555	-11.2217	12.8771	15.02824	1.0485	0.95374	195.41578	183.55806	73.87747	0.32257	 	3.72725E17	 	8.4219E-18	 	-11241.93159	26.82184	 
365.0	1.0	0.0	8.5754	7.05404	-11.24072	12.85364	14.96639	1.04465	0.95726	195.6936	183.67817	73.99011	0.32243	 	5.50965E17	 	5.65308E-18	 	-11375.81661	26.777	 
360.0	1.0	0.0	8.57723	7.05253	-11.25968	12.83017	14.90447	1.04077	0.96082	195.9709	183.79766	74.10258	0.32229	 	8.19484E17	 	3.77097E-18	 	-11509.47758	26.73219	 
355.0	1.0	0.0	8.57906	7.05103	-11.27857	12.80669	14.84249	1.03687	0.96444	196.24767	183.91653	74.21487	0.32216	 	1.2266E18	 	2.49947E-18	 	-11642.91458	26.6874	 
350.0	1.0	0.0	8.58088	7.04953	-11.29741	12.78319	14.78045	1.03293	0.96812	196.52391	184.03479	74.32697	0.32202	 	1.84788E18	 	1.64591E-18	 	-11776.1277	26.64262	 
345.0	1.0	0.0	8.5827	7.04804	-11.31619	12.75969	14.71833	1.02897	0.97185	196.79963	184.15242	74.4389	0.32189	 	2.80236E18	 	1.0766E-18	 	-11909.11702	26.59786	 
340.0	1.0	0.0	8.58451	7.04655	-11.3349	12.73617	14.65615	1.02497	0.97563	197.07483	184.26944	74.55065	0.32175	 	4.27883E18	 	6.99405E-19	 	-12041.8826	26.55312	 
335.0	1.0	0.0	8.58632	7.04507	-11.35356	12.71265	14.5939	1.02095	0.97948	197.3495	184.38585	74.66222	0.32162	 	6.57882E18	 	4.5118E-19	 	-12174.4245	26.50838	 
330.0	1.0	0.0	8.58812	7.04359	-11.37215	12.68912	14.53158	1.0169	0.98338	197.62365	184.50165	74.77362	0.32148	 	1.01875E19	 	2.88964E-19	 	-12306.74278	26.46366	 
325.0	1.0	0.0	8.58992	7.04212	-11.39068	12.66557	14.46918	1.01282	0.98734	197.89727	184.61683	74.88483	0.32134	 	1.58914E19	 	1.8371E-19	 	-12438.83749	26.41894	 
320.0	1.0	0.0	8.59171	7.04065	-11.40915	12.64202	14.4067	1.00871	0.99137	198.17036	184.7314	74.99587	0.32121	 	2.49755E19	 	1.15914E-19	 	-12570.70865	26.37423	 
315.0	1.0	0.0	8.59349	7.03919	-11.42756	12.61845	14.34415	1.00457	0.99545	198.44293	184.84537	75.10672	0.32107	 	3.95552E19	 	7.25724E-20	 	-12702.35628	26.32953	 
310.0	1.0	0.0	8.59527	7.03773	-11.44591	12.59488	14.28151	1.0004	0.9996	198.71498	184.95873	75.2174	0.32094	 	6.31418E19	 	4.50765E-20	 	-12833.78039	26.28482	 
305.0	1.0	0.0	8.59705	7.03628	-11.4642	12.5713	14.2188	0.99619	1.00382	198.9865	185.07148	75.3279	0.3208	 	1.01612E20	 	2.77705E-20	 	-12964.981	26.24012	 
300.0	1.0	0.0	8.59882	7.03483	-11.48242	12.5477	14.15599	0.99196	1.00811	199.25749	185.18363	75.43822	0.32067	 	1.64883E20	 	1.6966E-20	 	-13095.9581	26.19542	 
295.0	1.0	0.0	8.60058	7.03338	-11.50059	12.5241	14.09311	0.98769	1.01246	199.52796	185.29518	75.54836	0.32053	 	2.6984099999999997E20	 	1.02764E-20	 	-13226.71164	26.15071	 
290.0	1.0	0.0	8.60234	7.03195	-11.51869	12.50048	14.03013	0.9834	1.01688	199.7979	185.40613	75.65832	0.3204	 	4.4549099999999997E20	 	6.16981E-21	 	-13357.24162	26.106	 
285.0	1.0	0.0	8.6041	7.03051	-11.53673	12.47686	13.96706	0.97907	1.02138	200.06732	185.51647	75.7681	0.32026	 	7.421139999999999E20	 	3.67085E-21	 	-13487.54797	26.06127	 
280.0	1.0	0.0	8.60585	7.02908	-11.55471	12.45322	13.90389	0.9747	1.02595	200.33621	185.62622	75.8777	0.32013	 	1.2477000000000001E21	 	2.16382E-21	 	-13617.63065	26.01653	 
275.0	1.0	0.0	8.60759	7.02766	-11.57263	12.42958	13.84063	0.97031	1.0306	200.60458	185.73538	75.98712	0.31999	 	2.1177000000000001E21	 	1.26334E-21	 	-13747.48958	25.97179	 
270.0	1.0	0.0	8.60933	7.02624	-11.59049	12.40592	13.77727	0.96588	1.03533	200.87242	185.84393	76.09636	0.31986	 	3.62952E21	 	7.30394E-22	 	-13877.12466	25.92702	 
265.0	1.0	0.0	8.61106	7.02483	-11.60829	12.38226	13.71381	0.96142	1.04013	201.13974	185.9519	76.20542	0.31972	 	6.28323E21	 	4.1803E-22	 	-14006.5358	25.88223	 
260.0	1.0	0.0	8.61279	7.02342	-11.62602	12.35858	13.65024	0.95692	1.04502	201.40653	186.05927	76.31431	0.31959	 	1.0989699999999998E22	 	2.36783E-22	 	-14135.72289	25.83742	 
255.0	1.0	0.0	8.61451	7.02201	-11.64369	12.3349	13.58656	0.95239	1.04999	201.6728	186.16605	76.42301	0.31945	 	1.94261E22	 	1.32696E-22	 	-14264.68578	25.79258	 
250.0	1.0	0.0	8.61623	7.02061	-11.66131	12.3112	13.52277	0.94782	1.05505	201.93854	186.27224	76.53153	0.31932	 	3.4714899999999996E22	 	7.35524E-23	 	-14393.42433	25.74771	 
245.0	1.0	0.0	8.61794	7.01922	-11.67886	12.28749	13.45887	0.94322	1.0602	202.20375	186.37784	76.63987	0.31918	 	6.273529999999999E22	 	4.03116E-23	 	-14521.93837	25.70281	 
240.0	1.0	0.0	8.61965	7.01783	-11.69634	12.26378	13.39484	0.93858	1.06544	202.46844	186.48286	76.74804	0.31905	 	1.1468699999999999E23	 	2.18381E-23	 	-14650.2277	25.65787	 
235.0	1.0	0.0	8.62135	7.01644	-11.71377	12.24005	13.3307	0.93391	1.07077	202.73261	186.58729	76.85602	0.31891	 	2.1216599999999998E23	 	1.16897E-23	 	-14778.29214	25.61289	 
230.0	1.0	0.0	8.62305	7.01506	-11.73113	12.21632	13.26643	0.9292	1.07619	202.99624	186.69114	76.96382	0.31878	 	3.97324E23	 	6.18072E-24	 	-14906.13144	25.56786	 
225.0	1.0	0.0	8.62474	7.01369	-11.74844	12.19257	13.20202	0.92445	1.08172	203.25936	186.7944	77.07144	0.31864	 	7.53501E23	 	3.22673E-24	 	-15033.74535	25.52278	 
220.0	1.0	0.0	8.62642	7.01232	-11.76568	12.16882	13.13749	0.91967	1.08734	203.52194	186.89708	77.17888	0.31851	 	1.44764E24	 	1.66267E-24	 	-15161.13362	25.47765	 
215.0	1.0	0.0	8.6281	7.01095	-11.78286	12.14505	13.07281	0.91485	1.09307	203.78401	186.99919	77.28614	0.31837	 	2.81866E24	 	8.45272E-25	 	-15288.29595	25.43247	 
210.0	1.0	0.0	8.62978	7.00959	-11.79997	12.12127	13.008	0.90999	1.09891	204.04554	187.10071	77.39322	0.31824	 	5.564390000000001E24	 	4.23791E-25	 	-15415.23201	25.38721	 
205.0	1.0	0.0	8.63145	7.00824	-11.81703	12.09749	12.94303	0.90509	1.10486	204.30655	187.20166	77.50012	0.3181	 	1.11421E25	 	2.09451E-25	 	-15541.94147	25.34189	 
200.0	1.0	0.0	8.63311	7.00689	-11.83402	12.07369	12.87792	0.90016	1.11091	204.56703	187.30203	77.60684	0.31797	 	2.26409E25	 	1.01998E-25	 	-15668.42395	25.2965	 
195.0	1.0	0.0	8.63477	7.00554	-11.85095	12.04988	12.81265	0.89518	1.11709	204.82699	187.40182	77.71337	0.31784	 	4.67084E25	 	4.89189E-26	 	-15794.67906	25.25102	 
190.0	1.0	0.0	8.63642	7.0042	-11.86782	12.02607	12.74721	0.89017	1.12338	205.08642	187.50104	77.81973	0.3177	 	9.78786E25	 	2.30951E-26	 	-15920.70637	25.20546	 
185.0	1.0	0.0	8.63807	7.00286	-11.88462	12.00224	12.68161	0.88511	1.1298	205.34533	187.59969	77.9259	0.31757	 	2.08446E26	 	1.07276E-26	 	-16046.50543	25.15981	 
180.0	1.0	0.0	8.63971	7.00153	-11.90137	11.9784	12.61583	0.88002	1.13634	205.60371	187.69777	78.0319	0.31743	 	4.513810000000001E26	 	4.89988E-27	 	-16172.07574	25.11406	 
175.0	1.0	0.0	8.64135	7.00021	-11.91805	11.95455	12.54987	0.87488	1.14301	205.86156	187.79528	78.13771	0.3173	 	9.944460000000001E26	 	2.19952E-27	 	-16297.41678	25.06821	 
170.0	1.0	0.0	8.64298	6.99889	-11.93467	11.9307	12.48373	0.86971	1.14981	206.11889	187.89223	78.24334	0.31717	 	2.2302799999999998E27	 	9.69789E-28	 	-16422.52799	25.02224	 
165.0	1.0	0.0	8.6446	6.99757	-11.95123	11.90683	12.41739	0.86449	1.15676	206.37569	187.9886	78.34879	0.31703	 	5.09501E27	 	4.19725E-28	 	-16547.4088	24.97616	 
160.0	1.0	0.0	8.64622	6.99626	-11.96772	11.88295	12.35086	0.85923	1.16384	206.63197	188.08441	78.45406	0.3169	 	1.18635E28	 	1.78202E-28	 	-16672.05854	24.92995	 
155.0	1.0	0.0	8.64784	6.99495	-11.98415	11.85906	12.28411	0.85392	1.17107	206.88772	188.17966	78.55915	0.31676	 	2.81743E28	 	7.41701E-29	 	-16796.47655	24.8836	 
150.0	1.0	0.0	8.64944	6.99365	-12.00052	11.83517	12.21716	0.84858	1.17845	207.14294	188.27434	78.66405	0.31663	 	6.8292300000000005E28	 	3.02419E-29	 	-16920.66212	24.83711	 
145.0	1.0	0.0	8.65105	6.99236	-12.01683	11.81126	12.14998	0.84318	1.18598	207.39764	188.36846	78.76878	0.3165	 	1.69078E29	 	1.20707E-29	 	-17044.61448	24.79047	 
140.0	1.0	0.0	8.65265	6.99107	-12.03308	11.78734	12.08256	0.83775	1.19367	207.65181	188.46202	78.87332	0.31636	 	4.27887E29	 	4.71265E-30	 	-17168.33282	24.74367	 
135.0	1.0	0.0	8.65424	6.98978	-12.04926	11.76341	12.01491	0.83227	1.20153	207.90545	188.55502	78.97768	0.31623	 	1.10778E30	 	1.79826E-30	 	-17291.81629	24.69669	 
130.0	1.0	0.0	8.65582	6.9885	-12.06538	11.73948	11.947	0.82675	1.20956	208.15857	188.64747	79.08186	0.3161	 	2.93646E30	 	6.70085E-31	 	-17415.06397	24.64954	 
125.0	1.0	0.0	8.6574	6.98722	-12.08143	11.71553	11.87884	0.82118	1.21776	208.41116	188.73936	79.18585	0.31596	 	7.97679E30	 	2.43616E-31	 	-17538.0749	24.60219	 
120.0	1.0	0.0	8.65898	6.98595	-12.09743	11.69157	11.81041	0.81557	1.22614	208.66323	188.83069	79.28967	0.31583	 	2.22265E31	 	8.63323E-32	 	-17660.84805	24.55463	 
115.0	1.0	0.0	8.66055	6.98469	-12.11336	11.6676	11.74169	0.80991	1.23471	208.91477	188.92147	79.3933	0.3157	 	6.35888E31	 	2.97924E-32	 	-17783.38235	24.50686	 
110.0	1.0	0.0	8.66211	6.98342	-12.12923	11.64362	11.67268	0.8042	1.24347	209.16578	189.01169	79.49675	0.31556	 	1.86984E32	 	1.00012E-32	 	-17905.67664	24.45886	 
105.0	1.0	0.0	8.66367	6.98217	-12.14503	11.61963	11.60337	0.79845	1.25243	209.41627	189.10136	79.60002	0.31543	 	5.65738E32	 	3.26239E-33	 	-18027.72972	24.41061	 
100.0	1.0	0.0	8.66522	6.98092	-12.16078	11.59563	11.53373	0.79265	1.2616	209.66623	189.19049	79.7031	0.3153	 	1.76324E33	 	1.0329E-33	 	-18149.5403	24.36212	 
95.0	1.0	0.0	8.66677	6.97967	-12.17646	11.57163	11.46376	0.7868	1.27097	209.91566	189.27906	79.806	0.31516	 	5.66785E33	 	3.17025E-34	 	-18271.10703	24.31334	 
90.0	1.0	0.0	8.66831	6.97843	-12.19208	11.54761	11.39345	0.7809	1.28057	210.16456	189.36709	79.90872	0.31503	 	1.8814300000000001E34	 	9.42072E-35	 	-18392.42847	24.26429	 
85.0	1.0	0.0	8.66985	6.97719	-12.20763	11.52358	11.32277	0.77496	1.29039	210.41294	189.45456	80.01126	0.3149	 	6.4581500000000005E34	 	2.70672E-35	 	-18513.50312	24.21493	 
80.0	1.0	0.0	8.67138	6.97596	-12.22312	11.49954	11.25171	0.76897	1.30045	210.6608	189.5415	80.11361	0.31476	 	2.2955899999999997E35	 	7.50847E-36	 	-18634.32936	24.16525	 
75.0	1.0	0.0	8.6729	6.97474	-12.23855	11.47549	11.18025	0.76292	1.31075	210.90812	189.62789	80.21578	0.31463	 	8.46255E35	 	2.00795E-36	 	-18754.90553	24.11523	 
70.0	1.0	0.0	8.67442	6.97351	-12.25391	11.45143	11.10838	0.75683	1.3213	211.15492	189.71373	80.31777	0.3145	 	3.24056E36	 	5.16834E-37	 	-18875.22985	24.06486	 
65.0	1.0	0.0	8.67594	6.9723	-12.26922	11.42736	11.03607	0.75069	1.33211	211.40119	189.79904	80.41958	0.31436	 	1.29117E37	 	1.27824E-37	 	-18995.30044	24.01412	 
60.0	1.0	0.0	8.67744	6.97109	-12.28446	11.40328	10.9633	0.7445	1.34318	211.64694	189.8838	80.5212	0.31423	 	5.36249E37	 	3.03221E-38	 	-19115.11532	23.96298	 
55.0	1.0	0.0	8.67894	6.96988	-12.29963	11.37919	10.89005	0.73826	1.35454	211.89215	189.96802	80.62264	0.3141	 	2.32592E38	 	6.88595E-39	 	-19234.67242	23.91142	 
50.0	1.0	0.0	8.68044	6.96868	-12.31474	11.35509	10.81629	0.73197	1.36618	212.13684	190.05171	80.72389	0.31397	 	1.05571E39	 	1.49399E-39	 	-19353.96955	23.85943	 
45.0	1.0	0.0	8.68193	6.96748	-12.32979	11.33098	10.742	0.72563	1.37812	212.38101	190.13486	80.82496	0.31383	 	5.0250400000000004E39	 	3.09015E-40	 	-19473.00441	23.80697	 
40.0	1.0	0.0	8.68341	6.96629	-12.34478	11.30686	10.66715	0.71923	1.39037	212.62464	190.21747	80.92585	0.3137	 	2.51405E40	 	6.07945E-41	 	-19591.77458	23.75403	 
35.0	1.0	0.0	8.68489	6.96511	-12.3597	11.28273	10.59172	0.71279	1.40294	212.86775	190.29955	81.02655	0.31357	 	1.3252600000000002E41	 	1.13488E-41	 	-19710.27754	23.70059	 
30.0	1.0	0.0	8.68637	6.96393	-12.37456	11.25859	10.51565	0.7063	1.41583	213.11033	190.38109	81.12708	0.31344	 	7.379740000000001E41	 	2.00495E-42	 	-19828.51062	23.64662	 
25.0	1.0	0.0	8.68783	6.96275	-12.38936	 	10.43893	0.69975	1.42908	213.35239	190.4621	81.22741	0.3133	 	4.3530499999999997E42	 	3.34294E-43	 	-19946.47104	 	 
