T (C)	Fraction solid (wt)-TOTAL	Fraction liquid (wt)-LIQUID	Density (g/(cm)^3)-TOTAL	Molar volume (cm^3)-TOTAL	Volume change (%)-  	Average expansion coeff. (10e-6 1/K)-  	Thermal conductivity (W/(m*K))-TOTAL	Electrical resistivity (10e-6 Ohm*m)-TOTAL	Electrical conductivity (10e6 1/(Ohm*m))-TOTAL	Young's modulus (GPa)-TOTAL	Bulk modulus (GPa)-TOTAL	Shear modulus(GPa)-TOTAL	Poisson's ratio-TOTAL	Liquid viscosity (mPa s)-  	Total viscosity (mPa s)-  	Liquid diffusivity (10e-9 (m^2)/s)-  	Total diffusivity (10e-9 (m^2)/s)-  	Surface Tension (mN/m)-  	Enthalpy (J/mole)-TOTAL	Specific heat (J/(mole K))-TOTAL	Latent heat (J/mole)-TOTAL
1400.0	0.0	1.0	7.46024	8.04928	0.0	34.80084	30.63294	1.33817	0.74729	0.0	122.58573	0.0	0.5	7.0813	7.0813	1.15321	1.15321	1846.20127	41464.261	 	0.0
1395.0	0.0	1.0	7.46455	8.04464	-0.0576455	34.76746	30.54975	1.33781	0.74749	0.0	122.72285	0.0	0.5	7.15789	7.15789	1.13746	1.13746	1850.47714	41265.28	39.7962	0.0
1390.0	0.0	1.0	7.46884	8.04002	-0.11513	34.73429	30.46656	1.33744	0.7477	0.0	122.85997	0.0	0.5	7.23577	7.23577	1.12185	1.12185	1854.78291	41066.73	39.71	0.0
1385.0	0.0	1.0	7.47313	8.0354	-0.17245	34.70132	30.38337	1.33707	0.7479	0.0	122.9971	0.0	0.5	7.31497	7.31497	1.10636	1.10636	1859.11818	40868.609	39.6242	0.0
1380.0	0.0	1.0	7.47741	8.0308	-0.22961	34.66856	30.30019	1.3367	0.74811	0.0	123.13422	0.0	0.5	7.39553	7.39553	1.09101	1.09101	1863.48255	40670.914	39.539	0.0
1375.0	0.0	1.0	7.48169	8.02621	-0.28662	34.63602	30.217	1.33632	0.74832	0.0	123.27134	0.0	0.5	7.47747	7.47747	1.07579	1.07579	1867.87558	40473.642	39.4544	0.0
1370.0	0.0	1.0	7.48595	8.02164	-0.34345	34.60369	30.13381	1.33595	0.74853	0.0	123.40847	0.0	0.5	7.56083	7.56083	1.0607	1.0607	1872.29684	40276.791	39.3702	0.0
1365.0	0.0	1.0	7.49021	8.01708	-0.40013	34.57158	30.05062	1.33557	0.74874	0.0	123.54559	0.0	0.5	7.64563	7.64563	1.04575	1.04575	1876.74588	40080.358	39.2866	0.0
1360.0	0.0	1.0	7.49447	8.01253	-0.45665	34.53968	29.96743	1.33519	0.74896	0.0	123.68271	0.0	0.5	7.73192	7.73192	1.03092	1.03092	1881.22223	39884.34	39.2036	0.0
1355.0	0.0	1.0	7.49871	8.00799	-0.51301	34.50801	29.88424	1.33481	0.74917	0.0	123.81984	0.0	0.5	7.81971	7.81971	1.01623	1.01623	1885.72542	39688.735	39.121	0.0
1350.0	0.0	1.0	7.50295	8.00347	-0.5692	34.47657	29.80106	1.33442	0.74939	0.0	123.95696	0.0	0.5	7.90906	7.90906	1.00166	1.00166	1890.25497	39493.54	39.039	0.0
1345.0	0.0	1.0	7.50718	7.99896	-0.62523	34.44535	29.71787	1.33403	0.74961	0.0	124.09408	0.0	0.5	7.99998	7.99998	0.98723	0.98723	1894.81037	39298.753	38.9574	0.0
1343.66	0.0	1.0	7.50832	7.99775	-0.64025	34.437	29.69553	1.33393	0.74966	0.0	124.13091	0.0	0.5	8.02468	8.02468	0.98337	0.98337	1896.03806	39246.512	38.90598	0.0
1340.0	0.0897018	0.9103	7.53963	7.96453	-1.05294	33.33651	29.96666	1.31887	0.75822	0.00657102	126.82566	0.00220663	0.48893	8.09152	10.04578	0.97304	0.78375	1897.2525	37748.009	409.73491	1356.361
1335.0	0.19595	0.80405	7.57732	7.92497	-1.54446	32.03352	30.28876	1.3008	0.76876	0.1531	130.05077	0.0518755	0.47565	8.18513	32.79455	0.95893	0.23934	1898.94484	35956.822	358.2374	2953.569
1330.0	0.28531	0.71469	7.60961	7.89132	-1.96244	30.93536	30.55818	1.28532	0.77801	0.70163	132.80089	0.23958	0.46433	8.28114	116.6211	0.94487	0.067094	1900.67245	34429.669	305.4306	4287.142
1325.0	0.36113	0.63887	7.6376	7.86238	-2.322	30.00003	30.78459	1.27189	0.78623	1.83136	135.16926	0.6295	0.45461	8.37967	295.12537	0.93084	0.02643	1902.44014	33114.449	263.044	5409.179
1320.0	0.42598	0.57402	7.66198	7.83731	-2.63346	29.19909	30.97471	1.26013	0.79357	3.59727	137.22544	1.24369	0.44621	8.48068	587.60565	0.91688	0.013233	1904.25161	31970.855	228.7188	6359.985
1315.0	0.48184	0.51816	7.6834	7.81537	-2.90601	28.50691	31.13366	1.24976	0.80015	5.96441	139.02604	2.07257	0.43889	8.5843	1001.99144	0.90297	0.00773596	1906.10586	30967.4	200.691	7171.046
1310.0	0.53028	0.46972	7.70238	7.79601	-3.14648	27.90448	31.26581	1.24056	0.80609	8.84943	140.61526	3.08884	0.43248	8.69052	1539.37377	0.88913	0.00501955	1908.00681	30079.261	177.6278	7867.181
1305.0	0.57255	0.42745	7.71927	7.77882	-3.36013	27.37722	31.37478	1.23235	0.81146	12.14814	142.02723	4.257	0.42684	8.7993	2197.09419	0.87536	0.00350579	1909.95567	29286.706	158.511	8468.12
1300.0	0.60962	0.39038	7.73441	7.76343	-3.55128	26.91313	31.46326	1.22499	0.81633	15.75729	143.29088	5.54114	0.42185	8.91081	2971.56165	0.86167	0.00258388	1911.95289	28573.921	142.557	8989.674
1295.0	0.6423	0.3577	7.74807	7.74956	-3.72364	26.50175	31.53374	1.21837	0.82077	19.58071	144.4288	6.90727	0.4174	9.02512	3858.96214	0.84805	0.00198337	1914.00008	27928.138	129.1566	9444.61
1290.0	0.67126	0.32874	7.76043	7.73701	-3.87954	26.13673	31.58865	1.21237	0.82483	23.53704	145.45994	8.32626	0.41342	9.14201	4856.80691	0.83454	0.00157086	1916.09537	27338.973	117.833	9843.308
1285.0	0.69704	0.30296	7.77172	7.72554	-4.02196	25.80959	31.62954	1.20693	0.82855	27.55643	146.39919	9.77282	0.40985	9.26184	5963.16326	0.8211	0.00127532	1918.24139	26797.929	108.2088	10194.265
1280.0	0.72005	0.27995	7.78206	7.71502	-4.15274	25.5152	31.65824	1.20197	0.83197	31.58911	147.26021	11.22869	0.40663	9.38459	7178.9414	0.80776	0.00105594	1920.43714	26298.004	99.985	10504.479
1275.0	0.7407	0.2593	7.79158	7.70531	-4.27334	25.24947	31.67609	1.19742	0.83513	35.58884	148.05279	12.67676	0.4037	9.51034	8504.84888	0.79452	8.8845E-4	1922.68226	25833.395	92.9218	10779.751
1270.0	0.75927	0.24073	7.80036	7.69632	-4.38499	25.00903	31.68431	1.19325	0.83805	39.52292	148.78539	14.10477	0.40105	9.63888	9943.70511	0.78139	7.57437E-4	1924.9757	25399.267	86.8256	11024.914
1265.0	0.77605	0.22395	7.80853	7.68795	-4.48904	24.79003	31.68404	1.18939	0.84077	43.37254	149.46696	15.50546	0.39862	9.77054	11500.86211	0.76836	6.52762E-4	1927.31727	24991.571	81.5392	11244.015
1260.0	0.79125	0.20875	7.81614	7.68013	-4.58619	24.59053	31.67607	1.18582	0.8433	47.11673	150.10282	16.87078	0.3964	9.9054	13181.20982	0.75544	5.67696E-4	1929.7052	24606.893	76.9356	11440.466
1255.0	0.80506	0.19494	7.82326	7.67277	-4.67764	24.40708	31.66133	1.1825	0.84566	50.74657	150.69845	18.19714	0.39436	10.04341	14992.17745	0.74263	4.97494E-4	1932.14083	24242.347	72.9092	11617.15
1250.0	0.81765	0.18235	7.82996	7.66582	-4.76397	24.23807	31.64053	1.17941	0.84788	54.25377	151.25834	19.48113	0.39247	10.18467	16941.8177	0.72993	4.38803E-4	1934.62303	23895.477	69.374	11776.521
1245.0	0.82916	0.17084	7.83626	7.65927	-4.84529	24.08333	31.61428	1.17651	0.84997	57.636	151.78726	20.72154	0.39073	10.32925	19040.54906	0.71735	3.89154E-4	1937.14658	23564.189	66.2576	11920.672
1240.0	0.8397	0.1603	7.84222	7.65302	-4.92292	23.9389	31.58313	1.1738	0.85194	60.89085	152.28732	21.91727	0.38911	10.47727	21298.48172	0.70489	3.46753E-4	1939.71738	23246.686	63.5006	12051.397
1235.0	0.84939	0.15061	7.84787	7.6471	-4.99647	23.80611	31.54762	1.17124	0.8538	64.02179	152.76284	23.06925	0.3876	10.62863	23729.45878	0.69255	3.10201E-4	1942.32672	22941.421	61.053	12170.241
1230.0	0.85829	0.14171	7.85325	7.64144	-5.06685	23.68225	31.50814	1.16881	0.85557	67.02904	153.21573	24.17738	0.38619	10.78367	26346.36574	0.68033	2.78464E-4	1944.97838	22647.058	58.8726	12278.538
1225.0	0.86651	0.13349	7.85838	7.636	-5.13443	23.56626	31.46505	1.16652	0.85725	69.91625	153.64794	25.24279	0.38488	10.94228	29164.68332	0.66824	2.50718E-4	1947.67179	22362.436	56.9244	12377.446
1220.0	0.87412	0.12588	7.86329	7.63078	-5.19929	23.45795	31.41872	1.16434	0.85885	72.68716	154.06177	26.26665	0.38364	11.10473	32201.48777	0.65627	2.26315E-4	1950.40382	22086.549	55.1774	12467.971
1215.0	0.88117	0.11883	7.86799	7.62576	-5.26163	23.35686	31.36945	1.16227	0.86039	75.34571	154.45886	27.25025	0.38248	11.27083	35475.47587	0.64443	2.04741E-4	1953.17206	21818.515	53.6068	12550.992
1210.0	0.88771	0.11229	7.87251	7.6209	-5.32195	23.26136	31.31752	1.16028	0.86186	77.90013	154.84087	28.19648	0.38138	11.44087	39008.3816	0.63272	1.85573E-4	1955.97856	21557.562	52.1906	12627.278
1205.0	0.89379	0.10621	7.87686	7.61622	-5.38017	23.17185	31.26317	1.15838	0.86327	80.35186	155.20899	29.10574	0.38034	11.61491	42821.87113	0.62114	1.68477E-4	1958.81867	21303.014	50.9096	12697.505
1200.0	0.89947	0.10053	7.88106	7.61167	-5.43668	23.08715	31.20657	1.15656	0.86464	82.70595	155.56431	29.97978	0.37936	11.79305	46940.47574	0.60969	1.53174E-4	1961.69447	21054.272	49.7484	12762.268
1195.55	0.90419	0.0958122	7.88468	7.60773	-5.4856	23.01563	31.15449	1.15499	0.86581	84.72476	155.87088	30.73012	0.37853	11.95519	50886.88015	0.5996	1.40868E-4	1964.28037	20837.361	 	12815.677
1195.01	0.9049	0.0950989	7.88518	7.60715	-5.49286	23.00266	31.15054	1.15471	0.86602	84.98104	155.91641	30.82587	0.3784	11.98262	51426.23143	0.59801	1.39339E-4	1964.69529	20808.436	 	12824.687
1195.0	0.90491	0.0950881	7.88519	7.60714	-5.49291	23.00258	31.1505	1.15471	0.86602	84.985	155.91699	30.82734	0.3784	11.98287	51432.72077	0.59799	1.39321E-4	1964.69919	20808.113	49.2318	12824.79
1193.71	0.90651	0.0934882	7.8864	7.60575	-5.51025	22.97149	31.13473	1.15427	0.86635	85.5823	156.01918	31.05061	0.37811	12.04936	52731.77484	0.59417	1.35769E-4	1965.68993	20738.52	 	12846.92
1190.0	0.91119	0.0888146	7.88825	7.59956	-5.58718	22.79287	30.90997	1.15973	0.86227	87.36246	156.01012	31.72507	0.37687	12.19891	56659.47968	0.5854	1.26038E-4	1969.70932	20401.601	81.3024	12922.182
1185.0	0.91698	0.0830193	7.90155	7.59013	-5.70423	22.50647	30.49928	1.17133	0.85373	89.94355	155.8677	32.71299	0.37474	12.40611	63885.18845	0.57366	1.11401E-4	1975.12874	19939.81555	92.35709	13015.204
1180.0	0.92223	0.0777714	7.91378	7.58116	-5.8157	22.23602	30.114	1.18225	0.84585	92.3426	155.71986	33.63383	0.37276	12.61882	71866.24055	0.56205	9.86898E-5	1980.53751	19495.40594	88.88192	13099.254
1175.0	0.92701	0.0729873	7.92507	7.57259	-5.92224	21.97957	29.74977	1.1926	0.8385	94.58136	155.57142	34.49536	0.37093	12.83799	80683.68411	0.55056	8.76021E-5	1985.93969	19066.80447	85.72029	13175.499
1170.0	0.93139	0.0686097	7.93551	7.56438	-6.02421	21.73607	29.40816	1.20229	0.83175	96.67843	155.42556	35.30421	0.36922	13.06348	90427.47353	0.53919	7.78929E-5	1991.33444	18652.65173	82.83055	13244.91
1165.0	0.93541	0.0645899	7.94518	7.55652	-6.12187	21.50486	29.08582	1.2114	0.82549	98.64852	155.28468	36.06565	0.36762	13.29556	101196.1511	0.52794	6.93628E-5	1996.71929	18251.75766	80.17881	13308.308
1160.0	0.93912	0.0608843	7.95414	7.54897	-6.21557	21.2849	28.78093	1.21998	0.81969	100.50615	155.15051	36.78492	0.36613	13.53461	113100.8543	0.51681	6.18461E-5	2002.09342	17863.07444	77.73664	13366.39
1155.0	0.94254	0.0574577	7.96248	7.54172	-6.3057	21.07506	28.49196	1.22805	0.8143	102.2643	155.02392	37.46675	0.36473	13.78054	126263.109	0.50582	5.52057E-5	2007.45876	17485.67213	75.48046	13419.752
1150.0	0.94572	0.0542782	7.97025	7.53473	-6.39251	20.87459	28.2175	1.23566	0.80929	103.93427	154.9056	38.11528	0.36342	14.03398	140817.4749	0.49494	4.93266E-5	2012.81485	17118.71926	73.39057	13468.906
1145.0	0.94868	0.0513201	7.97749	7.528	-6.47615	20.68311	27.95635	1.24282	0.80462	105.52607	154.79615	38.73415	0.36218	14.29484	156915.641	0.48421	4.41106E-5	2018.15723	16761.47033	71.44979	13514.295
1140.0	0.95144	0.0485609	7.98427	7.52149	-6.55696	20.49958	27.70739	1.24956	0.80028	107.0494	154.69571	39.32694	0.36102	14.56369	174724.3518	0.47359	3.94749E-5	2023.48854	16413.25027	69.64401	13556.306
1135.0	0.95402	0.0459803	7.99063	7.5152	-6.63514	20.32347	27.46965	1.25592	0.79623	106.95801	154.57651	39.32517	0.35992	14.84061	194427.8182	0.46311	3.5349E-5	2028.80806	16073.45074	67.95991	13595.279
1130.0	0.95644	0.043561	7.9966	7.50911	-6.71082	20.15435	27.24223	1.26191	0.79245	108.63056	154.49343	39.97073	0.35888	15.12589	216232.7719	0.45276	3.16715E-5	2034.11318	15741.5136	66.38743	13631.51
1125.0	0.95871	0.0412882	8.00222	7.5032	-6.78428	19.99139	27.02433	1.26755	0.78892	110.20537	154.41943	40.57966	0.35789	15.4201	240368.4859	0.44254	2.83898E-5	2039.40681	15416.93118	64.91648	13665.265
1120.0	0.96085	0.0391488	8.00752	7.49746	-6.85557	19.83451	26.81523	1.27287	0.78563	111.7023	154.35431	41.15927	0.35695	15.7231	267091.5577	0.43246	2.5458E-5	2044.68323	15099.23672	63.53889	13696.779
1115.0	0.96287	0.03713	8.01254	7.49188	-6.92492	19.68296	26.61427	1.27787	0.78255	113.13547	154.29781	41.71474	0.35606	16.03573	296684.5821	0.42251	2.28364E-5	2049.94594	14787.99869	62.24761	13726.262
1110.0	0.96478	0.035222	8.0173	7.48644	-6.99251	19.53622	26.42086	1.28259	0.77967	114.51782	154.24969	42.2509	0.35521	16.35822	329466.5262	0.41269	2.04901E-5	2055.19559	14482.82016	61.03571	13753.906
1100.0	0.96961	0.0303933	8.0261	7.47515	-7.13271	19.22082	26.05215	1.29134	0.77439	118.00744	154.24148	43.5966	0.3534	17.08032	408291.8724	0.39238	1.64147E-5	2065.39953	13856.07534	62.67448	13837.464
1095.0	0.97188	0.028119	8.03011	7.46968	-7.20074	19.06828	25.87686	1.29535	0.77199	119.75362	154.25104	44.26962	0.35255	17.46403	454400.2848	0.38236	1.46954E-5	2070.45035	13549.80696	61.25368	13877.717
1090.0	0.97396	0.0260436	8.03389	7.46438	-7.26658	18.92214	25.70732	1.29913	0.76975	121.43548	154.26363	44.91798	0.35175	17.85878	505413.5493	0.37254	1.31639E-5	2075.49072	13250.89776	59.78184	13914.106
1085.0	0.97586	0.0241419	8.03748	7.45923	-7.33044	18.78174	25.54313	1.30269	0.76764	123.06699	154.27968	45.54692	0.35099	18.26452	561891.9881	0.36293	1.17973E-5	2080.51875	12958.69623	58.44031	13947.12
1080.0	0.97761	0.0223935	8.04088	7.45424	-7.39254	18.64638	25.38396	1.30603	0.76568	124.65602	154.29936	46.15943	0.35028	18.68201	624453.2175	0.35352	1.05763E-5	2085.53894	12672.64023	57.2112	13977.175
1075.0	0.97922	0.0207809	8.04413	7.44937	-7.45296	18.51585	25.22949	1.30917	0.76384	126.20768	154.32287	46.75743	0.3496	19.11115	693792.0007	0.3443	9.48409E-6	2090.5453	12392.23345	56.08136	14004.624
1070.0	0.98071	0.0192888	8.04724	7.44463	-7.51188	18.3895	25.0794	1.31212	0.76213	127.72528	154.35034	47.34222	0.34896	19.55205	770687.1017	0.33529	8.50615E-6	2095.54099	12117.04198	55.03829	14029.766
1065.0	0.98209	0.0179052	8.05022	7.44	-7.56937	18.26719	24.93343	1.31489	0.76052	129.208	154.3819	47.91353	0.34835	20.00539	856007.3269	0.32647	7.62982E-6	2100.52035	11846.67892	54.07261	14052.86
1060.0	0.98338	0.0166171	8.05309	7.43548	-7.62559	18.14839	24.79134	1.31748	0.75902	130.65289	154.4175	48.47032	0.34776	20.4715	950720.2264	0.31785	6.84405E-6	2105.49053	11580.80299	53.17519	14074.128
1055.0	0.98458	0.0154157	8.05587	7.43105	-7.68062	18.03285	24.65286	1.31991	0.75762	132.05889	154.45727	49.01222	0.3472	20.95017	1055928.841	0.30942	6.13902E-6	2110.44519	11319.1051	52.33958	14093.763
1050.0	0.98571	0.0142923	8.05855	7.42671	-7.7345	17.92045	24.51254	1.32247	0.75616	133.41908	154.5011	49.53668	0.34667	21.44309	1172844.946	0.30117	5.50624E-6	2115.38434	11061.31007	51.55901	14111.932
1045.0	0.98676	0.0132402	8.06116	7.42246	-7.78736	17.81073	24.3723	1.32506	0.75468	134.73188	154.54902	50.04315	0.34616	21.94904	1302852.969	0.29311	4.93806E-6	2120.31161	10807.16822	50.82837	14128.782
1040.0	0.98775	0.012252	8.0637	7.41828	-7.83922	17.70371	24.24324	1.32706	0.75355	135.99184	154.60098	50.52961	0.34566	22.46993	1447492.071	0.28523	4.42777E-6	2125.21934	10556.45115	50.14341	14144.441
1035.0	0.98868	0.0113231	8.06617	7.41418	-7.89019	17.59897	24.11712	1.32892	0.75249	137.19738	154.65694	50.99551	0.34519	23.00543	1608502.981	0.27753	3.96938E-6	2130.11436	10308.95535	49.49916	14159.021
1030.0	0.98955	0.010447	8.06859	7.41015	-7.9403	17.49647	23.99379	1.33064	0.75152	138.34598	154.71682	51.4399	0.34473	23.5562	1787835.108	0.27001	3.55757E-6	2134.99412	10064.49196	48.89268	14172.623
1025.0	0.99038	0.00961927	8.07097	7.40618	-7.98961	17.39602	23.87309	1.33224	0.75062	139.43855	154.78062	51.86314	0.34429	24.123	1987703.873	0.26265	3.18757E-6	2139.85242	9822.88752	48.32089	14185.335
1020.0	0.99116	0.00883671	8.0733	7.40227	-8.03814	17.29749	23.75489	1.33371	0.74979	140.47326	154.84818	52.26456	0.34387	24.70606	2210567.15	0.25547	2.85517E-6	2144.6975	9583.98476	47.78055	14197.233
1015.0	0.9919	0.008096	8.07559	7.39842	-8.08598	17.20067	23.63907	1.33506	0.74903	141.45432	154.91952	52.64573	0.34345	25.30638	2459246.683	0.24844	2.55653E-6	2149.52454	9347.63823	47.26931	14208.391
1010.0	0.99273	0.00727219	8.07783	7.39463	-8.13301	17.10596	23.52635	1.33625	0.74836	142.39633	154.99533	53.0127	0.34304	25.92549	2737891.366	0.24157	2.28743E-6	2154.33863	9111.86524	47.1546	14220.718
1005.0	0.99449	0.00550672	8.07995	7.39098	-8.17838	17.01677	23.42228	1.33696	0.74796	143.39206	155.08042	53.40434	0.34251	26.57536	3058139.92	0.23474	2.03991E-6	2159.22777	8863.59054	49.65494	14247.22
1000.0	0.99608	0.00391969	8.08203	7.3874	-8.2229	16.93	23.3194	1.33761	0.7476	144.48676	155.16701	53.83192	0.34202	27.24809	3415653.1	0.22805	1.81925E-6	2164.09609	8619.83319	48.75147	14270.813
995.0	0.99751	0.002487	8.08407	7.38387	-8.2667	16.84515	23.21779	1.33818	0.74728	145.96704	155.25549	54.40244	0.34155	27.94361	3815158.636	0.2215	1.62235E-6	2168.94814	8380.10335	47.94597	14291.925
990.0	0.99881	0.00118667	8.0861	7.3804	-8.30979	16.7622	23.11764	1.33868	0.747	147.48395	155.34607	54.98604	0.3411	28.66387	4261961.471	0.21508	1.44655E-6	2173.77512	8143.9901	47.22265	14310.908
985.0	1.0	0.0	8.08809	7.37698	-8.35228	16.68079	23.01852	1.33913	0.74676	148.58773	155.43901	55.41508	0.34068	 	4762115.816	 	1.28949E-6	 	7911.14729	46.56856	14328.052
980.0	1.0	0.0	8.09149	7.37389	-8.39074	16.61463	22.91532	1.33981	0.74637	148.90213	155.48414	55.54438	0.34039	 	5353701.232	 	1.14245E-6	 	7992.6075	-16.29204	 
975.0	1.0	0.0	8.09486	7.37082	-8.42886	16.54909	22.81387	1.3404	0.74605	149.21579	155.5333	55.67325	0.3401	 	6024692.186	 	1.01116E-6	 	7797.64394	38.99271	 
970.0	1.0	0.0	8.0982	7.36778	-8.46667	16.48414	22.71409	1.34089	0.74577	149.52884	155.58641	55.80174	0.33982	 	6786522.302	 	8.94052E-7	 	7603.81751	38.76529	 
965.0	1.0	0.0	8.10152	7.36476	-8.50417	16.41975	22.61591	1.3413	0.74555	149.84141	155.64337	55.92992	0.33955	 	7652381.75	 	7.89702E-7	 	7411.08582	38.54634	 
960.0	1.0	0.0	8.10482	7.36176	-8.54138	16.35589	22.51928	1.34161	0.74537	150.15361	155.70409	56.05781	0.33927	 	8637503.819	 	6.9681E-7	 	7219.4084	38.33548	 
955.0	1.0	0.0	8.10809	7.35879	-8.57829	16.29251	22.42413	1.34184	0.74524	150.46556	155.76848	56.18549	0.33901	 	9759501.083	 	6.14201E-7	 	7028.7466	38.13236	 
950.0	1.0	0.0	8.11134	7.35584	-8.61493	16.22959	22.3304	1.34199	0.74516	150.77734	155.83646	56.31298	0.33874	 	1.103875968E7	 	5.40812E-7	 	6839.06348	37.93662	 
945.0	1.0	0.0	8.11457	7.35292	-8.6513	16.16709	22.23804	1.34205	0.74513	151.08906	155.90795	56.44034	0.33848	 	1.249890342E7	 	4.75681E-7	 	6650.32373	37.74795	 
940.0	1.0	0.0	8.11778	7.35001	-8.68742	16.105	22.14701	1.34204	0.74513	151.40081	155.98287	56.56759	0.33823	 	1.416733927E7	 	4.17939E-7	 	6462.49355	37.56603	 
935.0	1.0	0.0	8.12097	7.34712	-8.72328	16.04327	22.05725	1.34195	0.74519	151.71267	156.06115	56.69478	0.33798	 	1.60759002E7	 	3.66802E-7	 	6275.54063	37.39058	 
930.0	1.0	0.0	8.12414	7.34425	-8.7589	15.98189	21.96872	1.34178	0.74528	152.02471	156.14272	56.82194	0.33773	 	1.826160394E7	 	3.21564E-7	 	6089.434	37.22133	 
925.0	1.0	0.0	8.12729	7.34141	-8.79428	15.92082	21.88138	1.34154	0.74541	152.33701	156.2275	56.9491	0.33748	 	2.076754852E7	 	2.81587E-7	 	5904.14401	37.058	 
920.0	1.0	0.0	8.13042	7.33858	-8.82943	15.86004	21.79519	1.34122	0.74559	152.64963	156.31543	57.0763	0.33724	 	2.364397185E7	 	2.46298E-7	 	5719.64224	36.90035	 
915.0	1.0	0.0	8.13354	7.33577	-8.86436	15.79953	21.71011	1.34084	0.7458	152.96265	156.40644	57.20355	0.337	 	2.694950568E7	 	2.15183E-7	 	5535.90144	36.74816	 
910.0	1.0	0.0	8.13664	7.33297	-8.89908	15.73926	21.6261	1.34038	0.74606	153.27611	156.50048	57.33089	0.33677	 	3.075266285E7	 	1.87778E-7	 	5352.89549	36.60119	 
905.0	1.0	0.0	8.13972	7.33019	-8.93359	15.67921	21.54314	1.33985	0.74635	153.59008	156.59748	57.45835	0.33653	 	3.513360239E7	 	1.63668E-7	 	5170.59927	36.45924	 
900.0	1.0	0.0	8.14279	7.32743	-8.96789	15.61935	21.4612	1.33926	0.74668	153.90461	156.69739	57.58594	0.3363	 	4.018622781E7	 	1.42483E-7	 	4988.98872	36.32211	 
895.0	1.0	0.0	8.14584	7.32469	-9.002	15.55967	21.38023	1.3386	0.74705	154.21975	156.80014	57.71368	0.33608	 	4.602068336E7	 	1.23889E-7	 	4808.0407	36.1896	 
890.0	1.0	0.0	8.14888	7.32196	-9.03592	15.50015	21.30022	1.33788	0.74745	154.53553	156.90568	57.84161	0.33585	 	5.276633097E7	 	1.07588E-7	 	4627.73298	36.06154	 
885.0	1.0	0.0	8.1519	7.31924	-9.06965	15.44075	21.22113	1.3371	0.74789	154.852	157.01396	57.96973	0.33563	 	6.057529975E7	 	9.3316E-8	 	4448.04419	35.93776	 
880.0	1.0	0.0	8.15491	7.31654	-9.1032	15.38147	21.14295	1.33625	0.74837	155.16921	157.12493	58.09806	0.33541	 	6.962672912E7	 	8.08345E-8	 	4268.95364	35.81811	 
875.0	1.0	0.0	8.15791	7.31385	-9.13658	15.32228	21.06565	1.33533	0.74888	155.48719	157.23854	58.22663	0.33519	 	8.013184752E7	 	6.99327E-8	 	4090.44152	35.70242	 
870.0	1.0	0.0	8.16089	7.31118	-9.16978	15.26316	20.9892	1.33436	0.74942	155.80596	157.35474	58.35544	0.33497	 	9.234005109E7	 	6.04227E-8	 	3912.4891	35.59049	 
865.0	1.0	0.0	8.16386	7.30852	-9.20282	15.2041	20.91359	1.33333	0.75	156.12556	157.47348	58.48451	0.33476	 	1.065462031E8	 	5.21373E-8	 	3735.07806	35.48221	 
860.0	1.0	0.0	8.16682	7.30588	-9.23569	15.14508	20.83879	1.33224	0.75062	156.44602	157.59471	58.61386	0.33455	 	1.230994009E8	 	4.49281E-8	 	3558.19083	35.37745	 
855.0	1.0	0.0	8.16976	7.30324	-9.2684	15.08607	20.76478	1.33108	0.75127	156.76737	157.7184	58.74349	0.33434	 	1.424135232E8	 	3.86636E-8	 	3381.81044	35.27608	 
850.0	1.0	0.0	8.17269	7.30062	-9.30096	15.02707	20.69156	1.32987	0.75195	157.08962	157.84449	58.87341	0.33413	 	1.649799387E8	 	3.32272E-8	 	3205.92058	35.17797	 
845.0	1.0	0.0	8.17494	7.29861	-9.32592	15.00268	20.63152	1.32781	0.75312	157.41805	158.04353	59.00258	0.33399	 	1.87277778E8	 	2.91407E-8	 	3058.49879	29.48436	 
840.0	1.0	0.0	8.17719	7.29661	-9.35081	14.97829	20.57146	1.32573	0.7543	157.74597	158.24178	59.13158	0.33386	 	2.128315198E8	 	2.55273E-8	 	2908.25925	30.04791	 
835.0	1.0	0.0	8.17943	7.29461	-9.37564	14.9539	20.5114	1.32364	0.75549	158.07338	158.43926	59.26041	0.33372	 	2.421513685E8	 	2.23356E-8	 	2758.21179	30.00949	 
830.0	1.0	0.0	8.18166	7.29262	-9.40041	14.9295	20.45131	1.32154	0.75669	158.40027	158.63595	59.38907	0.33358	 	2.758328639E8	 	1.95198E-8	 	2608.35566	29.97123	 
825.0	1.0	0.0	8.1839	7.29063	-9.42511	14.9051	20.39122	1.31942	0.75791	158.72665	158.83187	59.51757	0.33344	 	3.145720476E8	 	1.70384E-8	 	2458.69008	29.93312	 
820.0	1.0	0.0	8.18612	7.28865	-9.44975	14.8807	20.33111	1.3173	0.75913	159.05252	159.02702	59.64589	0.33331	 	3.591834823E8	 	1.48542E-8	 	2309.21422	29.89517	 
815.0	1.0	0.0	8.18835	7.28667	-9.47433	14.8563	20.27099	1.31516	0.76036	159.37787	159.2214	59.77404	0.33317	 	4.106216921E8	 	1.2934E-8	 	2159.92726	29.85739	 
810.0	1.0	0.0	8.19056	7.28469	-9.49884	14.8319	20.21085	1.31302	0.76161	159.7027	159.415	59.90203	0.33303	 	4.700067056E8	 	1.12479E-8	 	2010.82833	29.81979	 
805.0	1.0	0.0	8.19278	7.28273	-9.52329	14.8075	20.1507	1.31086	0.76286	160.02703	159.60784	60.02984	0.3329	 	5.386545345E8	 	9.76912E-9	 	1861.91651	29.78236	 
800.0	1.0	0.0	8.19499	7.28076	-9.54768	14.78309	20.09054	1.30868	0.76413	160.35084	159.79991	60.15749	0.33276	 	6.181135891E8	 	8.47381E-9	 	1713.19087	29.74513	 
795.0	1.0	0.0	8.19719	7.27881	-9.572	14.75869	20.03036	1.3065	0.7654	160.67413	159.99122	60.28497	0.33262	 	7.102082551E8	 	7.34063E-9	 	1564.65041	29.70809	 
790.0	1.0	0.0	8.19939	7.27685	-9.59626	14.73428	19.97016	1.3043	0.76669	160.99692	160.18176	60.41227	0.33249	 	8.170911126E8	 	6.35054E-9	 	1416.29411	29.67126	 
785.0	1.0	0.0	8.20158	7.27491	-9.62045	14.70987	19.90995	1.3021	0.76799	161.31919	160.37155	60.53941	0.33235	 	9.413056086E8	 	5.4866E-9	 	1268.12092	29.63464	 
780.0	1.0	0.0	8.20377	7.27296	-9.64458	14.68545	19.84973	1.29988	0.7693	161.64094	160.56058	60.66638	0.33221	 	1.085861387E9	 	4.73372E-9	 	1120.12972	29.59824	 
775.0	1.0	0.0	8.20596	7.27103	-9.66865	14.66104	19.78949	1.29764	0.77063	161.96218	160.74886	60.79318	0.33208	 	1.254324975E9	 	4.0785E-9	 	972.31932	29.56208	 
770.0	1.0	0.0	8.20814	7.26909	-9.69265	14.63662	19.72924	1.2954	0.77196	162.28291	160.93638	60.91981	0.33194	 	1.450929118E9	 	3.50903E-9	 	824.68852	29.52616	 
765.0	1.0	0.0	8.21032	7.26717	-9.71659	14.61221	19.66896	1.29314	0.77331	162.60313	161.12315	61.04626	0.3318	 	1.680704824E9	 	3.01478E-9	 	677.23605	29.49049	 
760.0	1.0	0.0	8.21249	7.26525	-9.74046	14.58779	19.60868	1.29087	0.77467	162.92283	161.30917	61.17255	0.33167	 	1.949641064E9	 	2.5864E-9	 	529.96057	29.4551	 
755.0	1.0	0.0	8.21466	7.26333	-9.76427	14.56337	19.54837	1.28858	0.77605	163.24202	161.49445	61.29867	0.33153	 	2.264878261E9	 	2.21564E-9	 	382.86067	29.41998	 
750.0	1.0	0.0	8.21682	7.26142	-9.78802	14.53894	19.48805	1.28628	0.77743	163.56069	161.67898	61.42462	0.33139	 	2.634943077E9	 	1.8952E-9	 	235.93491	29.38515	 
745.0	1.0	0.0	8.21898	7.25951	-9.81171	14.51452	19.42772	1.28397	0.77883	163.87885	161.86277	61.5504	0.33126	 	3.070033813E9	 	1.61866E-9	 	89.18173	29.35064	 
740.0	1.0	0.0	8.22113	7.25761	-9.83533	14.49009	19.36737	1.28165	0.78024	164.1965	162.04581	61.67601	0.33112	 	3.582367899E9	 	1.38035E-9	 	-57.4005	29.31644	 
735.0	1.0	0.0	8.22328	7.25571	-9.85888	14.46566	19.30699	1.27931	0.78167	164.51363	162.22812	61.80144	0.33099	 	4.186605717E9	 	1.1753E-9	 	-203.81345	29.28259	 
730.0	1.0	0.0	8.22542	7.25382	-9.88238	14.44124	19.24661	1.27696	0.78311	164.83025	162.40969	61.92671	0.33085	 	4.900368425E9	 	9.99134E-10	 	-350.05892	29.24909	 
725.0	1.0	0.0	8.22756	7.25194	-9.90581	14.4168	19.1862	1.2746	0.78456	165.14635	162.59053	62.05181	0.33071	 	5.744871745E9	 	8.48012E-10	 	-496.13879	29.21597	 
720.0	1.0	0.0	8.2297	7.25006	-9.92917	14.39237	19.12578	1.27222	0.78603	165.46194	162.77063	62.17674	0.33058	 	6.745703072E9	 	7.18579E-10	 	-642.05505	29.18325	 
715.0	1.0	0.0	8.23182	7.24818	-9.95247	14.36794	19.06534	1.26983	0.78751	165.77702	162.95	62.30149	0.33044	 	7.933776045E9	 	6.07896E-10	 	-787.8098	29.15095	 
710.0	1.0	0.0	8.23395	7.24631	-9.97571	14.3435	19.00488	1.26742	0.789	166.09159	163.12864	62.42608	0.33031	 	9.346505269E9	 	5.13402E-10	 	-933.40522	29.11908	 
705.0	1.0	0.0	8.23607	7.24444	-9.99888	14.31906	18.9444	1.265	0.79051	166.40564	163.30656	62.55049	0.33017	 	1.10293E10	 	4.32859E-10	 	-1078.84365	29.08769	 
700.0	1.0	0.0	8.23819	7.24258	-10.02199	14.29462	18.8839	1.26257	0.79204	166.71917	163.48375	62.67474	0.33003	 	1.3037099999999998E10	 	3.64321E-10	 	-1224.12754	29.05678	 
695.0	1.0	0.0	8.2403	7.24073	-10.04504	14.27018	18.82338	1.26012	0.79358	167.0322	163.66022	62.79881	0.3299	 	1.5437199999999998E10	 	3.06099E-10	 	-1369.25949	29.02639	 
690.0	1.0	0.0	8.2424	7.23888	-10.06802	14.24574	18.76285	1.25765	0.79513	167.34471	163.83596	62.92271	0.32976	 	1.83112E10	 	2.56723E-10	 	-1514.24226	28.99655	 
685.0	1.0	0.0	8.2445	7.23703	-10.09094	14.22129	18.70229	1.25518	0.7967	167.6567	164.01099	63.04644	0.32963	 	2.17589E10	 	2.14923E-10	 	-1659.07872	28.96729	 
680.0	1.0	0.0	8.2466	7.2352	-10.1138	14.19685	18.64171	1.25268	0.79829	167.96819	164.1853	63.17	0.32949	 	2.5902699999999996E10	 	1.79598E-10	 	-1803.77198	28.93865	 
675.0	1.0	0.0	8.24869	7.23336	-10.13659	14.1724	18.58111	1.25018	0.79989	168.27915	164.35889	63.29339	0.32936	 	3.0892399999999996E10	 	1.498E-10	 	-1948.32529	28.91066	 
670.0	1.0	0.0	8.25078	7.23153	-10.15931	14.14795	18.5205	1.24765	0.8015	168.58961	164.53177	63.41661	0.32922	 	3.69121E10	 	1.24709E-10	 	-2092.74209	28.88336	 
665.0	1.0	0.0	8.25286	7.22971	-10.18198	14.1235	18.45986	1.24512	0.80314	168.89955	164.70394	63.53965	0.32909	 	4.41886E10	 	1.03621E-10	 	-2237.02606	28.85679	 
660.0	1.0	0.0	8.25494	7.22789	-10.20458	14.09904	18.3992	1.24256	0.80479	169.20898	164.8754	63.66253	0.32895	 	5.300169999999999E10	 	8.59307E-11	 	-2381.1708	28.82895	 
655.0	1.0	0.0	8.25701	7.22607	-10.22711	14.07459	18.33852	1.24	0.80645	169.51789	165.04615	63.78523	0.32882	 	6.369709999999999E10	 	7.11189E-11	 	-2525.11909	28.78966	 
650.0	1.0	0.0	8.25908	7.22427	-10.24958	14.05013	18.27781	1.23741	0.80814	169.82629	165.21619	63.90776	0.32868	 	7.67034E10	 	5.87414E-11	 	-2668.79501	28.73518	 
645.0	1.0	0.0	8.26114	7.22246	-10.27199	14.02567	18.21708	1.23481	0.80984	170.13418	165.38553	64.03012	0.32855	 	9.25525E10	 	4.84186E-11	 	-2812.19977	28.68095	 
640.0	1.0	0.0	8.2632	7.22066	-10.29434	14.00121	18.15633	1.2322	0.81156	170.44155	165.55416	64.15231	0.32841	 	1.11906E11	 	3.98267E-11	 	-2955.33458	28.62696	 
635.0	1.0	0.0	8.26525	7.21887	-10.31662	13.97675	18.09556	1.22957	0.8133	170.74841	165.7221	64.27433	0.32828	 	1.35591E11	 	3.269E-11	 	-3098.20061	28.57321	 
630.0	1.0	0.0	8.2673	7.21708	-10.33883	13.95229	18.03477	1.22692	0.81505	171.05475	165.88934	64.39618	0.32814	 	1.64637E11	 	2.67743E-11	 	-3240.79909	28.5197	 
625.0	1.0	0.0	8.26934	7.2153	-10.36098	13.92782	17.97395	1.22425	0.81682	171.36058	166.05588	64.51785	0.32801	 	2.00339E11	 	2.18812E-11	 	-3383.13138	28.46646	 
620.0	1.0	0.0	8.27138	7.21352	-10.38307	13.90335	17.9131	1.22157	0.81862	171.6659	166.22172	64.63935	0.32787	 	2.44318E11	 	1.78425E-11	 	-3525.19912	28.41355	 
615.0	1.0	0.0	8.27341	7.21175	-10.4051	13.87888	17.85223	1.21888	0.82043	171.9707	166.38687	64.76068	0.32774	 	2.98619E11	 	1.45163E-11	 	-3667.00326	28.36083	 
610.0	1.0	0.0	8.27544	7.20998	-10.42706	13.85441	17.79134	1.21616	0.82226	172.27499	166.55133	64.88183	0.32761	 	3.65819E11	 	1.1783E-11	 	-3808.54499	28.30835	 
605.0	1.0	0.0	8.27746	7.20822	-10.44895	13.82994	17.73042	1.21343	0.82411	172.57876	166.7151	65.00282	0.32747	 	4.49177E11	 	9.54196E-12	 	-3949.82551	28.2561	 
600.0	1.0	0.0	8.27948	7.20646	-10.47079	13.80547	17.66948	1.21069	0.82598	172.88202	166.87818	65.12363	0.32734	 	5.5283E11	 	7.70876E-12	 	-4090.84597	28.20409	 
595.0	1.0	0.0	8.2815	7.20471	-10.49256	13.78099	17.6085	1.20792	0.82787	173.18477	167.04058	65.24427	0.3272	 	6.8203E11	 	6.21267E-12	 	-4231.60758	28.15232	 
590.0	1.0	0.0	8.2835	7.20296	-10.51426	13.75651	17.54751	1.20514	0.82978	173.487	167.20229	65.36474	0.32707	 	8.43474E11	 	4.9946E-12	 	-4372.11149	28.10078	 
585.0	1.0	0.0	8.28551	7.20122	-10.5359	13.73203	17.48648	1.20234	0.83171	173.78872	167.36331	65.48503	0.32693	 	1.04572E12	 	4.00529E-12	 	-4512.3589	28.04948	 
580.0	1.0	0.0	8.28751	7.19948	-10.55748	13.70755	17.42543	1.19952	0.83367	174.08993	167.52366	65.60516	0.3268	 	1.29973E12	 	3.20375E-12	 	-4652.35096	27.99841	 
575.0	1.0	0.0	8.2895	7.19775	-10.57899	13.68307	17.36435	1.19669	0.83564	174.39062	167.68333	65.72511	0.32667	 	1.61959E12	 	2.55596E-12	 	-4792.08886	27.94758	 
570.0	1.0	0.0	8.29149	7.19602	-10.60044	13.65859	17.30324	1.19383	0.83764	174.6908	167.84231	65.84488	0.32653	 	2.02344E12	 	2.03377E-12	 	-4931.57374	27.89698	 
565.0	1.0	0.0	8.29347	7.1943	-10.62182	13.6341	17.2421	1.19096	0.83966	174.99046	168.00063	65.96449	0.3264	 	2.53471E12	 	1.61391E-12	 	-5070.80679	27.84661	 
560.0	1.0	0.0	8.29545	7.19259	-10.64314	13.60961	17.18093	1.18807	0.8417	175.28961	168.15827	66.08392	0.32627	 	3.18376E12	 	1.27723E-12	 	-5209.78916	27.79647	 
555.0	1.0	0.0	8.29743	7.19088	-10.6644	13.58512	17.11973	1.18516	0.84377	175.58824	168.31523	66.20318	0.32613	 	4.01004E12	 	1.00797E-12	 	-5348.52201	27.74657	 
550.0	1.0	0.0	8.29939	7.18917	-10.68559	13.56063	17.0585	1.18224	0.84585	175.88636	168.47153	66.32226	0.326	 	5.06495E12	 	7.93215E-13	 	-5487.0065	27.6969	 
545.0	1.0	0.0	8.30136	7.18747	-10.70672	13.53614	16.99724	1.17929	0.84797	176.18397	168.62716	66.44117	0.32586	 	6.41564E12	 	6.22414E-13	 	-5625.24378	27.64746	 
540.0	1.0	0.0	8.30332	7.18577	-10.72779	13.51164	16.93595	1.17632	0.85011	176.48106	168.78212	66.55991	0.32573	 	8.15019E12	 	4.86956E-13	 	-5763.235	27.59824	 
535.0	1.0	0.0	8.30527	7.18408	-10.74879	13.48715	16.87463	1.17334	0.85227	176.77764	168.93641	66.67848	0.3256	 	1.03844E13	 	3.79837E-13	 	-5900.98132	27.54926	 
530.0	1.0	0.0	8.30722	7.1824	-10.76972	13.46265	16.81327	1.17034	0.85446	177.0737	169.09004	66.79687	0.32546	 	1.32711E13	 	2.95378E-13	 	-6038.48387	27.50051	 
525.0	1.0	0.0	8.30916	7.18072	-10.7906	13.43815	16.75188	1.16731	0.85667	177.36925	169.24301	66.91509	0.32533	 	1.70123E13	 	2.28985E-13	 	-6175.74381	27.45199	 
520.0	1.0	0.0	8.3111	7.17904	-10.81141	13.41365	16.69046	1.16427	0.85891	177.66429	169.39531	67.03313	0.3252	 	2.18767E13	 	1.76954E-13	 	-6312.76226	27.40369	 
515.0	1.0	0.0	8.31304	7.17737	-10.83215	13.38915	16.629	1.1612	0.86117	177.95881	169.54696	67.151	0.32506	 	2.82219E13	 	1.36304E-13	 	-6449.54036	27.35562	 
510.0	1.0	0.0	8.31496	7.17571	-10.85283	13.36464	16.56751	1.15812	0.86347	178.25281	169.69795	67.2687	0.32493	 	3.65261E13	 	1.04647E-13	 	-6586.07926	27.30778	 
505.0	1.0	0.0	8.31689	7.17405	-10.87345	13.34013	16.50598	1.15502	0.86579	178.54631	169.84828	67.38623	0.3248	 	4.74306E13	 	8.00739E-14	 	-6722.38005	27.26016	 
500.0	1.0	0.0	8.31881	7.17239	-10.894	13.31563	16.44441	1.15189	0.86814	178.83928	169.99796	67.50358	0.32467	 	6.17991E13	 	6.10616E-14	 	-6858.4439	27.21277	 
495.0	1.0	0.0	8.32072	7.17075	-10.91449	13.29112	16.38281	1.14875	0.87051	179.13175	170.14699	67.62075	0.32453	 	8.07982E13	 	4.64014E-14	 	-6994.2719	27.1656	 
490.0	1.0	0.0	8.32263	7.1691	-10.93491	13.2666	16.32117	1.14558	0.87292	179.4237	170.29537	67.73775	0.3244	 	1.0601E14	 	3.51358E-14	 	-7129.86519	27.11866	 
485.0	1.0	0.0	8.32453	7.16746	-10.95527	13.24209	16.25948	1.14239	0.87536	179.71513	170.4431	67.85458	0.32427	 	1.3958799999999998E14	 	2.65091E-14	 	-7265.22486	27.07193	 
480.0	1.0	0.0	8.32643	7.16583	-10.97557	13.21758	16.19776	1.13918	0.87782	180.00605	170.59018	67.97124	0.32413	 	1.84474E14	 	1.99266E-14	 	-7400.35203	27.02543	 
475.0	1.0	0.0	8.32832	7.1642	-10.9958	13.19306	16.13601	1.13595	0.88032	180.29646	170.73661	68.08772	0.324	 	2.44704E14	 	1.49223E-14	 	-7535.24781	26.97916	 
470.0	1.0	0.0	8.33021	7.16258	-11.01597	13.16854	16.0742	1.1327	0.88285	180.58635	170.8824	68.20402	0.32387	 	3.25835E14	 	1.11318E-14	 	-7669.9133	26.9331	 
465.0	1.0	0.0	8.33209	7.16096	-11.03607	13.14402	16.01236	1.12942	0.88541	180.87572	171.02755	68.32015	0.32374	 	4.35551E14	 	8.27165E-15	 	-7804.34959	26.88726	 
460.0	1.0	0.0	8.33397	7.15935	-11.05611	13.1195	15.95048	1.12612	0.888	181.16459	171.17205	68.43611	0.3236	 	5.84521E14	 	6.1218E-15	 	-7938.55776	26.84164	 
455.0	1.0	0.0	8.33584	7.15774	-11.07609	13.09497	15.88855	1.1228	0.89063	181.45293	171.31592	68.55189	0.32347	 	7.87618E14	 	4.51224E-15	 	-8072.53891	26.79623	 
450.0	1.0	0.0	8.33771	7.15613	-11.096	13.07045	15.82657	1.11946	0.89329	181.74077	171.45914	68.6675	0.32334	 	1.06567E15	 	3.31202E-15	 	-8206.29413	26.75104	 
445.0	1.0	0.0	8.33957	7.15454	-11.11584	13.04592	15.76456	1.11609	0.89598	182.02808	171.60174	68.78293	0.32321	 	1.44796E15	 	2.42072E-15	 	-8339.82448	26.70607	 
440.0	1.0	0.0	8.34142	7.15295	-11.13563	13.02139	15.70249	1.1127	0.89871	182.31489	171.74369	68.89819	0.32307	 	1.97587E15	 	1.76161E-15	 	-8473.13104	26.66131	 
435.0	1.0	0.0	8.34328	7.15136	-11.15534	12.99686	15.64038	1.10929	0.90148	182.60118	171.88501	69.01327	0.32294	 	2.70811E15	 	1.27628E-15	 	-8606.21487	26.61677	 
430.0	1.0	0.0	8.34512	7.14978	-11.175	12.97233	15.57822	1.10585	0.90428	182.88695	172.02571	69.12818	0.32281	 	3.7284E15	 	9.20476E-16	 	-8739.07703	26.57243	 
425.0	1.0	0.0	8.34696	7.1482	-11.19459	12.9478	15.51601	1.10239	0.90712	183.17221	172.16577	69.24291	0.32268	 	5.15663E15	 	6.60799E-16	 	-8871.71843	26.52828	 
420.0	1.0	0.0	8.3488	7.14663	-11.21412	12.92326	15.45375	1.0989	0.91	183.45695	172.3052	69.35747	0.32255	 	7.16543E15	 	4.72141E-16	 	-9004.14035	26.48438	 
415.0	1.0	0.0	8.35063	7.14506	-11.23358	12.89872	15.39144	1.09539	0.91291	183.74118	172.444	69.47185	0.32241	 	1.00045E16	 	3.35718E-16	 	-9136.34321	26.44057	 
410.0	1.0	0.0	8.35245	7.1435	-11.25298	12.87418	15.32908	1.09186	0.91587	184.0249	172.58218	69.58606	0.32228	 	1.40368E16	 	2.37538E-16	 	-9268.32721	26.3968	 
405.0	1.0	0.0	8.35427	7.14194	-11.27231	12.84964	15.26667	1.0883	0.91887	184.3081	172.71973	69.70009	0.32215	 	1.9793E16	 	1.67225E-16	 	-9400.09253	26.35306	 
400.0	1.0	0.0	8.35609	7.14039	-11.29158	12.8251	15.2042	1.08471	0.9219	184.59078	172.85666	69.81395	0.32202	 	2.80525E16	 	1.17119E-16	 	-9531.63933	26.30936	 
395.0	1.0	0.0	8.3579	7.13885	-11.31078	12.80056	15.14167	1.0811	0.92498	184.87295	172.99297	69.92763	0.32189	 	3.99667E16	 	8.15947E-17	 	-9662.96779	26.26569	 
390.0	1.0	0.0	8.3597	7.13731	-11.32992	12.77601	15.07909	1.07746	0.92811	185.15461	173.12866	70.04113	0.32176	 	5.72458E16	 	5.65399E-17	 	-9794.07808	26.22206	 
385.0	1.0	0.0	8.3615	7.13577	-11.349	12.75146	15.01645	1.0738	0.93127	185.43575	173.26374	70.15446	0.32162	 	8.24441E16	 	3.8963E-17	 	-9924.97033	26.17845	 
380.0	1.0	0.0	8.3633	7.13424	-11.36801	12.72691	14.95375	1.07011	0.93448	185.71637	173.39819	70.26761	0.32149	 	1.19399E17	 	2.66992E-17	 	-10055.64469	26.13487	 
375.0	1.0	0.0	8.36508	7.13271	-11.38696	12.70236	14.89099	1.06639	0.93774	185.99648	173.53203	70.38059	0.32136	 	1.7391E17	 	1.81902E-17	 	-10186.10129	26.09132	 
370.0	1.0	0.0	8.36687	7.13119	-11.40585	12.67781	14.82817	1.06265	0.94104	186.27608	173.66526	70.49339	0.32123	 	2.54792E17	 	1.23201E-17	 	-10316.34027	26.0478	 
365.0	1.0	0.0	8.36864	7.12968	-11.42467	12.65325	14.76528	1.05888	0.94439	186.55516	173.79787	70.60602	0.3211	 	3.75532E17	 	8.29396E-18	 	-10446.36173	26.00429	 
360.0	1.0	0.0	8.37042	7.12817	-11.44342	12.6287	14.70233	1.05508	0.94779	186.83372	173.92987	70.71847	0.32097	 	5.5689E17	 	5.54912E-18	 	-10576.16578	25.96081	 
355.0	1.0	0.0	8.37218	7.12667	-11.46211	12.60414	14.63931	1.05126	0.95124	187.11177	174.06127	70.83074	0.32084	 	8.31028E17	 	3.68922E-18	 	-10705.75253	25.91735	 
350.0	1.0	0.0	8.37395	7.12517	-11.48074	12.57958	14.57623	1.0474	0.95474	187.3893	174.19205	70.94284	0.32071	 	1.24811E18	 	2.43684E-18	 	-10835.12206	25.8739	 
345.0	1.0	0.0	8.3757	7.12367	-11.4993	12.55502	14.51307	1.04352	0.9583	187.66632	174.32223	71.05476	0.32058	 	1.88689E18	 	1.59895E-18	 	-10964.27443	25.83048	 
340.0	1.0	0.0	8.37745	7.12218	-11.5178	12.53046	14.44985	1.03961	0.9619	187.94283	174.4518	71.16651	0.32044	 	2.87188E18	 	1.04205E-18	 	-11093.20972	25.78706	 
335.0	1.0	0.0	8.3792	7.1207	-11.53623	12.50589	14.38655	1.03567	0.96556	188.21881	174.58077	71.27807	0.32031	 	4.40136E18	 	6.74389E-19	 	-11221.92798	25.74365	 
330.0	1.0	0.0	8.38094	7.11922	-11.5546	12.48132	14.32317	1.0317	0.96928	188.49429	174.70914	71.38947	0.32018	 	6.79332E18	 	4.33341E-19	 	-11350.42925	25.70025	 
325.0	1.0	0.0	8.38267	7.11775	-11.57291	12.45676	14.25972	1.0277	0.97305	188.76924	174.83691	71.50068	0.32005	 	1.05616E19	 	2.7642E-19	 	-11478.71355	25.65686	 
320.0	1.0	0.0	8.3844	7.11628	-11.59115	12.43219	14.19619	1.02367	0.97688	189.04369	174.96407	71.61172	0.31992	 	1.65427E19	 	1.75003E-19	 	-11606.78091	25.61347	 
315.0	1.0	0.0	8.38613	7.11482	-11.60933	12.40761	14.13258	1.01961	0.98077	189.31761	175.09064	71.72258	0.31979	 	2.61093E19	 	1.09946E-19	 	-11734.63132	25.57008	 
310.0	1.0	0.0	8.38785	7.11336	-11.62744	12.38304	14.06889	1.01552	0.98472	189.59102	175.21661	71.83326	0.31966	 	4.15322E19	 	6.85302E-20	 	-11862.26477	25.52669	 
305.0	1.0	0.0	8.38956	7.1119	-11.64549	12.35847	14.00511	1.01139	0.98874	189.86392	175.34199	71.94377	0.31953	 	6.65979E19	 	4.23708E-20	 	-11989.68122	25.48329	 
300.0	1.0	0.0	8.39127	7.11046	-11.66347	12.33389	13.94125	1.00724	0.99281	190.1363	175.46677	72.0541	0.3194	 	1.0767499999999998E20	 	2.59801E-20	 	-12116.88065	25.43989	 
295.0	1.0	0.0	8.39297	7.10902	-11.68139	12.30931	13.87729	1.00305	0.99696	190.40816	175.59097	72.16426	0.31927	 	1.75566E20	 	1.57946E-20	 	-12243.86298	25.39647	 
290.0	1.0	0.0	8.39467	7.10758	-11.69924	12.28473	13.81325	0.99884	1.00116	190.67951	175.71457	72.27423	0.31914	 	2.8876099999999997E20	 	9.5186E-21	 	-12370.62814	25.35303	 
285.0	1.0	0.0	8.39636	7.10615	-11.71703	12.26015	13.74911	0.99459	1.00544	190.95034	175.83757	72.38403	0.31901	 	4.7918799999999993E20	 	5.68501E-21	 	-12497.17603	25.30958	 
280.0	1.0	0.0	8.39805	7.10472	-11.73476	12.23556	13.68487	0.9903	1.00979	191.22066	175.96	72.49365	0.31888	 	8.02512E20	 	3.36417E-21	 	-12623.50654	25.2661	 
275.0	1.0	0.0	8.39973	7.1033	-11.75242	12.21098	13.62054	0.98599	1.01421	191.49046	176.08183	72.60309	0.31875	 	1.35669E21	 	1.97199E-21	 	-12749.61954	25.2226	 
270.0	1.0	0.0	8.4014	7.10188	-11.77002	12.18639	13.5561	0.98164	1.01871	191.75975	176.20308	72.71236	0.31862	 	2.31585E21	 	1.14471E-21	 	-12875.51488	25.17907	 
265.0	1.0	0.0	8.40307	7.10047	-11.78755	12.1618	13.49156	0.97725	1.02328	192.02852	176.32374	72.82145	0.31849	 	3.9925900000000003E21	 	6.57862E-22	 	-13001.19236	25.1355	 
260.0	1.0	0.0	8.40474	7.09906	-11.80502	12.13721	13.42691	0.97284	1.02792	192.29677	176.44383	72.93036	0.31836	 	6.95402E21	 	3.74197E-22	 	-13126.65182	25.09189	 
255.0	1.0	0.0	8.40639	7.09766	-11.82243	12.11262	13.36216	0.96838	1.03265	192.56451	176.56333	73.03909	0.31823	 	1.224E22	 	2.10603E-22	 	-13251.89302	25.04824	 
250.0	1.0	0.0	8.40805	7.09627	-11.83977	12.08803	13.29728	0.96389	1.03746	192.83173	176.68225	73.14765	0.3181	 	2.1778E22	 	1.17245E-22	 	-13376.91571	25.00454	 
245.0	1.0	0.0	8.4097	7.09488	-11.85704	12.06343	13.2323	0.95937	1.04235	193.09843	176.80059	73.25602	0.31797	 	3.918169999999999E22	 	6.45444E-23	 	-13501.71963	24.96078	 
240.0	1.0	0.0	8.41134	7.09349	-11.87425	12.03883	13.16719	0.95481	1.04733	193.36462	176.91835	73.36422	0.31784	 	7.13052E22	 	3.51245E-23	 	-13626.30448	24.91697	 
235.0	1.0	0.0	8.41298	7.09211	-11.8914	12.01423	13.10195	0.95022	1.05239	193.6303	177.03554	73.47224	0.31771	 	1.31303E23	 	1.88887E-23	 	-13750.66995	24.87309	 
230.0	1.0	0.0	8.41461	7.09074	-11.90848	11.98963	13.03659	0.94558	1.05755	193.89546	177.15215	73.58009	0.31758	 	2.4473699999999998E23	 	1.00342E-23	 	-13874.81566	24.82914	 
225.0	1.0	0.0	8.41623	7.08937	-11.9255	11.96503	12.9711	0.94091	1.0628	194.1601	177.26819	73.68775	0.31745	 	4.6190599999999997E23	 	5.26373E-24	 	-13998.74124	24.78512	 
220.0	1.0	0.0	8.41785	7.088	-11.94245	11.94043	12.90547	0.93621	1.06814	194.42422	177.38365	73.79524	0.31732	 	8.8308E23	 	2.72562E-24	 	-14122.44627	24.74101	 
215.0	1.0	0.0	8.41947	7.08664	-11.95934	11.91582	12.83971	0.93146	1.07358	194.68783	177.49855	73.90254	0.31719	 	1.71085E24	 	1.3926E-24	 	-14245.9303	24.69681	 
210.0	1.0	0.0	8.42108	7.08529	-11.97616	11.89121	12.7738	0.92668	1.07913	194.95092	177.61287	74.00967	0.31706	 	3.36023E24	 	7.01777E-25	 	-14369.19284	24.65251	 
205.0	1.0	0.0	8.42268	7.08394	-11.99292	11.8666	12.70774	0.92185	1.08477	195.2135	177.72663	74.11662	0.31693	 	6.693560000000001E24	 	3.48653E-25	 	-14492.23337	24.60811	 
200.0	1.0	0.0	8.42428	7.08259	-12.00962	11.84199	12.64153	0.91699	1.09052	195.47556	177.83982	74.22339	0.31681	 	1.35292E25	 	1.70693E-25	 	-14615.05132	24.56359	 
195.0	1.0	0.0	8.42587	7.08126	-12.02625	11.81738	12.57516	0.91209	1.09638	195.73711	177.95245	74.32999	0.31668	 	2.77595E25	 	8.23113E-26	 	-14737.64608	24.51895	 
190.0	1.0	0.0	8.42746	7.07992	-12.04282	11.79276	12.50863	0.90715	1.10236	195.99813	178.06451	74.4364	0.31655	 	5.78487E25	 	3.90764E-26	 	-14860.01699	24.47418	 
185.0	1.0	0.0	8.42904	7.07859	-12.05932	11.76815	12.44193	0.90217	1.10844	196.25865	178.176	74.54264	0.31642	 	1.2250000000000001E26	 	1.82541E-26	 	-14982.16338	24.42928	 
180.0	1.0	0.0	8.43062	7.07727	-12.07576	11.74353	12.37505	0.89714	1.11465	196.51864	178.28694	74.64869	0.31629	 	2.63734E26	 	8.38614E-27	 	-15104.08448	24.38422	 
175.0	1.0	0.0	8.43219	7.07595	-12.09213	11.71891	12.308	0.89208	1.12098	196.77812	178.39731	74.75457	0.31616	 	5.77603E26	 	3.78687E-27	 	-15225.7795	24.339	 
170.0	1.0	0.0	8.43375	7.07464	-12.10844	11.69429	12.24075	0.88697	1.12743	197.03708	178.50712	74.86027	0.31603	 	1.28758E27	 	1.67982E-27	 	-15347.24758	24.29362	 
165.0	1.0	0.0	8.43531	7.07333	-12.12468	11.66967	12.17332	0.88182	1.13402	197.29553	178.61638	74.96578	0.3159	 	2.92326E27	 	7.31547E-28	 	-15468.48781	24.24805	 
160.0	1.0	0.0	8.43686	7.07203	-12.14086	11.64504	12.10569	0.87663	1.14074	197.55345	178.72508	75.07112	0.31578	 	6.763629999999999E27	 	3.12568E-28	 	-15589.49922	24.20228	 
155.0	1.0	0.0	8.43841	7.07073	-12.15698	11.62041	12.03785	0.87139	1.14759	197.81087	178.83322	75.17628	0.31565	 	1.5958900000000002E28	 	1.30943E-28	 	-15710.28077	24.15631	 
150.0	1.0	0.0	8.43995	7.06944	-12.17303	11.59579	11.96979	0.86611	1.15459	198.06776	178.94081	75.28126	0.31552	 	3.84268E28	 	5.37461E-29	 	-15830.83137	24.11012	 
145.0	1.0	0.0	8.44149	7.06816	-12.18901	11.57116	11.90152	0.86079	1.16173	198.32414	179.04785	75.38606	0.31539	 	9.44916E28	 	2.15986E-29	 	-15951.14981	24.06369	 
140.0	1.0	0.0	8.44302	7.06687	-12.20493	11.54652	11.83301	0.85542	1.16902	198.58	179.15433	75.49068	0.31526	 	2.3747100000000003E29	 	8.4915E-30	 	-16071.23486	24.01701	 
135.0	1.0	0.0	8.44454	7.0656	-12.22079	11.52189	11.76427	0.85	1.17647	198.83535	179.26026	75.59512	0.31513	 	6.1042600000000005E29	 	3.26342E-30	 	-16191.08517	23.97006	 
130.0	1.0	0.0	8.44606	7.06433	-12.23658	11.49726	11.69528	0.84454	1.18407	199.09018	179.36565	75.69938	0.31501	 	1.6062999999999998E30	 	1.22498E-30	 	-16310.6993	23.92283	 
125.0	1.0	0.0	8.44758	7.06306	-12.25231	11.47262	11.62603	0.83904	1.19184	199.34449	179.47048	75.80346	0.31488	 	4.3308499999999996E30	 	4.48705E-31	 	-16430.07577	23.87529	 
120.0	1.0	0.0	8.44909	7.0618	-12.26797	11.44798	11.55651	0.83348	1.19978	199.59828	179.57477	75.90736	0.31475	 	1.1975E31	 	1.60239E-31	 	-16549.21293	23.82743	 
115.0	1.0	0.0	8.45059	7.06054	-12.28357	11.42334	11.48672	0.82788	1.2079	199.85156	179.67851	76.01109	0.31462	 	3.39906E31	 	5.57349E-32	 	-16668.10909	23.77923	 
110.0	1.0	0.0	8.45209	7.05929	-12.2991	11.3987	11.41664	0.82224	1.2162	200.10432	179.78171	76.11463	0.31449	 	9.91441E31	 	1.8862E-32	 	-16786.76239	23.73066	 
105.0	1.0	0.0	8.45358	7.05805	-12.31457	11.37405	11.34625	0.81654	1.22468	200.35657	179.88436	76.21799	0.31437	 	2.97488E32	 	6.20414E-33	 	-16905.17089	23.6817	 
100.0	1.0	0.0	8.45506	7.05681	-12.32997	11.34941	11.27555	0.8108	1.23336	200.60829	179.98647	76.32117	0.31424	 	9.19306E32	 	1.98112E-33	 	-17023.33253	23.63233	 
95.0	1.0	0.0	8.45654	7.05557	-12.34531	11.32476	11.20453	0.805	1.24223	200.8595	180.08804	76.42417	0.31411	 	2.9292800000000003E33	 	6.1341E-34	 	-17141.24507	23.58251	 
90.0	1.0	0.0	8.45802	7.05434	-12.36059	11.30011	11.13316	0.79916	1.25131	201.1102	180.18907	76.52698	0.31398	 	9.63651E33	 	1.8393E-34	 	-17258.90616	23.53222	 
85.0	1.0	0.0	8.45948	7.05312	-12.3758	11.27546	11.06144	0.79327	1.26061	201.36037	180.28956	76.62962	0.31385	 	3.27732E34	 	5.33375E-35	 	-17376.31331	23.48143	 
80.0	1.0	0.0	8.46095	7.0519	-12.39095	11.25081	10.98934	0.78732	1.27013	201.61003	180.38952	76.73208	0.31373	 	1.15391E35	 	1.49374E-35	 	-17493.46383	23.4301	 
75.0	1.0	0.0	8.4624	7.05069	-12.40603	11.22616	10.91686	0.78133	1.27987	201.85918	180.48894	76.83436	0.3136	 	4.21236E35	 	4.03392E-36	 	-17610.35486	23.37821	 
70.0	1.0	0.0	8.46385	7.04948	-12.42104	11.2015	10.84397	0.77529	1.28985	202.1078	180.58782	76.93645	0.31347	 	1.59686E36	 	1.04882E-36	 	-17726.98336	23.3257	 
65.0	1.0	0.0	8.4653	7.04827	-12.43599	11.17684	10.77066	0.76919	1.30007	202.35591	180.68617	77.03837	0.31334	 	6.29687E36	 	2.62102E-37	 	-17843.34608	23.27254	 
60.0	1.0	0.0	8.46674	7.04708	-12.45088	11.15219	10.6969	0.76304	1.31055	202.6035	180.78398	77.1401	0.31322	 	2.58742E37	 	6.28433E-38	 	-17959.43954	23.21869	 
55.0	1.0	0.0	8.46817	7.04588	-12.4657	11.12752	10.62267	0.75684	1.32128	202.85057	180.88127	77.24166	0.31309	 	1.1099799999999998E38	 	1.44293E-38	 	-18075.26006	23.1641	 
50.0	1.0	0.0	8.4696	7.0447	-12.48046	11.10286	10.54796	0.75059	1.33229	203.09713	180.97802	77.34303	0.31296	 	4.98116E38	 	3.16636E-39	 	-18190.80367	23.10872	 
45.0	1.0	0.0	8.47102	7.04351	-12.49516	11.0782	10.47273	0.74428	1.34357	203.34317	181.07425	77.44422	0.31284	 	2.34337E39	 	6.6264E-40	 	-18306.06612	23.05249	 
40.0	1.0	0.0	8.47244	7.04234	-12.50978	11.05353	10.39696	0.73793	1.35515	203.58869	181.16995	77.54523	0.31271	 	1.15832E40	 	1.31951E-40	 	-18421.0429	22.99536	 
35.0	1.0	0.0	8.47385	7.04116	-12.52435	11.02886	10.32062	0.73151	1.36703	203.83369	181.26512	77.64606	0.31258	 	6.03025E40	 	2.4941E-41	 	-18535.72914	22.93725	 
30.0	1.0	0.0	8.47525	7.04	-12.53885	11.00419	10.24368	0.72505	1.37922	204.07818	181.35976	77.74671	0.31246	 	3.31496E41	 	4.4634E-42	 	-18650.11966	22.8781	 
25.0	1.0	0.0	8.47665	7.03883	-12.55328	 	10.16611	0.71853	1.39173	204.32215	181.45388	77.84717	0.31233	 	1.92951E42	 	7.5418E-43	 	-18764.20886	 	 
