T (C)	Fraction solid (wt)-TOTAL	Fraction liquid (wt)-LIQUID	Density (g/(cm)^3)-TOTAL	Molar volume (cm^3)-TOTAL	Volume change (%)-  	Average expansion coeff. (10e-6 1/K)-  	Thermal conductivity (W/(m*K))-TOTAL	Electrical resistivity (10e-6 Ohm*m)-TOTAL	Electrical conductivity (10e6 1/(Ohm*m))-TOTAL	Young's modulus (GPa)-TOTAL	Bulk modulus (GPa)-TOTAL	Shear modulus(GPa)-TOTAL	Poisson's ratio-TOTAL	Liquid viscosity (mPa s)-  	Total viscosity (mPa s)-  	Liquid diffusivity (10e-9 (m^2)/s)-  	Total diffusivity (10e-9 (m^2)/s)-  	Surface Tension (mN/m)-  	Enthalpy (J/mole)-TOTAL	Specific heat (J/(mole K))-TOTAL	Latent heat (J/mole)-TOTAL
1400.0	0.0	1.0	7.49079	8.01601	0.0	34.47202	31.06989	1.31935	0.75795	0.0	123.66156	0.0	0.5	7.11487	7.11487	1.14777	1.14777	1844.37086	41884.901	 	0.0
1395.0	0.0	1.0	7.4951	8.01141	-0.0574804	34.43809	30.98579	1.31898	0.75816	0.0	123.8	0.0	0.5	7.19209	7.19209	1.13205	1.13205	1848.05673	41685.666	39.847	0.0
1390.0	0.0	1.0	7.4994	8.00681	-0.1148	34.40436	30.90169	1.31861	0.75838	0.0	123.93844	0.0	0.5	7.27063	7.27063	1.11647	1.11647	1851.75925	41486.867	39.7598	0.0
1385.0	0.0	1.0	7.50369	8.00223	-0.17196	34.37084	30.8176	1.31823	0.75859	0.0	124.07688	0.0	0.5	7.3505	7.3505	1.10102	1.10102	1855.4782	41288.502	39.673	0.0
1380.0	0.0	1.0	7.50798	7.99766	-0.22895	34.33752	30.7335	1.31785	0.75881	0.0	124.21532	0.0	0.5	7.43175	7.43175	1.0857	1.0857	1859.21338	41090.567	39.587	0.0
1375.0	0.0	1.0	7.51226	7.99311	-0.28578	34.30442	30.6494	1.31747	0.75903	0.0	124.35377	0.0	0.5	7.51439	7.51439	1.07051	1.07051	1862.96459	40893.06	39.5014	0.0
1370.0	0.0	1.0	7.51653	7.98856	-0.34245	34.27152	30.56531	1.31709	0.75925	0.0	124.49221	0.0	0.5	7.59846	7.59846	1.05545	1.05545	1866.73164	40695.978	39.4164	0.0
1365.0	0.0	1.0	7.52079	7.98403	-0.39896	34.23884	30.48121	1.3167	0.75947	0.0	124.63065	0.0	0.5	7.684	7.684	1.04053	1.04053	1870.51434	40499.318	39.332	0.0
1360.0	0.0	1.0	7.52505	7.97952	-0.45531	34.20638	30.39712	1.31631	0.7597	0.0	124.76909	0.0	0.5	7.77103	7.77103	1.02573	1.02573	1874.31249	40303.078	39.248	0.0
1355.0	0.0	1.0	7.5293	7.97501	-0.51149	34.17414	30.31302	1.31593	0.75992	0.0	124.90753	0.0	0.5	7.85959	7.85959	1.01107	1.01107	1878.12591	40107.255	39.1646	0.0
1350.0	0.0	1.0	7.53354	7.97052	-0.56752	34.14212	30.22892	1.31553	0.76015	0.0	125.04597	0.0	0.5	7.94972	7.94972	0.99654	0.99654	1881.9544	39911.846	39.0818	0.0
1349.32	0.0	1.0	7.53412	7.96991	-0.57517	34.13775	30.21742	1.31548	0.76018	0.0	125.06491	0.0	0.5	7.96217	7.96217	0.99456	0.99456	1882.47918	39885.152	39.03545	0.0
1345.0	0.10456	0.89544	7.57168	7.93036	-1.06848	32.8265	30.50937	1.29943	0.76957	0.0121546	127.81301	0.00408685	0.48704	8.05339	11.11273	0.98068	0.7107	1883.86901	38143.338	403.5564	1573.508
1340.0	0.20728	0.79272	7.60932	7.89121	-1.55696	31.53703	30.79407	1.28343	0.77916	0.19185	130.54981	0.0650701	0.47414	8.16204	40.75366	0.96463	0.19319	1885.49624	36413.709	345.9258	3108.549
1335.0	0.29352	0.70648	7.64154	7.85783	-1.97338	30.44711	31.02956	1.26975	0.78756	0.78604	132.88329	0.26861	0.46316	8.27362	138.88922	0.94868	0.0565125	1887.14359	34941.058	294.5302	4387.017
1330.0	0.36662	0.63338	7.66931	7.82938	-2.32826	29.52843	31.22471	1.25789	0.79498	1.94424	134.89919	0.6687	0.45375	8.38806	337.68278	0.93282	0.0231714	1888.80955	33673.584	253.4948	5460.711
1325.0	0.4291	0.5709	7.69349	7.80468	-2.63643	28.73945	31.38606	1.24752	0.80159	3.69986	136.65442	1.27968	0.44562	8.50543	654.65682	0.91708	0.0119149	1890.5003	32571.524	220.412	6369.392
1320.0	0.48293	0.51707	7.7147	7.78314	-2.90514	28.0604	31.51888	1.23837	0.80751	6.00898	138.19918	2.08856	0.43854	8.62575	1096.71469	0.90146	0.00709006	1892.21898	31604.026	193.4996	7143.91
1315.0	0.52962	0.47038	7.73349	7.76405	-3.14329	27.46629	31.6271	1.23026	0.81283	8.78741	139.56847	3.06749	0.43234	8.74924	1664.26462	0.88595	0.00465753	1893.9639	30746.915	171.4222	7808.437
1310.0	0.57039	0.42961	7.75016	7.74716	-3.35397	26.94893	31.71417	1.22302	0.81765	11.93646	140.79342	4.1827	0.42688	8.87547	2354.70169	0.8706	0.0032815	1895.73575	29981.074	153.1682	8382.087
1305.0	0.60618	0.39382	7.7651	7.73201	-3.54299	26.49197	31.78274	1.21653	0.82201	15.36139	141.8972	5.40117	0.42204	9.00488	3164.73362	0.85538	0.00243387	1897.53796	29291.252	137.9644	8880.112
1300.0	0.63778	0.36222	7.77855	7.7184	-3.71272	26.08903	31.83528	1.21067	0.82599	18.97455	142.89935	6.69186	0.41773	9.13727	4091.13657	0.84031	0.00187678	1899.3689	28665.184	125.2136	9314.769
1295.0	0.66582	0.33418	7.79074	7.70604	-3.86696	25.72935	31.87368	1.20537	0.82962	22.70319	143.81453	8.02872	0.41387	9.27289	5131.88998	0.82539	0.00149141	1901.23101	28092.931	114.4506	9695.998
1290.0	0.69081	0.30919	7.80186	7.69475	-4.00777	25.40723	31.89974	1.20055	0.83295	26.48712	144.65575	9.38991	0.4104	9.41175	6286.31291	0.81062	0.00121364	1903.1239	27566.38	105.3102	10031.908
1285.0	0.71317	0.28683	7.81202	7.68439	-4.13698	25.11762	31.91493	1.19614	0.83602	30.27772	145.43283	10.75764	0.40727	9.55366	7555.00632	0.79602	0.00100661	1905.04758	27078.864	97.5032	10329.165
1280.0	0.73328	0.26672	7.82138	7.67482	-4.25635	24.85555	31.92062	1.19209	0.83886	34.04006	146.15512	12.11893	0.40442	9.69884	8940.74471	0.78159	8.47864E-4	1907.00221	26624.871	90.7986	10593.278
1275.0	0.75141	0.24859	7.83002	7.66595	-4.36712	24.61759	31.9177	1.18836	0.8415	37.74484	146.82968	13.46279	0.40182	9.84747	10446.98531	0.76732	7.23284E-4	1908.98755	26199.813	85.0116	10828.833
1270.0	0.76781	0.23219	7.83804	7.65768	-4.47017	24.40132	31.90733	1.18491	0.84395	41.37142	147.46261	14.78133	0.39945	9.9994	12079.05885	0.75322	6.23536E-4	1911.00222	25799.854	79.9918	11039.663
1265.0	0.78271	0.21729	7.84552	7.64996	-4.56656	24.20377	31.89023	1.1817	0.84624	44.90353	148.05854	16.0683	0.39727	10.15481	13843.0345	0.73929	5.42318E-4	1913.04635	25421.765	75.6178	11228.996
1260.0	0.79629	0.20371	7.85251	7.6427	-4.65708	24.02269	31.86717	1.17871	0.84838	48.33236	148.62219	17.32013	0.39527	10.31368	15747.12779	0.72553	4.75193E-4	1915.11923	25062.815	71.79	11399.56
1255.0	0.80869	0.19131	7.85908	7.63585	-4.7426	23.85561	31.83883	1.17591	0.8504	51.6555	149.15753	18.53563	0.39341	10.47621	17801.69226	0.71195	4.18978E-4	1917.22086	24720.687	68.4256	11553.67
1250.0	0.82005	0.17995	7.86527	7.62935	-4.82367	23.70103	31.80566	1.17329	0.85231	54.86597	149.66712	19.71198	0.39169	10.64245	20016.29957	0.69853	3.71403E-4	1919.35089	24393.399	65.4576	11693.304
1245.0	0.83048	0.16952	7.87112	7.62319	-4.90055	23.55824	31.76822	1.17081	0.85411	57.96324	150.15399	20.84869	0.39009	10.81237	22403.41107	0.6853	3.3074E-4	1921.50721	24079.257	62.8284	11820.157
1240.0	0.84009	0.15991	7.87666	7.61731	-4.9738	23.42564	31.72691	1.16848	0.85581	60.94819	150.62037	21.94588	0.3886	10.98608	24976.59291	0.67224	2.95689E-4	1923.68978	23776.798	60.4918	11935.688
1235.0	0.84896	0.15104	7.88194	7.61169	-5.0439	23.30189	31.68215	1.16626	0.85744	63.82391	151.06855	23.00445	0.38721	11.16379	27751.35715	0.65936	2.65245E-4	1925.89824	23484.76	58.4076	12041.157
1230.0	0.85716	0.14284	7.88697	7.60631	-5.11113	23.18614	31.63422	1.16416	0.85899	66.59139	151.49985	24.02459	0.3859	11.34552	30743.78626	0.64664	2.38634E-4	1928.132	23202.048	56.5424	12137.657
1225.0	0.86477	0.13523	7.89179	7.60113	-5.17565	23.07805	31.58346	1.16215	0.86048	69.25485	151.91632	25.00767	0.38467	11.53139	33972.8721	0.6341	2.15233E-4	1930.38897	22927.71	54.8676	12226.138
1220.0	0.87183	0.12817	7.8964	7.59614	-5.2379	22.97628	31.53011	1.16023	0.8619	71.8194	152.31902	25.95544	0.38351	11.72145	37459.39126	0.62174	1.94549E-4	1932.66965	22660.911	53.3598	12307.433
1215.0	0.87841	0.12159	7.90083	7.59133	-5.29789	22.88088	31.47443	1.15839	0.86327	74.28832	152.70935	26.86895	0.38242	11.91568	41225.70488	0.60956	1.76184E-4	1934.9716	22400.922	51.9978	12382.269
1210.0	0.88455	0.11545	7.9051	7.58668	-5.35601	22.7907	31.41661	1.15662	0.86459	76.66457	153.08803	27.74919	0.38138	12.11438	45295.61197	0.59755	1.59814E-4	1937.29574	22147.101	50.7642	12451.285
1205.96	0.88919	0.11081	7.90845	7.58301	-5.4017	22.72145	31.36834	1.15524	0.86562	78.5181	153.38643	28.43649	0.38059	12.27853	48826.29505	0.58795	1.47854E-4	1939.18834	21946.044	 	12503.115
1205.0	0.89027	0.10973	7.90932	7.58206	-5.41358	22.70152	31.34966	1.15519	0.86566	78.96489	153.45863	28.60244	0.38039	12.32269	49708.26117	0.58546	1.45136E-4	1939.74102	21895.971	50.226	12517.957
1200.0	0.89574	0.10426	7.91378	7.57716	-5.47477	22.59984	31.25241	1.15486	0.86591	81.26804	153.83082	29.45844	0.37937	12.55746	54557.68588	0.57257	1.31789E-4	1942.66672	21637.152	51.7638	12592.664
1195.0	0.90082	0.0991844	7.91807	7.57243	-5.53367	22.50474	31.15635	1.15449	0.86618	83.47262	154.19175	30.2787	0.3784	12.79762	59801.71329	0.55992	1.19824E-4	1945.61952	21384.437	50.543	12661.608
1190.0	0.90556	0.094444	7.9222	7.56786	-5.59073	22.41485	31.06136	1.15408	0.86649	85.5866	154.54243	31.06611	0.37749	13.04355	65477.7472	0.54749	1.09064E-4	1948.60097	21137.246	49.4382	12725.37
1185.0	0.90998	0.0900234	7.92613	7.56334	-5.64713	22.32635	30.95834	1.15396	0.86658	87.62817	154.8742	31.82771	0.3766	13.29502	71629.00579	0.5353	9.93573E-5	1952.85406	20888.42743	49.76371	12784.458
1180.0	0.91412	0.08588	7.93617	7.55591	-5.7398	22.11753	30.59167	1.16379	0.85926	90.05732	154.98948	32.74991	0.37492	13.55244	80095.7241	0.52333	8.85498E-5	1957.09186	20497.54834	78.17582	12839.319
1175.0	0.918	0.0820038	7.9456	7.54867	-5.83007	21.91483	30.24411	1.17311	0.85243	92.37949	155.09247	33.63324	0.37334	13.81588	89475.66155	0.51159	7.89942E-5	1961.31505	20116.13093	76.28348	12890.35
1170.0	0.92165	0.0783544	7.95446	7.54163	-5.91797	21.71825	29.91472	1.18193	0.84607	94.60182	155.18679	34.48015	0.37183	14.08556	99866.32611	0.50006	7.05308E-5	1965.52261	19743.62929	74.50033	12937.902
1165.0	0.92508	0.0749236	7.9628	7.53476	-6.00365	21.52735	29.60196	1.19028	0.84014	96.7319	155.27468	35.29329	0.3704	14.36164	111377.2675	0.48875	6.30223E-5	1969.71519	19379.54293	72.81727	12982.287
1160.0	0.92831	0.0716913	7.97066	7.52807	-6.08718	21.34201	29.30436	1.19819	0.83459	98.77468	155.35779	36.07437	0.36904	14.6444	124128.1817	0.47765	5.63518E-5	1973.89262	19023.40564	71.22746	13023.783
1155.0	0.93151	0.0684878	7.97835	7.52144	-6.16984	21.15792	29.01557	1.20589	0.82926	100.78639	155.44667	36.84451	0.36773	14.8974	138321.0668	0.4679	5.03932E-5	1978.07137	18667.06712	71.2677	13070.358
1150.0	0.93465	0.0653505	7.98579	7.51494	-6.25092	20.97757	28.73685	1.21333	0.82418	102.75796	155.53882	37.60015	0.36646	15.1333	154101.7024	0.45899	4.50744E-5	1982.24382	18313.12756	70.78791	13119.232
1145.0	0.9376	0.0623984	7.99283	7.50863	-6.3296	20.80374	28.47081	1.22036	0.81943	104.64947	155.62834	38.32611	0.36525	15.37635	171581.4349	0.45015	4.03402E-5	1986.40064	17966.87201	69.25111	13164.947
1140.0	0.94038	0.0596155	7.9995	7.50251	-6.40592	20.63641	28.21644	1.22702	0.81498	106.46513	155.71598	39.02385	0.3641	15.62675	190944.5947	0.44137	3.61217E-5	1990.53965	17627.85867	67.80267	13207.777
1135.0	0.94301	0.0569891	8.00582	7.49656	-6.4802	20.47461	27.97286	1.23333	0.81082	108.21104	155.8024	39.69561	0.36301	15.88468	212398.2917	0.43267	3.23582E-5	1994.66372	17295.67908	66.43592	13247.965
1130.0	0.9455	0.0545042	8.01181	7.49078	-6.55229	20.31884	27.73955	1.23928	0.80692	109.89156	155.88727	40.34292	0.36197	16.15076	236168.1505	0.42403	2.89981E-5	1998.76824	16970.14729	65.10636	13285.541
1125.0	0.94789	0.0521086	8.01752	7.48512	-6.62287	20.16694	27.51593	1.2449	0.80328	111.5332	155.97285	40.97572	0.36097	16.42635	262558.1863	0.41543	2.59905E-5	2002.85289	16650.41882	63.94569	13321.198
1120.0	0.95017	0.0498275	8.02295	7.47961	-6.69162	20.01998	27.30106	1.25021	0.79986	113.11994	156.0589	41.58792	0.36001	16.71023	291827.9525	0.40691	2.33001E-5	2006.91529	16336.46876	62.79001	13354.811
1115.0	0.95235	0.0476536	8.02814	7.47422	-6.7589	19.87681	27.09425	1.25524	0.79666	114.65728	156.14551	42.18159	0.35909	17.00374	324299.3682	0.39845	2.08919E-5	2010.96088	16027.99962	61.69383	13386.54
1110.0	0.95442	0.0455815	8.0331	7.46895	-6.82465	19.73767	26.89497	1.25998	0.79366	116.14666	156.23287	42.75722	0.35821	17.30609	360330.3553	0.39008	1.87351E-5	2014.98607	15724.72738	60.65445	13416.53
1100.0	0.95993	0.0400655	8.04256	7.45779	-6.96392	19.42803	26.5144	1.26883	0.78813	119.91289	156.48692	44.20672	0.35627	17.98633	447777.1641	0.37262	1.49673E-5	2022.80619	15095.90066	62.88267	13508.656
1095.0	0.96279	0.0372055	8.04693	7.45218	-7.03382	19.2701	26.33587	1.27278	0.78568	121.80878	156.6315	44.93751	0.35531	18.37279	499618.6485	0.36345	1.33654E-5	2026.66134	14782.63506	62.65312	13558.257
1090.0	0.96552	0.0344818	8.05104	7.44668	-7.1024	19.11538	26.1659	1.27636	0.78348	123.56327	156.77916	45.61582	0.35439	18.79407	557337.9669	0.35401	1.19375E-5	2030.50891	14474.8668	61.55365	13605.328
1085.0	0.96799	0.0320115	8.05493	7.44137	-7.16866	18.96756	26.00092	1.27975	0.7814	125.19682	156.92054	46.24841	0.35353	19.22614	621260.1334	0.34478	1.06699E-5	2034.34411	14174.77394	60.01857	13647.581
1080.0	0.97024	0.0297631	8.05861	7.43623	-7.23279	18.82603	25.84063	1.28295	0.77945	126.72415	157.05685	46.84077	0.35271	19.66874	692110.7845	0.33578	9.54239E-6	2038.16459	13881.58613	58.63756	13685.681
1075.0	0.97229	0.0277062	8.06212	7.43124	-7.29501	18.69005	25.68481	1.28596	0.77763	128.15724	157.189	47.39737	0.35194	20.12289	770696.454	0.32699	8.53771E-6	2041.97105	13594.65039	57.38715	13720.179
1070.0	0.97418	0.0258179	8.06547	7.4264	-7.35551	18.55905	25.5332	1.2888	0.77592	129.50663	157.31778	47.92219	0.35122	20.58887	857920.2704	0.3184	7.64125E-6	2045.76342	13313.41103	56.24787	13751.534
1065.0	0.97592	0.0240776	8.06868	7.42167	-7.41443	18.43257	25.38557	1.29147	0.77431	130.78165	157.44382	48.41871	0.35053	21.06693	954795.655	0.31002	6.84039E-6	2049.54088	13037.38541	55.20512	13780.133
1060.0	0.97753	0.0224699	8.07177	7.41706	-7.47192	18.31017	25.24168	1.29398	0.77281	131.99045	157.56767	48.88999	0.34987	21.5576	1062458.502	0.30183	6.12426E-6	2053.30344	12766.15881	54.24532	13806.304
1055.0	0.97902	0.0209786	8.07474	7.41256	-7.52805	18.19157	25.10133	1.29633	0.77141	133.13969	157.68982	49.33855	0.34925	22.06115	1182180.289	0.29384	5.4834E-6	2057.04963	12499.36625	53.35851	13830.326
1050.0	0.98041	0.0195926	8.07761	7.40816	-7.58296	18.07634	24.96432	1.29854	0.7701	134.23633	157.81063	49.767	0.34865	22.57805	1315393.605	0.28603	4.90953E-6	2060.78055	12236.68639	52.53597	13852.437
1045.0	0.9817	0.0183001	8.08039	7.40385	-7.63675	17.96417	24.83046	1.30061	0.76887	135.28613	157.93044	50.17751	0.34808	23.10917	1463706.967	0.2784	4.39539E-6	2064.49623	11977.83533	51.77021	13872.844
1040.0	0.98291	0.0170933	8.08309	7.39963	-7.68946	17.85493	24.69961	1.30254	0.76773	136.23264	158.04286	50.54917	0.34753	23.65467	1628918.162	0.27095	3.93461E-6	2068.19603	11722.55846	51.05537	13891.725
1035.0	0.98404	0.0159613	8.08572	7.39548	-7.7412	17.74831	24.57159	1.30434	0.76667	137.21234	158.16119	50.93264	0.347	24.2151	1813080.187	0.26367	3.5215E-6	2071.87866	11470.63034	50.38562	13909.234
1030.0	0.9851	0.0148997	8.08828	7.39141	-7.792	17.64414	24.44626	1.30601	0.76569	138.15876	158.27927	51.3033	0.34649	24.79119	2018476.561	0.25656	3.15107E-6	2075.54474	11221.8456	49.75695	13925.508
1025.0	0.9861	0.0139008	8.09078	7.3874	-7.84195	17.54219	24.32348	1.30757	0.76478	139.07709	158.39726	51.66311	0.346	25.38327	2247695.743	0.24961	2.81886E-6	2079.19522	10976.02067	49.16499	13940.665
1020.0	0.98704	0.0129592	8.09322	7.38346	-7.89111	17.44222	24.20313	1.30901	0.76394	139.97299	158.51532	52.01419	0.34553	25.99261	2503666.852	0.24282	2.52092E-6	2082.83033	10732.98693	48.60675	13954.808
1015.0	0.98793	0.0120705	8.09562	7.37958	-7.93949	17.34428	24.08508	1.31034	0.76316	140.8501	158.63356	52.35792	0.34507	26.61886	2789671.855	0.23619	2.25372E-6	2086.44762	10492.59223	48.07894	13968.032
1010.0	0.98877	0.0112291	8.09798	7.37577	-7.98712	17.2482	23.96925	1.31156	0.76245	141.714	158.75212	52.69638	0.34463	27.26333	3109448.494	0.22971	2.0141E-6	2090.04495	10254.69504	47.57944	13980.417
1005.0	0.99052	0.00948381	8.10013	7.37207	-8.03318	17.15727	23.86218	1.31231	0.76201	142.60407	158.87531	53.04902	0.34408	27.96249	3476992.66	0.2231	1.79417E-6	2093.68625	10004.84522	49.96996	14006.361
1000.0	0.99234	0.00766004	8.10221	7.36847	-8.07807	17.06995	23.75415	1.31313	0.76154	143.56879	158.99801	53.42977	0.34353	28.69406	3890826.118	0.21656	1.59707E-6	2097.32541	9755.53497	49.86205	14033.318
995.0	0.99398	0.00601606	8.10424	7.36494	-8.12213	16.98502	23.65124	1.31366	0.76123	144.87182	159.11947	53.93554	0.34301	29.44951	4353835.786	0.21017	1.42163E-6	2100.94645	9510.61968	48.98306	14057.381
990.0	0.99547	0.00452883	8.10625	7.36147	-8.16543	16.90216	23.54939	1.31414	0.76095	146.76044	159.24017	54.65869	0.34252	30.22925	4872359.611	0.20395	1.26533E-6	2104.55109	9269.62985	48.19797	14078.971
985.0	0.99682	0.00317524	8.10823	7.35806	-8.20803	16.82124	23.44875	1.31455	0.76071	148.83917	159.36043	55.4522	0.34205	31.03513	5453545.608	0.19786	1.126E-6	2108.13622	9032.172	47.49157	14098.435
980.0	0.99806	0.00193769	8.11018	7.35469	-8.25	16.74199	23.34937	1.3149	0.76051	150.50537	159.48052	56.09161	0.3416	31.86694	6105540.324	0.19193	1.00176E-6	2111.70414	8797.91657	46.85109	14116.058
975.0	0.9992	8.02968E-4	8.11212	7.35138	-8.29138	16.66427	23.25129	1.31518	0.76035	151.72183	159.60068	56.56298	0.34118	32.72734	6837577.214	0.18614	8.90946E-7	2115.254	8566.58084	46.26715	14132.079
970.0	1.0	0.0	8.11492	7.34811	-8.33215	16.58819	23.15221	1.31552	0.76016	152.58255	159.70228	56.90136	0.34076	 	7716565.146	 	7.86296E-7	 	8616.10861	-9.90555	 
965.0	1.0	0.0	8.11823	7.34511	-8.36949	16.5252	23.0518	1.31594	0.75992	152.94683	159.79035	57.04965	0.34047	 	8694516.352	 	6.95048E-7	 	8422.10949	38.79982	 
960.0	1.0	0.0	8.12151	7.34215	-8.40653	16.46271	22.95291	1.31627	0.75972	153.30858	159.88017	57.19685	0.34018	 	9806054.469	 	6.13774E-7	 	8229.17108	38.58768	 
955.0	1.0	0.0	8.12478	7.3392	-8.4433	16.40071	22.85548	1.31652	0.75958	153.66796	159.97172	57.34303	0.3399	 	1.107071391E7	 	5.41455E-7	 	8037.26067	38.38208	 
950.0	1.0	0.0	8.12802	7.33627	-8.47979	16.33916	22.75946	1.31669	0.75948	154.02512	160.06499	57.48826	0.33962	 	1.251107059E7	 	4.77169E-7	 	7846.3469	38.18275	 
945.0	1.0	0.0	8.13123	7.33337	-8.51601	16.27805	22.66479	1.31679	0.75943	154.38021	160.15997	57.6326	0.33935	 	1.415324413E7	 	4.20079E-7	 	7656.39967	37.98945	 
940.0	1.0	0.0	8.13443	7.33049	-8.55198	16.21735	22.57143	1.31681	0.75941	154.73335	160.25665	57.7761	0.33908	 	1.602748717E7	 	3.69433E-7	 	7467.39009	37.80191	 
935.0	1.0	0.0	8.13761	7.32762	-8.58769	16.15703	22.47932	1.31675	0.75944	155.0847	160.355	57.91881	0.33881	 	1.816887863E7	 	3.24548E-7	 	7279.29042	37.61993	 
930.0	1.0	0.0	8.14077	7.32478	-8.62316	16.09708	22.38842	1.31663	0.75952	155.43436	160.45502	58.06079	0.33855	 	2.061813937E7	 	2.84811E-7	 	7092.07405	37.44327	 
925.0	1.0	0.0	8.14391	7.32196	-8.65839	16.03748	22.2987	1.31643	0.75963	155.78246	160.5567	58.20209	0.33829	 	2.342259374E7	 	2.49668E-7	 	6905.71539	37.27173	 
920.0	1.0	0.0	8.14703	7.31915	-8.69339	15.9782	22.2101	1.31617	0.75978	156.12911	160.66003	58.34274	0.33803	 	2.66373035E7	 	2.18621E-7	 	6720.18987	37.1051	 
915.0	1.0	0.0	8.15013	7.31636	-8.72816	15.91923	22.12259	1.31583	0.75997	156.47442	160.76499	58.48281	0.33778	 	3.032640799E7	 	1.91222E-7	 	6535.47388	36.9432	 
910.0	1.0	0.0	8.15322	7.31359	-8.7627	15.86055	22.03614	1.31544	0.7602	156.8185	160.87157	58.62232	0.33753	 	3.456470839E7	 	1.67068E-7	 	6351.54469	36.78584	 
905.0	1.0	0.0	8.15629	7.31084	-8.79703	15.80214	21.95071	1.31498	0.76047	157.16143	160.97976	58.76131	0.33729	 	3.943954415E7	 	1.45799E-7	 	6168.3805	36.63284	 
900.0	1.0	0.0	8.15934	7.30811	-8.83115	15.74398	21.86626	1.31445	0.76077	157.50332	161.08956	58.89984	0.33704	 	4.505301843E7	 	1.27091E-7	 	5985.96029	36.48404	 
895.0	1.0	0.0	8.16238	7.30539	-8.86506	15.68605	21.78277	1.31387	0.76111	157.84425	161.20094	59.03793	0.3368	 	5.15246378E7	 	1.10655E-7	 	5804.26386	36.33929	 
890.0	1.0	0.0	8.1654	7.30269	-8.89877	15.62834	21.70021	1.31322	0.76149	158.18432	161.31391	59.17561	0.33657	 	5.899445282E7	 	9.62302E-8	 	5623.27177	36.19842	 
885.0	1.0	0.0	8.1684	7.3	-8.93229	15.57084	21.61855	1.31252	0.7619	158.52359	161.42844	59.31293	0.33633	 	6.762679324E7	 	8.35858E-8	 	5442.9653	36.06129	 
880.0	1.0	0.0	8.17139	7.29733	-8.96561	15.51353	21.53776	1.31175	0.76234	158.86215	161.54454	59.44991	0.3361	 	7.761472013E7	 	7.25151E-8	 	5263.32631	35.9278	 
875.0	1.0	0.0	8.17437	7.29467	-8.99874	15.45638	21.45782	1.31093	0.76282	159.20007	161.66218	59.58659	0.33587	 	8.918534148E7	 	6.28336E-8	 	5084.33741	35.79778	 
870.0	1.0	0.0	8.17733	7.29203	-9.03168	15.3994	21.3787	1.31005	0.76333	159.53743	161.78137	59.72299	0.33565	 	1.026061558E8	 	5.43772E-8	 	4905.98204	35.67107	 
865.0	1.0	0.0	8.18027	7.28941	-9.06445	15.34256	21.30038	1.30912	0.76387	159.87429	161.90209	59.85914	0.33542	 	1.181926509E8	 	4.69998E-8	 	4728.24407	35.54759	 
860.0	1.0	0.0	8.18321	7.28679	-9.09703	15.28585	21.22284	1.30813	0.76445	160.21071	162.02433	59.99507	0.3352	 	1.36317402E8	 	4.05717E-8	 	4551.10795	35.42722	 
855.0	1.0	0.0	8.18612	7.2842	-9.12944	15.22925	21.14606	1.30708	0.76506	160.54676	162.14809	60.13081	0.33498	 	1.574209893E8	 	3.49777E-8	 	4374.55871	35.30985	 
850.0	1.0	0.0	8.18903	7.28161	-9.16169	15.17276	21.07001	1.30599	0.7657	160.8825	162.27335	60.26637	0.33476	 	1.820251114E8	 	3.01157E-8	 	4198.58185	35.19537	 
845.0	1.0	0.0	8.19129	7.2796	-9.18679	15.14873	21.00885	1.30396	0.7669	161.21445	162.47154	60.397	0.33462	 	2.067147414E8	 	2.64007E-8	 	4051.80251	29.35587	 
840.0	1.0	0.0	8.19355	7.27759	-9.21183	15.12469	20.94768	1.30192	0.7681	161.54586	162.66891	60.52746	0.33448	 	2.350216344E8	 	2.31171E-8	 	3902.21864	29.91677	 
835.0	1.0	0.0	8.19581	7.27559	-9.2368	15.10066	20.8865	1.29987	0.76931	161.87674	162.86548	60.65775	0.33435	 	2.675144241E8	 	2.0218E-8	 	3752.827	29.87833	 
830.0	1.0	0.0	8.19806	7.27359	-9.26172	15.07662	20.8253	1.2978	0.77053	162.20707	163.06123	60.78785	0.33421	 	3.04857141E8	 	1.76614E-8	 	3603.62687	29.84003	 
825.0	1.0	0.0	8.2003	7.2716	-9.28657	15.05257	20.76409	1.29573	0.77177	162.53687	163.25618	60.91778	0.33407	 	3.478262156E8	 	1.54094E-8	 	3454.61752	29.80187	 
820.0	1.0	0.0	8.20254	7.26961	-9.31136	15.02852	20.70287	1.29365	0.77301	162.86613	163.45031	61.04752	0.33393	 	3.973306911E8	 	1.34281E-8	 	3305.79818	29.76387	 
815.0	1.0	0.0	8.20478	7.26763	-9.33608	15.00447	20.64163	1.29155	0.77426	163.19484	163.64365	61.17709	0.33379	 	4.544362805E8	 	1.1687E-8	 	3157.16805	29.72603	 
810.0	1.0	0.0	8.20701	7.26566	-9.36075	14.98042	20.58038	1.28944	0.77553	163.52302	163.83618	61.30648	0.33365	 	5.203940452E8	 	1.01588E-8	 	3008.72634	29.68834	 
805.0	1.0	0.0	8.20924	7.26368	-9.38535	14.95636	20.51912	1.28732	0.77681	163.85066	164.02792	61.4357	0.33351	 	5.966746251E8	 	8.81918E-9	 	2860.47215	29.65084	 
800.0	1.0	0.0	8.21147	7.26172	-9.40989	14.9323	20.45784	1.28519	0.7781	164.17776	164.21886	61.56473	0.33338	 	6.850091603E8	 	7.64629E-9	 	2712.40461	29.61351	 
795.0	1.0	0.0	8.21369	7.25975	-9.43437	14.90823	20.39654	1.28304	0.7794	164.50432	164.409	61.69359	0.33324	 	7.874382784E8	 	6.62068E-9	 	2564.52279	29.57636	 
790.0	1.0	0.0	8.2159	7.2578	-9.45878	14.88416	20.33523	1.28089	0.78071	164.83034	164.59836	61.82227	0.3331	 	9.063708281E8	 	5.725E-9	 	2416.82572	29.53941	 
785.0	1.0	0.0	8.21811	7.25584	-9.48313	14.86009	20.27391	1.27872	0.78203	165.15582	164.78692	61.95077	0.33296	 	1.044654401E9	 	4.9438E-9	 	2269.31241	29.50266	 
780.0	1.0	0.0	8.22032	7.2539	-9.50742	14.83602	20.21256	1.27654	0.78337	165.48077	164.97469	62.07909	0.33282	 	1.20566014E9	 	4.26336E-9	 	2121.98177	29.46613	 
775.0	1.0	0.0	8.22252	7.25196	-9.53165	14.81194	20.15121	1.27435	0.78471	165.80517	165.16168	62.20724	0.33268	 	1.393384878E9	 	3.67146E-9	 	1974.83273	29.42981	 
770.0	1.0	0.0	8.22472	7.25002	-9.55581	14.78785	20.08983	1.27214	0.78607	166.12904	165.34789	62.3352	0.33255	 	1.612574353E9	 	3.15728E-9	 	1827.86414	29.39372	 
765.0	1.0	0.0	8.22691	7.24809	-9.57992	14.76377	20.02844	1.26993	0.78745	166.45237	165.53331	62.46299	0.33241	 	1.868872071E9	 	2.71124E-9	 	1681.07479	29.35787	 
760.0	1.0	0.0	8.2291	7.24616	-9.60396	14.73968	19.96704	1.2677	0.78883	166.77515	165.71796	62.59059	0.33227	 	2.168999458E9	 	2.32483E-9	 	1534.46341	29.32228	 
755.0	1.0	0.0	8.23128	7.24424	-9.62793	14.71558	19.90562	1.26546	0.79023	167.0974	165.90183	62.71802	0.33213	 	2.52097421E9	 	1.99056E-9	 	1388.02869	29.28694	 
750.0	1.0	0.0	8.23346	7.24232	-9.65185	14.69149	19.84418	1.2632	0.79164	167.41912	166.08492	62.84527	0.33199	 	2.934375411E9	 	1.70181E-9	 	1241.76924	29.25189	 
745.0	1.0	0.0	8.23563	7.24041	-9.6757	14.66739	19.78272	1.26093	0.79306	167.74029	166.26725	62.97235	0.33186	 	3.420665941E9	 	1.45274E-9	 	1095.68361	29.21713	 
740.0	1.0	0.0	8.2378	7.2385	-9.69949	14.64328	19.72124	1.25865	0.7945	168.06092	166.4488	63.09924	0.33172	 	3.99358524E9	 	1.23822E-9	 	949.77027	29.18267	 
735.0	1.0	0.0	8.23997	7.2366	-9.72321	14.61918	19.65975	1.25636	0.79595	168.38102	166.62958	63.22595	0.33158	 	4.669628594E9	 	1.05373E-9	 	804.02762	29.14853	 
730.0	1.0	0.0	8.24213	7.2347	-9.74687	14.59507	19.59824	1.25405	0.79742	168.70058	166.8096	63.35249	0.33144	 	5.468633039E9	 	8.95311E-10	 	658.45396	29.11473	 
725.0	1.0	0.0	8.24428	7.23281	-9.77048	14.57095	19.53671	1.25173	0.79889	169.0196	166.98885	63.47884	0.33131	 	6.414494838E9	 	7.59486E-10	 	513.04753	29.08129	 
720.0	1.0	0.0	8.24643	7.23092	-9.79401	14.54684	19.47517	1.24939	0.80039	169.33808	167.16734	63.60502	0.33117	 	7.536049692E9	 	6.43217E-10	 	367.80645	29.04822	 
715.0	1.0	0.0	8.24858	7.22904	-9.81749	14.52271	19.4136	1.24705	0.80189	169.65602	167.34508	63.73102	0.33103	 	8.868154529E9	 	5.43846E-10	 	222.72873	29.01554	 
710.0	1.0	0.0	8.25072	7.22717	-9.8409	14.49859	19.35202	1.24469	0.80342	169.97343	167.52205	63.85684	0.33089	 	1.0453E10	 	4.59055E-10	 	77.81232	28.98328	 
705.0	1.0	0.0	8.25286	7.22529	-9.86425	14.47446	19.29041	1.24231	0.80495	170.29029	167.69827	63.98248	0.33076	 	1.2341899999999998E10	 	3.86823E-10	 	-66.945	28.95146	 
700.0	1.0	0.0	8.25499	7.22343	-9.88754	14.45033	19.22879	1.23992	0.8065	170.60662	167.87374	64.10794	0.33062	 	1.4596899999999998E10	 	3.25392E-10	 	-211.54555	28.92011	 
695.0	1.0	0.0	8.25712	7.22157	-9.91076	14.4262	19.16714	1.23752	0.80807	170.92241	168.04845	64.23322	0.33048	 	1.72939E10	 	2.73235E-10	 	-355.99177	28.88924	 
690.0	1.0	0.0	8.25924	7.21971	-9.93392	14.40206	19.10548	1.2351	0.80965	171.23766	168.22241	64.35832	0.33035	 	2.05253E10	 	2.29029E-10	 	-500.28625	28.8589	 
685.0	1.0	0.0	8.26136	7.21786	-9.95702	14.37792	19.04379	1.23267	0.81125	171.55238	168.39563	64.48324	0.33021	 	2.4404099999999996E10	 	1.91627E-10	 	-644.43175	28.8291	 
680.0	1.0	0.0	8.26348	7.21601	-9.98006	14.35377	18.98208	1.23022	0.81286	171.86655	168.5681	64.60798	0.33007	 	2.9068699999999996E10	 	1.60038E-10	 	-788.43116	28.79988	 
675.0	1.0	0.0	8.26559	7.21417	-10.00303	14.32962	18.92035	1.22776	0.81449	172.18019	168.73983	64.73255	0.32994	 	3.46888E10	 	1.33406E-10	 	-932.28757	28.77128	 
670.0	1.0	0.0	8.26769	7.21233	-10.02594	14.30547	18.8586	1.22529	0.81614	172.49329	168.91082	64.85693	0.3298	 	4.14731E10	 	1.10994E-10	 	-1076.00424	28.74333	 
665.0	1.0	0.0	8.26979	7.2105	-10.04879	14.28132	18.79683	1.2228	0.8178	172.80585	169.08107	64.98113	0.32966	 	4.967879999999999E10	 	9.21697E-11	 	-1219.58462	28.71608	 
660.0	1.0	0.0	8.27189	7.20868	-10.07157	14.25716	18.73504	1.22029	0.81948	173.11788	169.25058	65.10516	0.32953	 	5.962319999999999E10	 	7.63876E-11	 	-1363.02268	28.68761	 
655.0	1.0	0.0	8.27398	7.20685	-10.09429	14.23299	18.67322	1.21777	0.82117	173.42936	169.41935	65.229	0.32939	 	7.1699E10	 	6.31817E-11	 	-1506.26433	28.64833	 
650.0	1.0	0.0	8.27606	7.20504	-10.11695	14.20883	18.61138	1.21523	0.82289	173.74031	169.5874	65.35266	0.32925	 	8.63931E10	 	5.2153E-11	 	-1649.23784	28.5947	 
645.0	1.0	0.0	8.27814	7.20323	-10.13955	14.18466	18.54951	1.21268	0.82462	174.05072	169.75471	65.47615	0.32912	 	1.0431E11	 	4.29609E-11	 	-1791.94435	28.5413	 
640.0	1.0	0.0	8.28022	7.20142	-10.16208	14.16049	18.48763	1.21012	0.82637	174.3606	169.92129	65.59945	0.32898	 	1.26203E11	 	3.53149E-11	 	-1934.38499	28.48813	 
635.0	1.0	0.0	8.28229	7.19962	-10.18455	14.13631	18.42571	1.20753	0.82813	174.66993	170.08714	65.72258	0.32884	 	1.53012E11	 	2.8968E-11	 	-2076.56088	28.43518	 
630.0	1.0	0.0	8.28436	7.19782	-10.20696	14.11213	18.36377	1.20494	0.82992	174.97873	170.25227	65.84552	0.32871	 	1.85912E11	 	2.37104E-11	 	-2218.47317	28.38246	 
625.0	1.0	0.0	8.28642	7.19603	-10.2293	14.08795	18.30181	1.20232	0.83172	175.28699	170.41667	65.96828	0.32857	 	2.26376E11	 	1.93644E-11	 	-2360.12311	28.32999	 
620.0	1.0	0.0	8.28848	7.19425	-10.25158	14.06376	18.23982	1.19969	0.83355	175.59471	170.58036	66.09087	0.32843	 	2.76256E11	 	1.57797E-11	 	-2501.5121	28.2778	 
615.0	1.0	0.0	8.29053	7.19246	-10.2738	14.03957	18.17781	1.19705	0.83539	175.9019	170.74332	66.21327	0.3283	 	3.37883E11	 	1.28294E-11	 	-2642.64113	28.22581	 
610.0	1.0	0.0	8.29258	7.19069	-10.29596	14.01537	18.11577	1.19438	0.83725	176.20854	170.90556	66.33549	0.32816	 	4.14201E11	 	1.04066E-11	 	-2783.51132	28.17404	 
605.0	1.0	0.0	8.29462	7.18892	-10.31805	13.99118	18.0537	1.1917	0.83913	176.51465	171.06709	66.45753	0.32803	 	5.08935E11	 	8.42156E-12	 	-2924.12378	28.12249	 
600.0	1.0	0.0	8.29666	7.18715	-10.34008	13.96698	17.9916	1.18901	0.84104	176.82022	171.22791	66.5794	0.32789	 	6.26814E11	 	6.79887E-12	 	-3064.47962	28.07117	 
595.0	1.0	0.0	8.29869	7.18539	-10.36204	13.94277	17.92948	1.1863	0.84296	177.12526	171.38801	66.70108	0.32775	 	7.73851E11	 	5.4755E-12	 	-3204.57997	28.02007	 
590.0	1.0	0.0	8.30072	7.18364	-10.38395	13.91856	17.86733	1.18357	0.8449	177.42976	171.5474	66.82258	0.32762	 	9.57715E11	 	4.39882E-12	 	-3344.42593	27.96919	 
585.0	1.0	0.0	8.30274	7.18188	-10.40579	13.89435	17.80515	1.18082	0.84687	177.73371	171.70609	66.9439	0.32748	 	1.18821E12	 	3.52497E-12	 	-3484.0186	27.91853	 
580.0	1.0	0.0	8.30476	7.18014	-10.42756	13.87014	17.74294	1.17806	0.84886	178.03714	171.86406	67.06503	0.32735	 	1.47791E12	 	2.81749E-12	 	-3623.3591	27.8681	 
575.0	1.0	0.0	8.30677	7.1784	-10.44928	13.84592	17.6807	1.17527	0.85086	178.34002	172.02134	67.18599	0.32721	 	1.84299E12	 	2.24614E-12	 	-3762.44854	27.81789	 
570.0	1.0	0.0	8.30878	7.17666	-10.47093	13.8217	17.61843	1.17248	0.8529	178.64237	172.17791	67.30677	0.32708	 	2.30426E12	 	1.78591E-12	 	-3901.28801	27.76789	 
565.0	1.0	0.0	8.31079	7.17493	-10.49251	13.79747	17.55612	1.16966	0.85495	178.94418	172.33377	67.42736	0.32694	 	2.88868E12	 	1.41615E-12	 	-4039.87862	27.71812	 
560.0	1.0	0.0	8.31279	7.17321	-10.51404	13.77325	17.49379	1.16682	0.85703	179.24545	172.48894	67.54778	0.3268	 	3.63115E12	 	1.11987E-12	 	-4178.22145	27.66857	 
555.0	1.0	0.0	8.31478	7.17149	-10.5355	13.74901	17.43142	1.16397	0.85913	179.54618	172.64341	67.66801	0.32667	 	4.57709E12	 	8.83093E-13	 	-4316.31762	27.61923	 
550.0	1.0	0.0	8.31677	7.16977	-10.5569	13.72478	17.36903	1.1611	0.86125	179.84638	172.79719	67.78806	0.32653	 	5.7857E12	 	6.94401E-13	 	-4454.1682	27.57012	 
545.0	1.0	0.0	8.31875	7.16806	-10.57823	13.70054	17.30659	1.15821	0.8634	180.14604	172.95027	67.90794	0.3264	 	7.33442E12	 	5.44445E-13	 	-4591.77429	27.52122	 
540.0	1.0	0.0	8.32073	7.16636	-10.5995	13.6763	17.24413	1.1553	0.86557	180.44516	173.10266	68.02763	0.32626	 	9.32488E12	 	4.25612E-13	 	-4729.13699	27.47254	 
535.0	1.0	0.0	8.32271	7.16466	-10.62071	13.65205	17.18163	1.15237	0.86777	180.74374	173.25436	68.14713	0.32613	 	1.18908E13	 	3.31717E-13	 	-4866.25735	27.42407	 
530.0	1.0	0.0	8.32468	7.16296	-10.64186	13.6278	17.11909	1.14943	0.87	181.04179	173.40537	68.26646	0.32599	 	1.52087E13	 	2.57745E-13	 	-5003.13648	27.37583	 
525.0	1.0	0.0	8.32664	7.16127	-10.66294	13.60355	17.05652	1.14646	0.87225	181.3393	173.5557	68.38561	0.32586	 	1.95125E13	 	1.99645E-13	 	-5139.77545	27.32779	 
520.0	1.0	0.0	8.3286	7.15959	-10.68396	13.57929	16.99392	1.14348	0.87452	181.63627	173.70534	68.50457	0.32572	 	2.5113E13	 	1.5415E-13	 	-5276.17535	27.27998	 
515.0	1.0	0.0	8.33056	7.15791	-10.70491	13.55503	16.93127	1.14047	0.87683	181.93271	173.85429	68.62335	0.32559	 	3.24246E13	 	1.18637E-13	 	-5412.33722	27.23237	 
510.0	1.0	0.0	8.3325	7.15623	-10.7258	13.53077	16.86859	1.13745	0.87916	182.2286	174.00257	68.74195	0.32545	 	4.20018E13	 	9.10048E-14	 	-5548.26215	27.18499	 
505.0	1.0	0.0	8.33445	7.15456	-10.74663	13.5065	16.80587	1.13441	0.88152	182.52396	174.15016	68.86037	0.32532	 	5.45889E13	 	6.95737E-14	 	-5683.9512	27.13781	 
500.0	1.0	0.0	8.33639	7.1529	-10.7674	13.48223	16.74311	1.13134	0.88391	182.81879	174.29708	68.97861	0.32518	 	7.11892E13	 	5.30074E-14	 	-5819.40544	27.09085	 
495.0	1.0	0.0	8.33832	7.15124	-10.7881	13.45796	16.68031	1.12826	0.88632	183.11307	174.44332	69.09666	0.32505	 	9.31591E13	 	4.02446E-14	 	-5954.62593	27.0441	 
490.0	1.0	0.0	8.34025	7.14958	-10.80874	13.43368	16.61746	1.12515	0.88877	183.40682	174.58888	69.21453	0.32492	 	1.22339E14	 	3.0446E-14	 	-6089.6137	26.99755	 
485.0	1.0	0.0	8.34218	7.14793	-10.82931	13.4094	16.55458	1.12203	0.89124	183.70003	174.73378	69.33222	0.32478	 	1.61239E14	 	2.29495E-14	 	-6224.36983	26.95123	 
480.0	1.0	0.0	8.3441	7.14629	-10.84983	13.38512	16.49165	1.11888	0.89375	183.9927	174.878	69.44973	0.32465	 	2.13286E14	 	1.72348E-14	 	-6358.89536	26.90511	 
475.0	1.0	0.0	8.34601	7.14465	-10.87028	13.36083	16.42868	1.11571	0.89629	184.28484	175.02155	69.56706	0.32451	 	2.83192E14	 	1.28942E-14	 	-6493.19132	26.85919	 
470.0	1.0	0.0	8.34792	7.14302	-10.89066	13.33654	16.36567	1.11252	0.89886	184.57644	175.16443	69.6842	0.32438	 	3.77447E14	 	9.60963E-15	 	-6627.25876	26.81349	 
465.0	1.0	0.0	8.34982	7.14139	-10.91098	13.31224	16.30261	1.10931	0.90146	184.8675	175.30665	69.80116	0.32424	 	5.0503499999999994E14	 	7.13361E-15	 	-6761.09871	26.76799	 
460.0	1.0	0.0	8.35172	7.13976	-10.93124	13.28795	16.23951	1.10608	0.90409	185.15802	175.44821	69.91794	0.32411	 	6.78441E14	 	5.27433E-15	 	-6894.71221	26.7227	 
455.0	1.0	0.0	8.35362	7.13815	-10.95144	13.26364	16.17635	1.10282	0.90676	185.44801	175.5891	70.03454	0.32398	 	9.15088E14	 	3.88369E-15	 	-7028.10028	26.67761	 
450.0	1.0	0.0	8.35551	7.13653	-10.97157	13.23934	16.11315	1.09955	0.90947	185.73746	175.72933	70.15095	0.32384	 	1.2394E15	 	2.84777E-15	 	-7161.26392	26.63273	 
445.0	1.0	0.0	8.35739	7.13492	-10.99164	13.21503	16.04991	1.09625	0.9122	186.02637	175.8689	70.26718	0.32371	 	1.68575E15	 	2.07926E-15	 	-7294.20418	26.58805	 
440.0	1.0	0.0	8.35927	7.13332	-11.01164	13.19072	15.98661	1.09293	0.91498	186.31474	176.00781	70.38323	0.32357	 	2.30276E15	 	1.51154E-15	 	-7426.92206	26.54358	 
435.0	1.0	0.0	8.36114	7.13172	-11.03158	13.1664	15.92326	1.08958	0.91778	186.60258	176.14607	70.49909	0.32344	 	3.15949E15	 	1.09394E-15	 	-7559.41855	26.4993	 
430.0	1.0	0.0	8.36301	7.13013	-11.05146	13.14208	15.85986	1.08621	0.92063	186.88988	176.28367	70.61478	0.32331	 	4.3545E15	 	7.88127E-16	 	-7691.69467	26.45522	 
425.0	1.0	0.0	8.36487	7.12854	-11.07127	13.11776	15.7964	1.08282	0.92351	187.17664	176.42062	70.73028	0.32317	 	6.02915E15	 	5.6517E-16	 	-7823.75127	26.41132	 
420.0	1.0	0.0	8.36673	7.12696	-11.09103	13.09344	15.73289	1.07941	0.92644	187.46286	176.55691	70.84559	0.32304	 	8.38711E15	 	4.03368E-16	 	-7955.58954	26.36766	 
415.0	1.0	0.0	8.36859	7.12538	-11.11071	13.06911	15.66933	1.07597	0.9294	187.74855	176.69256	70.96072	0.3229	 	1.17234E16	 	2.86496E-16	 	-8087.20992	26.32407	 
410.0	1.0	0.0	8.37043	7.1238	-11.13034	13.04477	15.6057	1.0725	0.9324	188.0337	176.82756	71.07567	0.32277	 	1.64672E16	 	2.0248E-16	 	-8218.61255	26.28053	 
405.0	1.0	0.0	8.37228	7.12224	-11.1499	13.02044	15.54202	1.06902	0.93544	188.31831	176.96191	71.19044	0.32264	 	2.32469E16	 	1.4238E-16	 	-8349.79762	26.23702	 
400.0	1.0	0.0	8.37411	7.12067	-11.16939	12.9961	15.47828	1.0655	0.93852	188.60239	177.09562	71.30502	0.3225	 	3.29863E16	 	9.96013E-17	 	-8480.7653	26.19354	 
395.0	1.0	0.0	8.37595	7.11912	-11.18883	12.97176	15.41448	1.06197	0.94165	188.88592	177.22869	71.41942	0.32237	 	4.70519E16	 	6.9308E-17	 	-8611.51574	26.15009	 
390.0	1.0	0.0	8.37777	7.11756	-11.20819	12.94741	15.35062	1.0584	0.94482	189.16892	177.36111	71.53364	0.32224	 	6.7475600000000008E16	 	4.7968E-17	 	-8742.04908	26.10667	 
385.0	1.0	0.0	8.3796	7.11602	-11.2275	12.92306	15.2867	1.05482	0.94803	189.45139	177.49289	71.64767	0.3221	 	9.7296E16	 	3.30154E-17	 	-8872.36548	26.06328	 
380.0	1.0	0.0	8.38141	7.11447	-11.24674	12.89871	15.22271	1.0512	0.95129	189.73331	177.62404	71.76152	0.32197	 	1.41084E17	 	2.25955E-17	 	-9002.46505	26.01991	 
375.0	1.0	0.0	8.38322	7.11294	-11.26592	12.87435	15.15865	1.04757	0.95459	190.0147	177.75454	71.87519	0.32184	 	2.05754E17	 	1.53749E-17	 	-9132.34794	25.97658	 
370.0	1.0	0.0	8.38503	7.1114	-11.28504	12.84999	15.09453	1.0439	0.95795	190.29555	177.88441	71.98867	0.3217	 	3.01834E17	 	1.03999E-17	 	-9262.01426	25.93326	 
365.0	1.0	0.0	8.38683	7.10988	-11.30409	12.82562	15.03034	1.04021	0.96135	190.57586	178.01365	72.10197	0.32157	 	4.45447E17	 	6.9922E-18	 	-9391.46412	25.88997	 
360.0	1.0	0.0	8.38863	7.10835	-11.32307	12.80126	14.96607	1.03649	0.9648	190.85563	178.14226	72.21508	0.32144	 	6.61444E17	 	4.67197E-18	 	-9520.69761	25.8467	 
355.0	1.0	0.0	8.39042	7.10684	-11.342	12.77689	14.90173	1.03274	0.96829	191.13487	178.27023	72.32801	0.32131	 	9.88379E17	 	3.10189E-18	 	-9649.71483	25.80344	 
350.0	1.0	0.0	8.3922	7.10533	-11.36086	12.75251	14.83732	1.02897	0.97184	191.41357	178.39758	72.44075	0.32117	 	1.48646E18	 	2.0461E-18	 	-9778.51586	25.7602	 
345.0	1.0	0.0	8.39398	7.10382	-11.37965	12.72813	14.77283	1.02517	0.97545	191.69173	178.52429	72.55332	0.32104	 	2.25035E18	 	1.3407E-18	 	-9907.10076	25.71698	 
340.0	1.0	0.0	8.39576	7.10232	-11.39839	12.70375	14.70827	1.02134	0.9791	191.96936	178.65038	72.66569	0.32091	 	3.42992E18	 	8.72507E-19	 	-10035.46962	25.67377	 
335.0	1.0	0.0	8.39753	7.10082	-11.41706	12.67937	14.64362	1.01749	0.98281	192.24644	178.77585	72.77789	0.32078	 	5.26415E18	 	5.63857E-19	 	-10163.62246	25.63057	 
330.0	1.0	0.0	8.39929	7.09933	-11.43566	12.65498	14.5789	1.0136	0.98658	192.52299	178.90069	72.88989	0.32064	 	8.13685E18	 	3.61789E-19	 	-10291.55932	25.58737	 
325.0	1.0	0.0	8.40105	7.09784	-11.4542	12.63059	14.51408	1.00969	0.99041	192.799	179.02491	73.00172	0.32051	 	1.26691E19	 	2.30436E-19	 	-10419.28024	25.54418	 
320.0	1.0	0.0	8.4028	7.09636	-11.47268	12.60619	14.44919	1.00574	0.99429	193.07448	179.14851	73.11336	0.32038	 	1.98737E19	 	1.45671E-19	 	-10546.78522	25.501	 
315.0	1.0	0.0	8.40455	7.09489	-11.49109	12.58179	14.3842	1.00177	0.99823	193.34941	179.27149	73.22481	0.32025	 	3.14149E19	 	9.13775E-20	 	-10674.07428	25.45781	 
310.0	1.0	0.0	8.40629	7.09342	-11.50944	12.55739	14.31912	0.99777	1.00224	193.62381	179.39385	73.33608	0.32011	 	5.00498E19	 	5.68676E-20	 	-10801.14739	25.41462	 
305.0	1.0	0.0	8.40803	7.09195	-11.52773	12.53299	14.25395	0.99374	1.0063	193.89767	179.5156	73.44716	0.31998	 	8.03835E19	 	3.51043E-20	 	-10928.00453	25.37143	 
300.0	1.0	0.0	8.40976	7.09049	-11.54595	12.50858	14.18869	0.98967	1.01043	194.171	179.63673	73.55806	0.31985	 	1.3017299999999998E20	 	2.14898E-20	 	-11054.64565	25.32822	 
295.0	1.0	0.0	8.41149	7.08903	-11.56411	12.48416	14.12332	0.98558	1.01463	194.44378	179.75725	73.66878	0.31972	 	2.1259999999999997E20	 	1.30433E-20	 	-11181.0707	25.28501	 
290.0	1.0	0.0	8.41321	7.08758	-11.5822	12.45975	14.05786	0.98146	1.01889	194.71603	179.87716	73.77931	0.31958	 	3.50256E20	 	7.84739E-21	 	-11307.27961	25.24178	 
285.0	1.0	0.0	8.41493	7.08614	-11.60023	12.43533	13.99229	0.9773	1.02323	194.98774	179.99646	73.88965	0.31945	 	5.8222799999999993E20	 	4.67891E-21	 	-11433.27229	25.19854	 
280.0	1.0	0.0	8.41664	7.0847	-11.6182	12.41091	13.92662	0.97311	1.02763	195.25891	180.11515	73.99981	0.31932	 	9.767669999999999E20	 	2.764E-21	 	-11559.04863	25.15527	 
275.0	1.0	0.0	8.41834	7.08326	-11.6361	12.38648	13.86084	0.96889	1.03211	195.52955	180.23323	74.10979	0.31919	 	1.6542E21	 	1.61733E-21	 	-11684.6085	25.11197	 
270.0	1.0	0.0	8.42004	7.08183	-11.65394	12.36205	13.79495	0.96464	1.03665	195.79964	180.35071	74.21958	0.31906	 	2.82877E21	 	9.3715E-22	 	-11809.95178	25.06865	 
265.0	1.0	0.0	8.42174	7.08041	-11.67172	12.33762	13.72894	0.96036	1.04128	196.0692	180.46758	74.32918	0.31892	 	4.88581E21	 	5.37593E-22	 	-11935.07827	25.0253	 
260.0	1.0	0.0	8.42343	7.07899	-11.68943	12.31318	13.66281	0.95604	1.04598	196.33822	180.58385	74.4386	0.31879	 	8.52565E21	 	3.05217E-22	 	-12059.98782	24.98191	 
255.0	1.0	0.0	8.42511	7.07757	-11.70707	12.28874	13.59656	0.95169	1.05077	196.6067	180.69951	74.54783	0.31866	 	1.5034799999999998E22	 	1.71454E-22	 	-12184.68019	24.93848	 
250.0	1.0	0.0	8.42679	7.07616	-11.72466	12.26429	13.53019	0.9473	1.05563	196.87465	180.81458	74.65688	0.31853	 	2.6802499999999996E22	 	9.52661E-23	 	-12309.15517	24.895	 
245.0	1.0	0.0	8.42846	7.07476	-11.74218	12.23985	13.46368	0.94288	1.06058	197.14205	180.92905	74.76574	0.3184	 	4.8316899999999995E22	 	5.23412E-23	 	-12433.41252	24.85147	 
240.0	1.0	0.0	8.43013	7.07336	-11.75963	12.2154	13.39705	0.93843	1.06561	197.40892	181.04292	74.87441	0.31827	 	8.81069E22	 	2.84264E-23	 	-12557.45194	24.80788	 
235.0	1.0	0.0	8.43179	7.07197	-11.77702	12.19094	13.33028	0.93394	1.07073	197.67525	181.15619	74.9829	0.31814	 	1.62576E23	 	1.52554E-23	 	-12681.27312	24.76424	 
230.0	1.0	0.0	8.43345	7.07058	-11.79435	12.16648	13.26336	0.92942	1.07595	197.94104	181.26887	75.0912	0.318	 	3.03661E23	 	8.08714E-24	 	-12804.87575	24.72052	 
225.0	1.0	0.0	8.4351	7.06919	-11.81161	12.14202	13.1963	0.92486	1.08125	198.2063	181.38096	75.19932	0.31787	 	5.7433999999999994E23	 	4.23329E-24	 	-12928.25945	24.67674	 
220.0	1.0	0.0	8.43674	7.06782	-11.82881	12.11756	13.1291	0.92026	1.08665	198.47102	181.49246	75.30725	0.31774	 	1.10043E24	 	2.18728E-24	 	-13051.42385	24.63288	 
215.0	1.0	0.0	8.43838	7.06644	-11.84594	12.09309	13.06174	0.91563	1.09215	198.73519	181.60336	75.415	0.31761	 	2.13668E24	 	1.11507E-24	 	-13174.3685	24.58893	 
210.0	1.0	0.0	8.44002	7.06507	-11.86301	12.06862	12.99421	0.91096	1.09775	198.99883	181.71368	75.52255	0.31748	 	4.20612E24	 	5.60644E-25	 	-13297.09297	24.54489	 
205.0	1.0	0.0	8.44165	7.06371	-11.88002	12.04414	12.92653	0.90625	1.10345	199.26194	181.8234	75.62993	0.31735	 	8.398E24	 	2.77891E-25	 	-13419.59674	24.50075	 
200.0	1.0	0.0	8.44327	7.06235	-11.89696	12.01967	12.85867	0.90151	1.10925	199.5245	181.93254	75.73711	0.31722	 	1.70144E25	 	1.35728E-25	 	-13541.87929	24.45651	 
195.0	1.0	0.0	8.44489	7.061	-11.91384	11.99518	12.79065	0.89672	1.11517	199.78652	182.0411	75.84411	0.31709	 	3.49951E25	 	6.52927E-26	 	-13663.94006	24.41215	 
190.0	1.0	0.0	8.4465	7.05965	-11.93065	11.9707	12.72244	0.8919	1.1212	200.04801	182.14907	75.95092	0.31696	 	7.310710000000001E25	 	3.09207E-26	 	-13785.77844	24.36767	 
185.0	1.0	0.0	8.44811	7.05831	-11.9474	11.94621	12.65404	0.88704	1.12734	200.30896	182.25646	76.05755	0.31683	 	1.5520200000000003E26	 	1.44078E-26	 	-13907.39376	24.32307	 
180.0	1.0	0.0	8.44971	7.05697	-11.96409	11.92172	12.58545	0.88214	1.1336	200.56937	182.36327	76.16399	0.31669	 	3.3500200000000006E26	 	6.60209E-27	 	-14028.78533	24.27831	 
175.0	1.0	0.0	8.4513	7.05564	-11.98071	11.89722	12.51666	0.8772	1.13998	200.82924	182.4695	76.27024	0.31656	 	7.356220000000001E26	 	2.97342E-27	 	-14149.9524	24.23341	 
170.0	1.0	0.0	8.45289	7.05431	-11.99727	11.87272	12.44766	0.87223	1.14649	201.08858	182.57515	76.3763	0.31643	 	1.64426E27	 	1.31543E-27	 	-14270.89417	24.18835	 
165.0	1.0	0.0	8.45448	7.05299	-12.01376	11.84822	12.37845	0.86721	1.15313	201.34737	182.68022	76.48218	0.3163	 	3.74334E27	 	5.71282E-28	 	-14391.60977	24.14312	 
160.0	1.0	0.0	8.45606	7.05167	-12.03019	11.82371	12.30902	0.86215	1.1599	201.60563	182.78472	76.58787	0.31617	 	8.68553E27	 	2.43405E-28	 	-14512.09833	24.09771	 
155.0	1.0	0.0	8.45763	7.05036	-12.04655	11.7992	12.23936	0.85704	1.1668	201.86335	182.88864	76.69337	0.31604	 	2.05528E28	 	1.01674E-28	 	-14632.35883	24.0521	 
150.0	1.0	0.0	8.4592	7.04905	-12.06286	11.77469	12.16946	0.8519	1.17385	202.12053	182.99199	76.79869	0.31591	 	4.963480000000001E28	 	4.16098E-29	 	-14752.39026	24.00629	 
145.0	1.0	0.0	8.46076	7.04775	-12.07909	11.75017	12.09932	0.84672	1.18103	202.37717	183.09477	76.90382	0.31578	 	1.22422E29	 	1.6671E-29	 	-14872.19152	23.96025	 
140.0	1.0	0.0	8.46232	7.04646	-12.09526	11.72565	12.02891	0.84149	1.18837	202.63327	183.19697	77.00876	0.31565	 	3.08617E29	 	6.53393E-30	 	-14991.76141	23.91398	 
135.0	1.0	0.0	8.46387	7.04516	-12.11137	11.70113	11.95825	0.83622	1.19586	202.88883	183.29861	77.11351	0.31552	 	7.95831E29	 	2.50314E-30	 	-15111.0987	23.86746	 
130.0	1.0	0.0	8.46541	7.04388	-12.12741	11.6766	11.8873	0.8309	1.20351	203.14386	183.39968	77.21808	0.31539	 	2.101E30	 	9.36541E-31	 	-15230.20204	23.82067	 
125.0	1.0	0.0	8.46695	7.0426	-12.14339	11.65207	11.81607	0.82554	1.21132	203.39835	183.50018	77.32245	0.31526	 	5.68357E30	 	3.41911E-31	 	-15349.07003	23.7736	 
120.0	1.0	0.0	8.46849	7.04132	-12.15931	11.62754	11.74454	0.82014	1.2193	203.6523	183.60012	77.42665	0.31513	 	1.57692E31	 	1.21685E-31	 	-15467.70113	23.72622	 
115.0	1.0	0.0	8.47001	7.04005	-12.17516	11.603	11.67271	0.81469	1.22746	203.90571	183.69949	77.53065	0.315	 	4.491739999999999E31	 	4.21767E-32	 	-15586.09374	23.67852	 
110.0	1.0	0.0	8.47154	7.03879	-12.19094	11.57846	11.60054	0.8092	1.23579	204.15858	183.7983	77.63446	0.31487	 	1.31488E32	 	1.42223E-32	 	-15704.24615	23.63048	 
105.0	1.0	0.0	8.47305	7.03753	-12.20666	11.55391	11.52805	0.80366	1.2443	204.41091	183.89655	77.73809	0.31474	 	3.9599599999999996E32	 	4.6608E-33	 	-15822.15653	23.58208	 
100.0	1.0	0.0	8.47457	7.03627	-12.22232	11.52936	11.4552	0.79808	1.25301	204.6627	183.99423	77.84153	0.31461	 	1.22837E33	 	1.48266E-33	 	-15939.82294	23.53328	 
95.0	1.0	0.0	8.47607	7.03502	-12.23791	11.50481	11.38198	0.79245	1.26191	204.91396	184.09136	77.94478	0.31448	 	3.92935E33	 	4.5729E-34	 	-16057.2433	23.48407	 
90.0	1.0	0.0	8.47757	7.03378	-12.25344	11.48026	11.30839	0.78678	1.27101	205.16467	184.18793	78.04784	0.31435	 	1.29783E34	 	1.3657E-34	 	-16174.41542	23.43442	 
85.0	1.0	0.0	8.47906	7.03254	-12.2689	11.4557	11.23439	0.78105	1.28032	205.41485	184.28394	78.15071	0.31422	 	4.43204E34	 	3.9441E-35	 	-16291.33694	23.3843	 
80.0	1.0	0.0	8.48055	7.0313	-12.2843	11.43114	11.15998	0.77529	1.28985	205.66449	184.3794	78.2534	0.31409	 	1.5670899999999999E35	 	1.0999E-35	 	-16408.00535	23.33368	 
75.0	1.0	0.0	8.48204	7.03007	-12.29964	11.40657	11.08513	0.76947	1.2996	205.91359	184.4743	78.35589	0.31396	 	5.745629999999999E35	 	2.95744E-36	 	-16524.418	23.28253	 
70.0	1.0	0.0	8.48351	7.02885	-12.31491	11.382	11.00983	0.76361	1.30958	206.16215	184.56865	78.4582	0.31383	 	2.1878899999999998E36	 	7.65501E-37	 	-16640.57202	23.23081	 
65.0	1.0	0.0	8.48498	7.02763	-12.33011	11.35743	10.93405	0.75769	1.31979	206.41017	184.66245	78.56032	0.3137	 	8.667309999999999E36	 	1.9042E-37	 	-16756.46439	23.17847	 
60.0	1.0	0.0	8.48645	7.02642	-12.34525	11.33286	10.85777	0.75174	1.33025	206.65765	184.7557	78.66225	0.31358	 	3.57841E37	 	4.54398E-38	 	-16872.09184	23.12549	 
55.0	1.0	0.0	8.48791	7.02521	-12.36033	11.30828	10.78097	0.74573	1.34097	206.90459	184.8484	78.76399	0.31345	 	1.54263E38	 	1.03824E-38	 	-16987.45093	23.07182	 
50.0	1.0	0.0	8.48936	7.024	-12.37534	11.28369	10.70361	0.73967	1.35195	207.151	184.94054	78.86554	0.31332	 	6.95776E38	 	2.26684E-39	 	-17102.53794	23.0174	 
45.0	1.0	0.0	8.49081	7.02281	-12.39029	11.25911	10.62568	0.73357	1.3632	207.39686	185.03215	78.96691	0.31319	 	3.2903400000000005E39	 	4.71931E-40	 	-17217.34892	22.9622	 
40.0	1.0	0.0	8.49226	7.02161	-12.40517	11.23452	10.54713	0.72742	1.37473	207.64219	185.1232	79.06808	0.31306	 	1.63516E40	 	9.34716E-41	 	-17331.87963	22.90614	 
35.0	1.0	0.0	8.49369	7.02043	-12.41999	11.20993	10.46795	0.72122	1.38654	207.88697	185.21372	79.16907	0.31293	 	8.56003E40	 	1.75701E-41	 	-17446.12554	22.84918	 
30.0	1.0	0.0	8.49512	7.01924	-12.43475	11.18533	10.38809	0.71497	1.39866	208.13122	185.30368	79.26986	0.3128	 	4.73267E41	 	3.12635E-42	 	-17560.08179	22.79125	 
25.0	1.0	0.0	8.49655	7.01807	-12.44944	 	10.30751	0.70867	1.41108	208.37493	185.39311	79.37047	0.31267	 	2.7710499999999998E42	 	5.25142E-43	 	-17673.74317	 	 
