T (C)	Fraction solid (wt)-TOTAL	Fraction liquid (wt)-LIQUID	Density (g/(cm)^3)-TOTAL	Molar volume (cm^3)-TOTAL	Volume change (%)-  	Average expansion coeff. (10e-6 1/K)-  	Thermal conductivity (W/(m*K))-TOTAL	Electrical resistivity (10e-6 Ohm*m)-TOTAL	Electrical conductivity (10e6 1/(Ohm*m))-TOTAL	Young's modulus (GPa)-TOTAL	Bulk modulus (GPa)-TOTAL	Shear modulus(GPa)-TOTAL	Poisson's ratio-TOTAL	Liquid viscosity (mPa s)-  	Total viscosity (mPa s)-  	Liquid diffusivity (10e-9 (m^2)/s)-  	Total diffusivity (10e-9 (m^2)/s)-  	Surface Tension (mN/m)-  	Enthalpy (J/mole)-TOTAL	Specific heat (J/(mole K))-TOTAL	Latent heat (J/mole)-TOTAL
1400.0	0.0	1.0	7.00278	7.80134	0.0	32.07551	31.13119	1.31676	0.75944	0.0	121.24683	0.0	0.5	5.99588	5.99588	1.36197	1.36197	1710.56677	51952.995	 	0.0
1395.0	0.0	1.0	7.00675	7.79692	-0.0566019	32.03664	31.04943	1.31628	0.75972	0.0	121.39993	0.0	0.5	6.05715	6.05715	1.34417	1.34417	1712.09746	51749.117	40.7756	0.0
1390.0	0.0	1.0	7.0107	7.79252	-0.11304	31.99792	30.96767	1.3158	0.76	0.0	121.55303	0.0	0.5	6.11943	6.11943	1.3265	1.3265	1713.63175	51545.694	40.6846	0.0
1385.0	0.0	1.0	7.01466	7.78813	-0.16933	31.95935	30.88592	1.31531	0.76027	0.0	121.70613	0.0	0.5	6.18272	6.18272	1.30897	1.30897	1715.16945	51342.724	40.594	0.0
1380.0	0.0	1.0	7.0186	7.78375	-0.22545	31.92095	30.80416	1.31483	0.76056	0.0	121.85923	0.0	0.5	6.24706	6.24706	1.29159	1.29159	1716.71035	51140.205	40.5038	0.0
1375.0	0.0	1.0	7.02254	7.77938	-0.28142	31.8827	30.72239	1.31434	0.76084	0.0	122.01233	0.0	0.5	6.31247	6.31247	1.27434	1.27434	1718.25421	50938.133	40.4144	0.0
1370.0	0.0	1.0	7.02647	7.77503	-0.33723	31.84462	30.64063	1.31385	0.76112	0.0	122.16543	0.0	0.5	6.37897	6.37897	1.25723	1.25723	1719.80078	50736.507	40.3252	0.0
1365.0	0.0	1.0	7.0304	7.77069	-0.39288	31.80669	30.55887	1.31336	0.76141	0.0	122.31853	0.0	0.5	6.44658	6.44658	1.24026	1.24026	1721.34981	50535.325	40.2364	0.0
1360.0	0.0	1.0	7.03432	7.76636	-0.44837	31.76894	30.4771	1.31286	0.7617	0.0	122.47163	0.0	0.5	6.51532	6.51532	1.22342	1.22342	1722.90101	50334.584	40.1482	0.0
1355.0	0.0	1.0	7.03823	7.76204	-0.5037	31.73135	30.39533	1.31236	0.76198	0.0	122.62473	0.0	0.5	6.58523	6.58523	1.20673	1.20673	1724.4541	50134.282	40.0604	0.0
1350.0	0.0	1.0	7.04214	7.75774	-0.55887	31.69393	30.31356	1.31186	0.76228	0.0	122.77783	0.0	0.5	6.65632	6.65632	1.19018	1.19018	1726.00877	49934.417	39.973	0.0
1345.0	0.0	1.0	7.04603	7.75345	-0.61388	31.65667	30.23179	1.31136	0.76257	0.0	122.93093	0.0	0.5	6.72863	6.72863	1.17376	1.17376	1727.5647	49734.986	39.8862	0.0
1340.0	0.0	1.0	7.04992	7.74917	-0.66874	31.6196	30.15002	1.31085	0.76286	0.0	123.08403	0.0	0.5	6.80218	6.80218	1.15748	1.15748	1729.12157	49535.988	39.7996	0.0
1339.53	0.0	1.0	7.05029	7.74877	-0.67388	31.61613	30.14234	1.3108	0.76289	0.0	123.0984	0.0	0.5	6.80915	6.80915	1.15596	1.15596	1729.26776	49517.327	39.75416	0.0010
1335.0	0.10737	0.89263	7.07968	7.71662	-1.08593	30.53828	30.48332	1.2925	0.77369	0.0117532	123.23806	0.00395591	0.48552	6.84583	12.16749	1.14654	0.64508	1727.10014	47711.836	398.51123	1625.583
1330.0	0.20771	0.79229	7.10782	7.68609	-1.47725	29.52349	30.79787	1.27532	0.78412	0.16792	123.41881	0.0570435	0.47183	6.88626	73.00386	1.13626	0.10718	1724.8169	46003.107	341.7458	3136.172
1325.0	0.29247	0.70753	7.13225	7.65982	-1.814	28.65932	31.05884	1.26066	0.79323	0.67204	123.62695	0.23013	0.46013	6.92671	277.94891	1.1261	0.0280633	1722.63581	44537.333	293.1548	4404.231
1323.34	0.31726	0.68274	7.13953	7.652	-1.91431	28.40442	31.13321	1.25634	0.79596	0.93548	123.704	0.3211	0.45668	6.94025	389.11134	1.12273	0.0200253	1721.93322	44102.238	 	4773.643
1320.0	0.41888	0.58112	7.16853	7.62108	-2.31066	27.32244	31.47031	1.24029	0.80627	2.90372	124.2365	1.00675	0.44213	6.99485	1228.12913	1.11164	0.00633139	1720.39087	42375.455	432.3756	6368.819
1315.0	0.53485	0.46515	7.20253	7.5851	-2.77179	26.07911	31.85221	1.22157	0.81862	7.9555	124.85799	2.79083	0.42529	7.07297	3500.92582	1.09591	0.00221409	1718.14335	40380.177	399.0556	8167.228
1310.0	0.6183	0.3817	7.22797	7.5585	-3.11271	25.17922	32.11782	1.20765	0.82805	14.55504	125.36927	5.15037	0.41301	7.14802	6705.61524	1.08099	0.00115231	1719.95135	38908.59993	294.31541	9442.119
1305.0	0.68053	0.31947	7.24644	7.5387	-3.36657	24.52903	32.30389	1.1969	0.83549	21.75529	125.72942	7.74919	0.40371	7.22073	10568.4017	1.06673	7.28829E-4	1721.77274	37774.47478	226.82503	10378.019
1300.0	0.72831	0.27169	7.26115	7.52294	-3.56857	24.02724	32.43202	1.1884	0.84147	28.96641	126.06555	10.37114	0.39649	7.2918	14875.43273	1.05299	5.16163E-4	1723.60712	36868.92967	181.10902	11085.799
1295.0	0.76592	0.23408	7.27327	7.50997	-3.73485	23.62765	32.5177	1.1815	0.84638	35.87437	126.39483	12.89759	0.39074	7.36177	19511.04831	1.03966	3.92278E-4	1725.45519	36122.65185	149.25556	11634.77
1290.0	0.79617	0.20383	7.28356	7.49901	-3.87529	23.30202	32.57177	1.17578	0.8505	42.33663	126.72696	15.27226	0.38606	7.43111	24418.60898	1.02668	3.1244E-4	1727.31581	35490.73594	126.38318	12069.834
1285.0	0.82093	0.17907	7.29252	7.48954	-3.99677	23.03059	32.60166	1.17094	0.85401	48.31034	127.06601	17.476	0.38219	7.50024	29581.26934	1.01396	2.57086E-4	1729.18888	34943.14194	109.5188	12421.03
1280.0	0.84152	0.15848	7.3005	7.48117	-4.10398	22.7999	32.61288	1.16678	0.85706	53.80281	127.41398	19.50887	0.37893	7.56944	35004.93216	1.00147	2.16556E-4	1731.0741	34459.18729	96.79093	12709.038
1275.0	0.85887	0.14113	7.30772	7.47368	-4.20009	22.60092	32.60928	1.16316	0.85973	58.84001	127.7713	21.37843	0.37615	7.63903	40706.20069	0.98915	1.85626E-4	1732.97105	34024.26128	86.9852	12948.465
1270.0	0.87366	0.12634	7.31436	7.46683	-4.28787	22.42557	32.59375	1.15995	0.8621	63.46613	128.1375	23.09957	0.37375	7.70919	46716.74391	0.97698	1.61221E-4	1734.88134	33627.80162	79.29193	13149.869
1265.0	0.88641	0.11359	7.32055	7.46051	-4.36878	22.26969	32.56856	1.15709	0.86424	67.71996	128.51224	24.6855	0.37165	7.78021	53069.72902	0.96493	1.41462E-4	1736.80375	33262.01633	73.15706	13321.043
1260.0	0.9026	0.097399	7.32769	7.45339	-4.46014	22.08067	32.55808	1.1537	0.86678	73.39253	128.94428	26.80511	0.369	7.84033	61238.83199	0.95441	1.22192E-4	1738.62634	32844.21423	83.56042	13544.674
1255.0	0.9173	0.0827009	7.33464	7.44654	-4.54793	21.90101	32.54035	1.15056	0.86914	78.90621	129.38872	28.87023	0.36657	7.89671	70137.53168	0.94451	1.06341E-4	1740.43033	32449.24933	78.99298	13745.907
1250.0	0.9294	0.0705979	7.34105	7.44028	-4.62822	21.74303	32.51049	1.14785	0.87119	83.75824	129.83215	30.69133	0.36453	7.9529	79356.57895	0.93477	9.36799E-5	1742.24597	32092.98433	71.253	13908.873
1245.0	0.93951	0.0604939	7.34704	7.43448	-4.70247	21.60242	32.47124	1.14547	0.87301	88.05775	130.27643	32.30787	0.36279	8.00916	88976.23332	0.92515	8.32774E-5	1744.07001	31766.32857	65.33115	14042.663
1240.0	0.94804	0.0519569	7.35271	7.42904	-4.7723	21.47441	32.42451	1.14334	0.87463	91.89559	130.72121	33.75303	0.36129	8.06565	99076.43921	0.91565	7.45415E-5	1745.90732	31462.74447	60.71682	14153.816
1235.0	0.95534	0.044664	7.35812	7.42389	-4.8383	21.35727	32.37181	1.14142	0.87611	95.34579	131.16733	35.05391	0.35999	8.12272	109739.3731	0.90621	6.70762E-5	1747.75322	31177.44143	57.06061	14247.121
1230.0	0.96162	0.0383773	7.36332	7.41898	-4.90124	21.24874	32.31427	1.13966	0.87746	98.46836	131.61446	36.2326	0.35884	8.18044	121047.1902	0.89683	6.06086E-5	1749.60888	30906.84387	54.11951	14326.151
1225.0	0.96709	0.0329107	7.36834	7.41426	-4.96165	21.14726	32.25273	1.13803	0.87871	101.31308	132.06259	37.30752	0.35781	8.23896	133085.7274	0.8875	5.49428E-5	1751.47385	30648.23724	51.72133	14393.619
1220.0	0.97188	0.0281231	7.37322	7.40971	-5.01995	21.05161	32.18788	1.13652	0.87988	103.9203	132.51152	38.2936	0.35689	8.29832	145943.9149	0.87821	4.99349E-5	1753.34823	30399.52795	49.74186	14451.615
1215.0	0.97976	0.0202396	7.37986	7.40361	-5.09821	20.89183	32.13714	1.1345	0.88144	107.7981	133.0104	39.76431	0.35546	8.36469	162202.4314	0.86833	4.47792E-5	1755.24166	30104.09042	59.08751	14556.762
1210.0	0.99236	0.00763815	7.38912	7.39509	-5.20744	20.63207	32.1088	1.13169	0.88363	113.79713	133.59246	42.04532	0.35327	8.44675	183864.9668	0.857	3.93707E-5	1757.17127	29739.00309	73.01747	14731.981
1205.0	1.0	0.0	7.39589	7.38873	-5.28893	20.45884	32.05902	1.12963	0.88525	119.2082	134.12126	44.09027	0.35187	 	204162.0035	 	3.53371E-5	 	29445.46239	58.70814	14836.07
1200.0	1.0	0.0	7.39854	7.38609	-5.32278	20.43718	31.97371	1.12881	0.88589	119.7119	134.5344	44.28211	0.3517	 	219791.2989	 	3.27132E-5	 	29233.07995	42.47649	 
1195.0	1.0	0.0	7.40118	7.38346	-5.35655	20.41556	31.88841	1.12799	0.88654	120.21463	134.94561	44.47363	0.35153	 	236734.4203	 	3.02688E-5	 	29050.98633	36.41873	 
1190.0	1.0	0.0	7.40381	7.38083	-5.39026	20.39399	31.8031	1.12716	0.88719	120.71638	135.35489	44.66484	0.35136	 	255111.416	 	2.79928E-5	 	28869.21623	36.35402	 
1185.0	1.0	0.0	7.40645	7.3782	-5.42389	20.37246	31.7178	1.12633	0.88784	121.21716	135.76225	44.85572	0.35119	 	275054.1758	 	2.58744E-5	 	28687.76856	36.28953	 
1180.0	1.0	0.0	7.40908	7.37558	-5.45745	20.35098	31.63249	1.12549	0.8885	121.71696	136.16769	45.04629	0.35102	 	296707.6782	 	2.39039E-5	 	28506.64227	36.22526	 
1175.0	1.0	0.0	7.4117	7.37297	-5.49094	20.32954	31.54719	1.12465	0.88916	122.21579	136.57124	45.23655	0.35085	 	320231.3491	 	2.20717E-5	 	28325.83628	36.1612	 
1170.0	1.0	0.0	7.41432	7.37036	-5.52437	20.30814	31.46188	1.12381	0.88983	122.71364	136.97288	45.42649	0.35068	 	345800.6669	 	2.03691E-5	 	28145.34952	36.09735	 
1165.0	1.0	0.0	7.41694	7.36776	-5.55771	20.2868	31.37658	1.12296	0.8905	123.21053	137.37264	45.61611	0.35052	 	373608.827	 	1.87877E-5	 	27965.18092	36.03372	 
1160.0	1.0	0.0	7.41956	7.36517	-5.59099	20.2655	31.29127	1.12211	0.89118	123.70644	137.77053	45.80542	0.35035	 	403868.7067	 	1.73196E-5	 	27785.32943	35.9703	 
1155.0	1.0	0.0	7.42217	7.36258	-5.6242	20.24425	31.20597	1.12125	0.89186	124.20139	138.16653	45.99441	0.35018	 	436814.983	 	1.59574E-5	 	27605.794	35.90709	 
1150.0	1.0	0.0	7.42477	7.35999	-5.65734	20.22305	31.12066	1.12039	0.89255	124.69536	138.56068	46.18309	0.35001	 	472706.5603	 	1.46942E-5	 	27426.57354	35.84409	 
1145.0	1.0	0.0	7.42738	7.35741	-5.6904	20.2019	31.03535	1.11952	0.89324	125.18837	138.95297	46.37145	0.34984	 	511829.1764	 	1.35233E-5	 	27247.66704	35.7813	 
1140.0	1.0	0.0	7.42998	7.35484	-5.7234	20.1808	30.95005	1.11865	0.89394	125.68042	139.34341	46.5595	0.34968	 	554498.4893	 	1.24387E-5	 	27069.07344	35.71872	 
1135.0	1.0	0.0	7.43257	7.35227	-5.75632	20.15976	30.86474	1.11777	0.89464	126.1715	139.73201	46.74723	0.34951	 	601063.3039	 	1.14345E-5	 	26890.7917	35.65635	 
1130.0	1.0	0.0	7.43516	7.3497	-5.78918	20.13876	30.77943	1.11689	0.89535	126.66161	140.11878	46.93465	0.34934	 	651909.4031	 	1.05052E-5	 	26712.82077	35.59419	 
1125.0	1.0	0.0	7.43775	7.34715	-5.82196	20.11781	30.69412	1.116	0.89606	127.15076	140.50372	47.12175	0.34917	 	707463.7253	 	9.64576E-6	 	26535.15964	35.53222	 
1120.0	1.0	0.0	7.44034	7.3446	-5.85467	20.09692	30.60882	1.11511	0.89677	127.63895	140.88685	47.30854	0.34901	 	768198.9712	 	8.85138E-6	 	26357.80728	35.47047	 
1115.0	1.0	0.0	7.44292	7.34205	-5.88731	20.07609	30.5235	1.11421	0.89749	128.12618	141.26817	47.49502	0.34884	 	834638.9732	 	8.11754E-6	 	26180.76264	35.40893	 
1110.39	1.0	0.0	7.4453	7.3397	-5.91737	20.05688	30.44479	1.11338	0.89817	128.57486	141.61836	47.66679	0.34868	 	901498.6113	 	7.49053E-6	 	26017.69058	 	 
1110.0	1.0	0.0	7.44549	7.33951	-5.91987	20.05535	30.4382	1.11331	0.89822	128.61251	141.64775	47.6812	0.34867	 	907366.8313	 	7.44E-6	 	26004.00763	35.351	 
1105.0	1.0	0.0	7.44804	7.33699	-5.95211	20.03553	30.353	1.1124	0.89896	129.09865	142.02675	47.86735	0.3485	 	987069.7131	 	6.81452E-6	 	25827.30578	35.34037	 
1100.0	1.0	0.0	7.45059	7.33448	-5.98428	20.01574	30.26779	1.11148	0.8997	129.58381	142.40391	48.05317	0.34834	 	1074425.051	 	6.23776E-6	 	25650.91839	35.27748	 
1095.0	1.0	0.0	7.45314	7.33198	-6.0164	19.99599	30.18257	1.11056	0.90044	130.06799	142.77925	48.23868	0.34817	 	1170228.656	 	5.70624E-6	 	25474.84415	35.21485	 
1090.0	1.0	0.0	7.45568	7.32948	-6.04845	19.97627	30.09735	1.10964	0.90119	130.55119	143.15278	48.42386	0.348	 	1275365.463	 	5.2167E-6	 	25299.08183	35.15246	 
1085.0	1.0	0.0	7.45822	7.32698	-6.08044	19.95658	30.01213	1.10871	0.90195	131.03341	143.52451	48.60872	0.34784	 	1390819.958	 	4.7661E-6	 	25123.63013	35.09034	 
1080.0	1.0	0.0	7.46076	7.32449	-6.11237	19.93693	29.9269	1.10777	0.90271	131.51465	143.89444	48.79326	0.34767	 	1517688.425	 	4.35161E-6	 	24948.48765	35.02849	 
1075.0	1.0	0.0	7.46329	7.32201	-6.14424	19.91732	29.84166	1.10683	0.90348	131.99492	144.26258	48.97748	0.34751	 	1657192.208	 	3.97056E-6	 	24773.65301	34.96693	 
1070.0	1.0	0.0	7.46582	7.31952	-6.17604	19.89776	29.75642	1.10589	0.90425	132.47422	144.62895	49.16139	0.34734	 	1810693.263	 	3.62048E-6	 	24599.12488	34.90563	 
1065.0	1.0	0.0	7.46835	7.31705	-6.20778	19.87823	29.67117	1.10493	0.90503	132.95255	144.99354	49.34497	0.34717	 	1979711.215	 	3.29906E-6	 	24424.90209	34.84456	 
1060.0	1.0	0.0	7.47087	7.31458	-6.23946	19.85875	29.58591	1.10398	0.90582	133.4299	145.35637	49.52824	0.34701	 	2165943.024	 	3.00413E-6	 	24250.98336	34.78375	 
1055.0	1.0	0.0	7.47339	7.31211	-6.27107	19.83931	29.50065	1.10302	0.90661	133.90629	145.71745	49.71119	0.34684	 	2371284.919	 	2.7337E-6	 	24077.36749	34.72317	 
1050.0	1.0	0.0	7.47591	7.30965	-6.30262	19.81991	29.41539	1.10205	0.9074	134.38172	146.07679	49.89383	0.34668	 	2597857.717	 	2.48588E-6	 	23904.05326	34.66285	 
1045.0	1.0	0.0	7.47842	7.30719	-6.3341	19.80057	29.33011	1.10108	0.9082	134.85618	146.43438	50.07614	0.34651	 	2848034.823	 	2.25895E-6	 	23731.03947	34.60276	 
1040.0	1.0	0.0	7.48093	7.30474	-6.36552	19.78127	29.24484	1.1001	0.90901	135.32968	146.79025	50.25814	0.34635	 	3124474.783	 	2.05128E-6	 	23558.32491	34.54291	 
1035.0	1.0	0.0	7.48344	7.3023	-6.39688	19.76203	29.15955	1.09911	0.90982	135.80221	147.14439	50.43983	0.34618	 	3430157.46	 	1.86136E-6	 	23385.90841	34.4833	 
1030.0	1.0	0.0	7.48594	7.29986	-6.42817	19.74283	29.07426	1.09812	0.91064	136.27379	147.49682	50.6212	0.34602	 	3768425.74	 	1.6878E-6	 	23213.7888	34.42392	 
1025.0	1.0	0.0	7.48844	7.29742	-6.45939	19.72369	28.98897	1.09713	0.91147	136.74441	147.84755	50.80226	0.34585	 	4143032.748	 	1.5293E-6	 	23041.96491	34.36478	 
1020.91	1.0	0.0	7.49048	7.29543	-6.48489	19.70808	28.91919	1.09631	0.91215	137.12869	148.1332	50.95014	0.34571	 	4479435.855	 	1.41E-6	 	22901.62226	 	 
1020.0	1.0	0.0	7.49123	7.2947	-6.49429	19.69042	28.88957	1.09666	0.91186	137.26671	148.22359	51.00373	0.34565	 	4568381.605	 	1.38157E-6	 	22852.56122	37.88074	 
1015.0	1.0	0.0	7.49534	7.2907	-6.54558	19.59434	28.7311	1.09845	0.91037	138.01837	148.71525	51.29568	0.34532	 	5092126.175	 	1.23468E-6	 	22584.82139	53.54797	 
1010.0	1.0	0.0	7.4994	7.28675	-6.59619	19.49986	28.57615	1.10012	0.90899	138.75858	149.19843	51.58329	0.345	 	5680430.536	 	1.10251E-6	 	22320.25931	52.91242	 
1005.0	1.0	0.0	7.50342	7.28285	-6.64615	19.40695	28.42505	1.10166	0.90772	139.48775	149.67345	51.8667	0.34468	 	6341768.004	 	9.8369E-7	 	22058.78225	52.29541	 
1000.0	1.0	0.0	7.50738	7.279	-6.69547	19.31554	28.27752	1.10307	0.90656	140.20623	150.14062	52.14604	0.34436	 	7085791.266	 	8.76956E-7	 	21800.30018	51.69641	 
995.0	1.0	0.0	7.5113	7.2752	-6.74417	19.22559	28.13339	1.10437	0.90549	140.9144	150.60022	52.42147	0.34405	 	7923505.374	 	7.8116E-7	 	21544.72556	51.11492	 
990.0	1.0	0.0	7.51518	7.27145	-6.79228	19.13705	27.99251	1.10555	0.90453	141.6126	151.05253	52.6931	0.34375	 	8867468.399	 	6.95252E-7	 	21291.97322	50.55047	 
985.0	1.0	0.0	7.51902	7.26774	-6.8398	19.04987	27.85474	1.10662	0.90365	142.30117	151.49779	52.96106	0.34345	 	9932023.316	 	6.18275E-7	 	21041.96035	50.00258	 
980.0	1.0	0.0	7.52281	7.26408	-6.88676	18.96402	27.71993	1.10758	0.90287	142.98042	151.93626	53.22549	0.34316	 	1.113356711E7	 	5.49358E-7	 	20794.60628	49.47081	 
975.0	1.0	0.0	7.52656	7.26046	-6.93317	18.87944	27.58795	1.10844	0.90217	143.65067	152.36817	53.48648	0.34287	 	1.249086042E7	 	4.87709E-7	 	20549.83249	48.95476	 
970.0	1.0	0.0	7.53027	7.25688	-6.97905	18.7961	27.45869	1.1092	0.90155	144.31221	152.79374	53.74416	0.34258	 	1.402538955E7	 	4.32609E-7	 	20307.56256	48.45398	 
965.0	1.0	0.0	7.53394	7.25334	-7.02441	18.71394	27.33202	1.10986	0.90102	144.96533	153.21317	53.99864	0.34231	 	1.576178574E7	 	3.83402E-7	 	20067.72205	47.9681	 
960.0	1.0	0.0	7.53758	7.24984	-7.06927	18.63293	27.20782	1.11042	0.90056	145.61031	153.62666	54.25002	0.34203	 	1.772830998E7	 	3.39496E-7	 	19830.23844	47.49672	 
955.0	1.0	0.0	7.54118	7.24638	-7.11364	18.55302	27.08598	1.11089	0.90018	146.24741	154.0344	54.49839	0.34176	 	1.995742282E7	 	3.00354E-7	 	19595.04119	47.03945	 
950.0	1.0	0.0	7.54475	7.24295	-7.15754	18.47417	26.9664	1.11128	0.89986	146.8769	154.43657	54.74387	0.34149	 	2.248644112E7	 	2.65488E-7	 	19362.06155	46.59593	 
945.0	1.0	0.0	7.54828	7.23956	-7.20098	18.39635	26.84898	1.11158	0.89962	147.49901	154.83335	54.98655	0.34123	 	2.535830991E7	 	2.34459E-7	 	19131.23268	46.16578	 
940.0	1.0	0.0	7.55178	7.23621	-7.24398	18.31951	26.73361	1.11179	0.89945	148.11399	155.22489	55.2265	0.34097	 	2.862249908E7	 	2.06868E-7	 	18902.48944	45.74865	 
935.0	1.0	0.0	7.55525	7.23289	-7.28655	18.24361	26.62021	1.11193	0.89934	148.72207	155.61134	55.46384	0.34071	 	3.2336053E7	 	1.82356E-7	 	18675.76851	45.34419	 
930.0	1.0	0.0	7.55868	7.2296	-7.3287	18.16862	26.50868	1.11198	0.8993	149.32345	155.99287	55.69862	0.34046	 	3.656481706E7	 	1.60599E-7	 	18451.00828	44.95205	 
925.0	1.0	0.0	7.56209	7.22634	-7.37044	18.09449	26.39895	1.11196	0.89931	149.91837	156.3696	55.93095	0.34021	 	4.138487801E7	 	1.41305E-7	 	18228.14879	44.5719	 
920.0	1.0	0.0	7.56547	7.22312	-7.41179	18.02119	26.29092	1.11187	0.89938	150.50701	156.74167	56.16089	0.33996	 	4.688424613E7	 	1.24209E-7	 	18007.13178	44.2034	 
915.0	1.0	0.0	7.56882	7.21992	-7.45277	17.94868	26.18452	1.11171	0.89951	151.08958	157.1092	56.38853	0.33972	 	5.316483478E7	 	1.09077E-7	 	17787.90059	43.84624	 
912.05	1.0	0.0	7.57078	7.21805	-7.47677	17.90626	26.12248	1.11159	0.89962	151.43054	157.32399	56.52179	0.33958	 	5.728422222E7	 	1.00982E-7	 	17659.35943	 	 
911.2	1.0	0.0	7.57207	7.21681	-7.4926	17.85605	26.10001	1.11174	0.89949	151.60353	157.41759	56.59006	0.33949	 	5.868673708E7	 	9.84976E-8	 	17596.17082	 	 
910.0	1.0	0.0	7.5729	7.21603	-7.50263	17.83741	26.07499	1.11168	0.89954	151.7445	157.50577	56.64519	0.33943	 	6.050754838E7	 	9.5437E-8	 	17542.96811	48.9865	 
905.0	1.0	0.0	7.57634	7.21275	-7.54464	17.75857	25.9714	1.1114	0.89976	152.33121	157.87168	56.8747	0.33918	 	6.879214958E7	 	8.35889E-8	 	17321.10084	44.37345	 
900.0	1.0	0.0	7.57982	7.20944	-7.5871	17.67692	25.86922	1.11106	0.90004	152.91642	158.23432	57.10377	0.33893	 	7.83033861E7	 	7.3124E-8	 	17099.06179	44.40781	 
895.0	1.0	0.0	7.5834	7.20604	-7.63075	17.58912	25.76832	1.11065	0.90037	153.5052	158.59543	57.33443	0.33868	 	8.925591694E7	 	6.38776E-8	 	16874.75336	44.86168	 
890.0	1.0	0.0	7.58725	7.20238	-7.67759	17.48642	25.66854	1.1102	0.90074	154.11017	158.95909	57.57179	0.33842	 	1.019440484E8	 	5.56879E-8	 	16642.8536	46.37995	 
889.86	1.0	0.0	7.58736	7.20228	-7.67897	17.4832	25.6658	1.11019	0.90075	154.12737	158.96926	57.57855	0.33841	 	1.023233064E8	 	5.54749E-8	 	16636.23119	 	 
885.0	1.0	0.0	7.59047	7.19932	-7.71684	17.41582	25.57096	1.10964	0.90119	154.66349	159.30388	57.78839	0.33819	 	1.163194097E8	 	4.85959E-8	 	16431.88233	42.19425	 
880.0	1.0	0.0	7.59365	7.19631	-7.75548	17.34708	25.47457	1.10903	0.90169	155.20995	159.64423	58.00235	0.33796	 	1.328487044E8	 	4.23658E-8	 	16223.15535	41.7454	 
875.0	1.0	0.0	7.59681	7.19332	-7.79383	17.27886	25.3793	1.10837	0.90223	155.75157	159.98083	58.21447	0.33774	 	1.518868543E8	 	3.68948E-8	 	16015.83432	41.46421	 
870.0	1.0	0.0	7.59995	7.19035	-7.83188	17.21112	25.2851	1.10766	0.90281	156.28849	160.31377	58.42481	0.33752	 	1.738391221E8	 	3.20954E-8	 	15809.87518	41.19183	 
865.0	1.0	0.0	7.60306	7.1874	-7.86966	17.14384	25.19192	1.10689	0.90343	156.82082	160.64312	58.63342	0.3373	 	1.991802375E8	 	2.78895E-8	 	15605.23469	40.9281	 
860.0	1.0	0.0	7.60616	7.18447	-7.90716	17.07699	25.09973	1.10607	0.9041	157.3487	160.96896	58.84035	0.33708	 	2.284669748E8	 	2.42075E-8	 	15401.8709	40.67276	 
855.0	1.0	0.0	7.60924	7.18157	-7.94439	17.01053	25.00847	1.10521	0.9048	157.87224	161.29136	59.04563	0.33687	 	2.623531431E8	 	2.09878E-8	 	15199.74307	40.42556	 
850.0	1.0	0.0	7.6123	7.17868	-7.98138	16.94442	24.91811	1.1043	0.90555	158.39155	161.61039	59.24932	0.33665	 	3.016074834E8	 	1.81753E-8	 	14998.8117	40.18627	 
845.0	1.0	0.0	7.61464	7.17648	-8.00968	16.91747	24.83956	1.10286	0.90673	158.81416	161.89536	59.41396	0.33651	 	3.432959309E8	 	1.58971E-8	 	14840.29632	31.70308	 
840.0	1.0	0.0	7.61698	7.17427	-8.03791	16.89052	24.76101	1.10142	0.90792	159.23595	162.17903	59.57834	0.33636	 	3.912013192E8	 	1.3888E-8	 	14678.79416	32.30043	 
835.0	1.0	0.0	7.61931	7.17208	-8.06607	16.86357	24.68246	1.09996	0.90913	159.65693	162.46141	59.74244	0.33621	 	4.463174989E8	 	1.21183E-8	 	14517.5421	32.25041	 
830.0	1.0	0.0	7.62164	7.16989	-8.09416	16.83662	24.6039	1.09849	0.91034	160.0771	162.74249	59.90627	0.33606	 	5.098077452E8	 	1.05612E-8	 	14356.53948	32.20053	 
825.0	1.0	0.0	7.62396	7.1677	-8.12217	16.80968	24.52533	1.09702	0.91156	160.49644	163.02228	60.06983	0.33592	 	5.830354236E8	 	9.19292E-9	 	14195.78559	32.15078	 
820.0	1.0	0.0	7.62628	7.16552	-8.15011	16.78274	24.44676	1.09553	0.9128	160.91498	163.30079	60.23312	0.33577	 	6.676005273E8	 	7.9919E-9	 	14035.27977	32.10116	 
815.0	1.0	0.0	7.62859	7.16335	-8.17798	16.7558	24.36818	1.09404	0.91405	161.3327	163.57802	60.39613	0.33562	 	7.653832723E8	 	6.93899E-9	 	13875.02131	32.05169	 
810.0	1.0	0.0	7.6309	7.16118	-8.20578	16.72886	24.28959	1.09253	0.9153	161.7496	163.85397	60.55888	0.33547	 	8.785961868E8	 	6.01708E-9	 	13715.00951	32.00236	 
805.0	1.0	0.0	7.63321	7.15901	-8.23351	16.70193	24.211	1.09102	0.91657	162.16569	164.12864	60.72136	0.33533	 	1.009846441E9	 	5.21087E-9	 	13555.24366	31.95317	 
800.0	1.0	0.0	7.63551	7.15686	-8.26116	16.675	24.13239	1.0895	0.91785	162.58097	164.40205	60.88356	0.33518	 	1.162210536E9	 	4.50674E-9	 	13395.72301	31.90413	 
795.0	1.0	0.0	7.63781	7.1547	-8.28875	16.64808	24.05379	1.08796	0.91915	162.99543	164.67419	61.0455	0.33503	 	1.339323948E9	 	3.89254E-9	 	13236.44683	31.85524	 
790.0	1.0	0.0	7.6401	7.15256	-8.31626	16.62116	23.97517	1.08642	0.92045	163.40908	164.94507	61.20716	0.33489	 	1.545488858E9	 	3.35749E-9	 	13077.41436	31.80649	 
785.0	1.0	0.0	7.64239	7.15042	-8.3437	16.59424	23.89655	1.08487	0.92177	163.82192	165.2147	61.36855	0.33474	 	1.785803847E9	 	2.89201E-9	 	12918.62482	31.75791	 
780.0	1.0	0.0	7.64467	7.14828	-8.37106	16.56732	23.81792	1.08331	0.9231	164.23395	165.48307	61.52968	0.33459	 	2.066320247E9	 	2.48759E-9	 	12760.07743	31.70948	 
775.0	1.0	0.0	7.64695	7.14615	-8.39836	16.54041	23.73928	1.08174	0.92444	164.64517	165.75019	61.69053	0.33444	 	2.39423094E9	 	2.1367E-9	 	12601.7714	31.66121	 
770.0	1.0	0.0	7.64922	7.14403	-8.42558	16.5135	23.66064	1.08016	0.92579	165.05557	166.01607	61.85111	0.3343	 	2.778098691E9	 	1.83268E-9	 	12443.70587	31.6131	 
765.0	1.0	0.0	7.65149	7.14191	-8.45273	16.48659	23.58198	1.07856	0.92716	165.46516	166.2807	62.01142	0.33415	 	3.228132742E9	 	1.56962E-9	 	12285.88003	31.56517	 
760.0	1.0	0.0	7.65375	7.1398	-8.47981	16.45968	23.50332	1.07696	0.92854	165.87394	166.5441	62.17146	0.334	 	3.756524411E9	 	1.34234E-9	 	12128.29302	31.5174	 
755.0	1.0	0.0	7.65601	7.13769	-8.50682	16.43278	23.42465	1.07535	0.92993	166.28191	166.80626	62.33123	0.33386	 	4.377854961E9	 	1.14626E-9	 	11970.94393	31.46982	 
750.0	1.0	0.0	7.65827	7.13559	-8.53376	16.40588	23.34597	1.07373	0.93134	166.68907	167.06719	62.49072	0.33371	 	5.109592124E9	 	9.77327E-10	 	11813.83187	31.42241	 
745.0	1.0	0.0	7.66052	7.1335	-8.56062	16.37899	23.26729	1.07209	0.93276	167.09542	167.32689	62.64995	0.33356	 	5.972695593E9	 	8.32009E-10	 	11656.95591	31.37519	 
740.0	1.0	0.0	7.66276	7.1314	-8.58741	16.35209	23.18859	1.07045	0.93419	167.50096	167.58537	62.80891	0.33342	 	6.992356649E9	 	7.07191E-10	 	11500.3151	31.32816	 
735.0	1.0	0.0	7.665	7.12932	-8.61413	16.3252	23.10989	1.06879	0.93564	167.90569	167.84263	62.96759	0.33327	 	8.198903228E9	 	6.00145E-10	 	11343.90844	31.28133	 
730.0	1.0	0.0	7.66724	7.12724	-8.64078	16.29832	23.03117	1.06713	0.9371	168.30961	168.09868	63.12601	0.33312	 	9.628909399E9	 	5.08482E-10	 	11187.73492	31.2347	 
725.0	1.0	0.0	7.66947	7.12517	-8.66736	16.27143	22.95245	1.06545	0.93857	168.71273	168.35351	63.28415	0.33298	 	1.13266E10	 	4.30115E-10	 	11031.79349	31.18829	 
720.0	1.0	0.0	7.6717	7.1231	-8.69386	16.24455	22.87372	1.06376	0.94006	169.11503	168.60714	63.44202	0.33283	 	1.3345299999999998E10	 	3.63222E-10	 	10876.08308	31.14208	 
715.0	1.0	0.0	7.67392	7.12104	-8.7203	16.21767	22.79498	1.06206	0.94156	169.51652	168.85956	63.59963	0.33268	 	1.5749999999999998E10	 	3.06217E-10	 	10720.60256	31.0961	 
710.0	1.0	0.0	7.67613	7.11898	-8.74666	16.1908	22.71623	1.06035	0.94308	169.91721	169.11078	63.75696	0.33254	 	1.86193E10	 	2.57717E-10	 	10565.35076	31.05036	 
705.0	1.0	0.0	7.67835	7.11693	-8.77295	16.16393	22.63747	1.05863	0.94462	170.31709	169.3608	63.91402	0.33239	 	2.20491E10	 	2.16522E-10	 	10410.32651	31.00485	 
700.0	1.0	0.0	7.68055	7.11489	-8.79917	16.13706	22.5587	1.0569	0.94617	170.71616	169.60963	64.07081	0.33225	 	2.6156099999999996E10	 	1.81591E-10	 	10255.52855	30.95959	 
695.0	1.0	0.0	7.68276	7.11285	-8.82531	16.11019	22.47992	1.05515	0.94773	171.11442	169.85726	64.22733	0.3321	 	3.1082799999999996E10	 	1.52023E-10	 	10100.95558	30.91459	 
690.0	1.0	0.0	7.68495	7.11081	-8.85139	16.08333	22.40112	1.05339	0.94931	171.51188	170.10371	64.38358	0.33195	 	3.70037E10	 	1.27039E-10	 	9946.60627	30.86986	 
685.0	1.0	0.0	7.68715	7.10878	-8.87739	16.05647	22.32232	1.05162	0.95091	171.90853	170.34898	64.53956	0.33181	 	4.41328E10	 	1.05964E-10	 	9792.47922	30.82541	 
680.0	1.0	0.0	7.68934	7.10676	-8.90332	16.02961	22.24351	1.04984	0.95252	172.30437	170.59307	64.69526	0.33166	 	5.273269999999999E10	 	8.82202E-11	 	9638.57297	30.78125	 
675.0	1.0	0.0	7.69152	7.10474	-8.92918	16.00276	22.16468	1.04805	0.95415	172.69941	170.83598	64.8507	0.33152	 	6.312679999999999E10	 	7.33077E-11	 	9484.886	30.73739	 
670.0	1.0	0.0	7.6937	7.10273	-8.95497	15.9759	22.08585	1.04624	0.9558	173.09364	171.07772	65.00587	0.33137	 	7.57141E10	 	6.07982E-11	 	9331.41671	30.69386	 
665.0	1.0	0.0	7.69587	7.10072	-8.98068	15.94906	22.007	1.04443	0.95746	173.48706	171.31829	65.16076	0.33122	 	9.09873E10	 	5.03244E-11	 	9178.16346	30.65065	 
660.0	1.0	0.0	7.69804	7.09872	-9.00633	15.92221	21.92814	1.0426	0.95915	173.87968	171.55769	65.31538	0.33108	 	1.09557E11	 	4.15717E-11	 	9025.12812	30.60707	 
655.0	1.0	0.0	7.7002	7.09673	-9.0319	15.89537	21.84927	1.04075	0.96084	174.2715	171.79594	65.46974	0.33093	 	1.32181E11	 	3.42717E-11	 	8872.33058	30.55951	 
650.0	1.0	0.0	7.70236	7.09474	-9.0574	15.86853	21.77039	1.0389	0.96256	174.6625	172.03302	65.62382	0.33079	 	1.59801E11	 	2.81954E-11	 	8719.79728	30.50666	 
645.0	1.0	0.0	7.70452	7.09276	-9.08283	15.84169	21.69149	1.03703	0.96429	175.05271	172.26894	65.77763	0.33064	 	1.93593E11	 	2.31478E-11	 	8567.52744	30.45397	 
640.0	1.0	0.0	7.70667	7.09078	-9.10819	15.81486	21.61259	1.03515	0.96605	175.4421	172.50372	65.93117	0.33049	 	2.35024E11	 	1.89635E-11	 	8415.5203	30.40143	 
635.0	1.0	0.0	7.70881	7.0888	-9.13348	15.78803	21.53366	1.03325	0.96782	175.8307	172.73735	66.08444	0.33035	 	2.8593E11	 	1.55019E-11	 	8263.77503	30.34905	 
630.0	1.0	0.0	7.71095	7.08684	-9.15869	15.7612	21.45473	1.03134	0.96961	176.21849	172.96983	66.23744	0.3302	 	3.4862E11	 	1.26443E-11	 	8112.29091	30.29682	 
625.0	1.0	0.0	7.71309	7.08488	-9.18384	15.73438	21.37578	1.02942	0.97142	176.60547	173.20116	66.39017	0.33006	 	4.25993E11	 	1.02904E-11	 	7961.06689	30.2448	 
620.0	1.0	0.0	7.71522	7.08292	-9.20891	15.70755	21.29682	1.02749	0.97325	176.99165	173.43136	66.54262	0.32991	 	5.21708E11	 	8.35572E-12	 	7810.10159	30.19306	 
615.0	1.0	0.0	7.71734	7.08097	-9.23391	15.68074	21.21785	1.02554	0.9751	177.37703	173.66043	66.69481	0.32977	 	6.40389E11	 	6.76908E-12	 	7659.39458	30.1414	 
610.0	1.0	0.0	7.71946	7.07902	-9.25884	15.65392	21.13886	1.02357	0.97697	177.7616	173.88836	66.84672	0.32962	 	7.87894E11	 	5.47083E-12	 	7508.94509	30.0899	 
605.0	1.0	0.0	7.72158	7.07709	-9.28369	15.62711	21.05985	1.0216	0.97886	178.14537	174.11516	66.99837	0.32948	 	9.71665E11	 	4.41102E-12	 	7358.75237	30.03854	 
600.0	1.0	0.0	7.72369	7.07515	-9.30848	15.6003	20.98083	1.01961	0.98077	178.52834	174.34084	67.14974	0.32933	 	1.20118E12	 	3.54786E-12	 	7208.81566	29.98734	 
595.0	1.0	0.0	7.72579	7.07322	-9.33319	15.57349	20.9018	1.0176	0.9827	178.91051	174.5654	67.30084	0.32918	 	1.48854E12	 	2.84656E-12	 	7059.13422	29.93629	 
590.0	1.0	0.0	7.72789	7.0713	-9.35784	15.54669	20.82275	1.01558	0.98466	179.29187	174.78883	67.45167	0.32904	 	1.84924E12	 	2.27814E-12	 	6909.70732	29.88538	 
585.0	1.0	0.0	7.72999	7.06938	-9.38241	15.51989	20.74368	1.01355	0.98664	179.67243	175.01115	67.60223	0.32889	 	2.30316E12	 	1.81856E-12	 	6760.53419	29.83463	 
580.0	1.0	0.0	7.73208	7.06747	-9.40691	15.49309	20.6646	1.0115	0.98863	180.05219	175.23236	67.75251	0.32875	 	2.87588E12	 	1.44791E-12	 	6611.61411	29.78401	 
575.0	1.0	0.0	7.73416	7.06557	-9.43134	15.46629	20.58551	1.00943	0.99066	180.43114	175.45246	67.90253	0.3286	 	3.60044E12	 	1.14975E-12	 	6462.94635	29.73355	 
570.0	1.0	0.0	7.73625	7.06367	-9.45569	15.4395	20.50639	1.00735	0.9927	180.8093	175.67145	68.05228	0.32846	 	4.51957E12	 	9.1053E-13	 	6314.53017	29.68324	 
565.0	1.0	0.0	7.73832	7.06177	-9.47998	15.41271	20.42726	1.00526	0.99477	181.18665	175.88934	68.20175	0.32831	 	5.68876E12	 	7.19103E-13	 	6166.36484	29.63307	 
560.0	1.0	0.0	7.74039	7.05988	-9.50419	15.38593	20.34811	1.00315	0.99686	181.5632	176.10613	68.35095	0.32817	 	7.1802E12	 	5.66335E-13	 	6018.44965	29.58304	 
555.0	1.0	0.0	7.74246	7.058	-9.52834	15.35914	20.26894	1.00102	0.99898	181.93895	176.32182	68.49988	0.32802	 	9.08818E12	 	4.44753E-13	 	5870.78388	29.53315	 
550.0	1.0	0.0	7.74452	7.05612	-9.55241	15.33236	20.18976	0.99888	1.00112	182.3139	176.53642	68.64854	0.32788	 	1.15361E13	 	3.48261E-13	 	5723.36681	29.48341	 
545.0	1.0	0.0	7.74657	7.05425	-9.57641	15.30559	20.11056	0.99672	1.00329	182.68805	176.74993	68.79693	0.32773	 	1.46862E13	 	2.719E-13	 	5576.19773	29.43382	 
540.0	1.0	0.0	7.74862	7.05238	-9.60034	15.27881	20.03133	0.99455	1.00548	183.0614	176.96235	68.94505	0.32759	 	1.87521E13	 	2.11645E-13	 	5429.27593	29.38436	 
535.0	1.0	0.0	7.75067	7.05052	-9.6242	15.25204	19.95209	0.99236	1.0077	183.43394	177.17368	69.0929	0.32744	 	2.40161E13	 	1.64239E-13	 	5282.60071	29.33504	 
530.0	1.0	0.0	7.75271	7.04867	-9.64798	15.22527	19.87283	0.99015	1.00994	183.80569	177.38394	69.24047	0.3273	 	3.08527E13	 	1.27055E-13	 	5136.17138	29.28587	 
525.0	1.0	0.0	7.75474	7.04682	-9.6717	15.19851	19.79355	0.98793	1.01222	184.17664	177.59312	69.38777	0.32715	 	3.976E13	 	9.79773E-14	 	4989.98725	29.23683	 
520.0	1.0	0.0	7.75678	7.04497	-9.69534	15.17175	19.71425	0.98569	1.01452	184.54678	177.80122	69.5348	0.32701	 	5.1403E13	 	7.53102E-14	 	4844.04762	29.18793	 
515.0	1.0	0.0	7.7588	7.04313	-9.71891	15.14499	19.63493	0.98344	1.01684	184.91613	178.00825	69.68156	0.32687	 	6.66723E13	 	5.76966E-14	 	4698.35182	29.13916	 
510.0	1.0	0.0	7.76082	7.0413	-9.74241	15.11823	19.55558	0.98116	1.0192	185.28468	178.21421	69.82805	0.32672	 	8.67652E13	 	4.40541E-14	 	4552.89916	29.09053	 
505.0	1.0	0.0	7.76284	7.03947	-9.76584	15.09148	19.47622	0.97887	1.02159	185.65243	178.4191	69.97427	0.32658	 	1.13296E14	 	3.35224E-14	 	4407.68897	29.04204	 
500.0	1.0	0.0	7.76485	7.03765	-9.7892	15.06473	19.39683	0.97656	1.024	186.01938	178.62293	70.12021	0.32643	 	1.48451E14	 	2.54195E-14	 	4262.7206	28.99367	 
495.0	1.0	0.0	7.76685	7.03583	-9.81249	15.03798	19.31742	0.97423	1.02645	186.38553	178.8257	70.26588	0.32629	 	1.952E14	 	1.92067E-14	 	4117.99337	28.94545	 
490.0	1.0	0.0	7.76885	7.03402	-9.83571	15.01124	19.23798	0.97189	1.02892	186.75088	179.02741	70.41128	0.32614	 	2.5759399999999997E14	 	1.44598E-14	 	3973.50664	28.89735	 
485.0	1.0	0.0	7.77085	7.03222	-9.85885	14.9845	19.15852	0.96953	1.03143	187.11543	179.22807	70.55641	0.326	 	3.41176E14	 	1.08458E-14	 	3829.25975	28.84938	 
480.0	1.0	0.0	7.77284	7.03042	-9.88192	14.95776	19.07904	0.96714	1.03397	187.47919	179.42768	70.70127	0.32585	 	4.53568E14	 	8.10449E-15	 	3685.25206	28.80154	 
475.0	1.0	0.0	7.77482	7.02862	-9.90493	14.93102	18.99953	0.96474	1.03654	187.84214	179.62624	70.84586	0.32571	 	6.05284E14	 	6.03276E-15	 	3541.48294	28.75383	 
470.0	1.0	0.0	7.7768	7.02683	-9.92786	14.90429	18.92	0.96232	1.03915	188.2043	179.82375	70.99017	0.32557	 	8.10891E14	 	4.47302E-15	 	3397.95176	28.70624	 
465.0	1.0	0.0	7.77877	7.02505	-9.95072	14.87756	18.84044	0.95989	1.04179	188.56566	180.02022	71.13421	0.32542	 	1.09065E15	 	3.30328E-15	 	3254.65788	28.65878	 
460.0	1.0	0.0	7.78074	7.02327	-9.97351	14.85083	18.76085	0.95743	1.04446	188.92622	180.21565	71.27798	0.32528	 	1.47287E15	 	2.42949E-15	 	3111.60072	28.61143	 
455.0	1.0	0.0	7.78271	7.0215	-9.99622	14.82411	18.68124	0.95495	1.04717	189.28599	180.41004	71.42148	0.32513	 	1.99727E15	 	1.77939E-15	 	2968.77965	28.56421	 
450.0	1.0	0.0	7.78466	7.01973	-10.01887	14.79739	18.60159	0.95245	1.04992	189.64496	180.6034	71.5647	0.32499	 	2.7198E15	 	1.29771E-15	 	2826.19407	28.51712	 
445.0	1.0	0.0	7.78662	7.01797	-10.04145	14.77067	18.52192	0.94994	1.0527	190.00313	180.79573	71.70765	0.32485	 	3.71967E15	 	9.42318E-16	 	2683.84339	28.47014	 
440.0	1.0	0.0	7.78857	7.01622	-10.06395	14.74396	18.44222	0.9474	1.05552	190.3605	180.98703	71.85034	0.3247	 	5.1095E15	 	6.81222E-16	 	2541.72703	28.42327	 
435.0	1.0	0.0	7.79051	7.01447	-10.08638	14.71725	18.36249	0.94484	1.05838	190.71707	181.1773	71.99274	0.32456	 	7.05018E15	 	4.90244E-16	 	2399.84442	28.37652	 
430.0	1.0	0.0	7.79245	7.01272	-10.10875	14.69054	18.28273	0.94226	1.06127	191.07285	181.36656	72.13488	0.32441	 	9.77259E15	 	3.51176E-16	 	2258.19498	28.32989	 
425.0	1.0	0.0	7.79438	7.01098	-10.13104	14.66383	18.20294	0.93967	1.06421	191.42689	181.55389	72.27639	0.32427	 	1.36098E16	 	2.50372E-16	 	2116.77822	28.28335	 
420.0	1.0	0.0	7.79631	7.00925	-10.15326	14.63713	18.12312	0.93704	1.06718	191.78107	181.7411	72.41798	0.32413	 	1.90444E16	 	1.77643E-16	 	1975.5935	28.23694	 
415.0	1.0	0.0	7.79823	7.00752	-10.17541	14.61043	18.04326	0.9344	1.0702	192.13445	181.92729	72.55929	0.32398	 	2.67795E16	 	1.2542E-16	 	1834.6405	28.1906	 
410.0	1.0	0.0	7.80015	7.0058	-10.19748	14.58373	17.96337	0.93174	1.07326	192.48704	182.11248	72.70034	0.32384	 	3.78448E16	 	8.81041E-17	 	1693.919	28.1443	 
405.0	1.0	0.0	7.80206	7.00408	-10.21949	14.55704	17.88344	0.92905	1.07636	192.83883	182.29665	72.84111	0.3237	 	5.37558E16	 	6.15726E-17	 	1553.42877	28.09805	 
400.0	1.0	0.0	7.80397	7.00237	-10.24143	14.53035	17.80348	0.92635	1.07951	193.18982	182.47982	72.98161	0.32355	 	7.67552E16	 	4.28046E-17	 	1413.16961	28.05183	 
395.0	1.0	0.0	7.80587	7.00066	-10.26329	14.50366	17.72348	0.92361	1.0827	193.54002	182.66199	73.12184	0.32341	 	1.10181E17	 	2.95975E-17	 	1273.14133	28.00566	 
390.0	1.0	0.0	7.80776	6.99896	-10.28509	14.47697	17.64345	0.92086	1.08594	193.88943	182.84315	73.26179	0.32326	 	1.59027E17	 	2.0353E-17	 	1133.34374	27.95952	 
385.0	1.0	0.0	7.80966	6.99727	-10.30681	14.45029	17.56338	0.91809	1.08922	194.23803	183.02332	73.40147	0.32312	 	2.30811E17	 	1.39173E-17	 	993.77666	27.91342	 
380.0	1.0	0.0	7.81154	6.99558	-10.32846	14.42361	17.48326	0.91529	1.09256	194.58585	183.20249	73.54088	0.32298	 	3.36915E17	 	9.46191E-18	 	854.43995	27.86734	 
375.0	1.0	0.0	7.81342	6.9939	-10.35004	14.39694	17.40311	0.91246	1.09594	194.93286	183.38066	73.68001	0.32283	 	4.94674E17	 	6.39504E-18	 	715.33345	27.8213	 
370.0	1.0	0.0	7.8153	6.99222	-10.37155	14.37027	17.32292	0.90961	1.09937	195.27909	183.55785	73.81888	0.32269	 	7.30651E17	 	4.29624E-18	 	576.45703	27.77528	 
365.0	1.0	0.0	7.81717	6.99055	-10.39299	14.3436	17.24268	0.90674	1.10285	195.62451	183.73405	73.95747	0.32255	 	1.08582E18	 	2.86849E-18	 	437.81059	27.72929	 
360.0	1.0	0.0	7.81903	6.98888	-10.41436	14.31693	17.16241	0.90385	1.10638	195.96914	183.90927	74.09578	0.3224	 	1.62375E18	 	1.90315E-18	 	299.394	27.68332	 
355.0	1.0	0.0	7.82089	6.98722	-10.43566	14.29026	17.08208	0.90093	1.10997	196.31298	184.0835	74.23383	0.32226	 	2.44379E18	 	1.25454E-18	 	161.2072	27.63736	 
350.0	1.0	0.0	7.82274	6.98556	-10.45688	14.2636	17.00171	0.89798	1.11361	196.65602	184.25676	74.3716	0.32212	 	3.70219E18	 	8.21524E-19	 	23.25009	27.59142	 
345.0	1.0	0.0	7.82459	6.98391	-10.47804	14.23695	16.9213	0.89501	1.11731	196.99827	184.42904	74.5091	0.32197	 	5.6464E18	 	5.34329E-19	 	-114.47735	27.54549	 
340.0	1.0	0.0	7.82644	6.98227	-10.49912	14.21029	16.84083	0.89201	1.12106	197.33973	184.60034	74.64632	0.32183	 	8.6711E18	 	3.45127E-19	 	-251.97518	27.49957	 
335.0	1.0	0.0	7.82827	6.98063	-10.52014	14.18364	16.76032	0.88899	1.12488	197.68039	184.77067	74.78327	0.32169	 	1.34104E19	 	2.21339E-19	 	-389.24342	27.45365	 
330.0	1.0	0.0	7.83011	6.97899	-10.54108	14.15699	16.67976	0.88593	1.12875	198.02025	184.94004	74.91995	0.32155	 	2.08903E19	 	1.40918E-19	 	-526.28207	27.40773	 
325.0	1.0	0.0	7.83193	6.97736	-10.56195	14.13034	16.59914	0.88286	1.13269	198.35932	185.10843	75.05636	0.3214	 	3.27846E19	 	8.90486E-20	 	-663.09109	27.36181	 
320.0	1.0	0.0	7.83376	6.97574	-10.58275	14.1037	16.51847	0.87975	1.13668	198.6976	185.27587	75.19249	0.32126	 	5.18434E19	 	5.58416E-20	 	-799.67046	27.31587	 
315.0	1.0	0.0	7.83557	6.97412	-10.60348	14.07706	16.43775	0.87662	1.14074	199.03509	185.44234	75.32834	0.32112	 	8.26229E19	 	3.47435E-20	 	-936.02011	27.26993	 
310.0	1.0	0.0	7.83738	6.97251	-10.62414	14.05042	16.35697	0.87346	1.14487	199.37178	185.60785	75.46393	0.32097	 	1.3273299999999998E20	 	2.14431E-20	 	-1072.13997	27.22397	 
305.0	1.0	0.0	7.83919	6.97091	-10.64473	14.02379	16.27613	0.87027	1.14906	199.70768	185.77241	75.59924	0.32083	 	2.1498999999999997E20	 	1.31253E-20	 	-1208.02991	27.17799	 
300.0	1.0	0.0	7.84099	6.96931	-10.66525	13.99716	16.19523	0.86706	1.15333	200.04278	185.93601	75.73428	0.32069	 	3.51166E20	 	7.96605E-21	 	-1343.68983	27.13198	 
295.0	1.0	0.0	7.84279	6.96771	-10.6857	13.97053	16.11427	0.86381	1.15766	200.37709	186.09866	75.86904	0.32055	 	5.7856999999999993E20	 	4.79285E-21	 	-1479.11954	27.08594	 
290.0	1.0	0.0	7.84458	6.96612	-10.70607	13.9439	16.03325	0.86054	1.16207	200.71061	186.26037	76.00353	0.3204	 	9.61725E20	 	2.85798E-21	 	-1614.31887	27.03987	 
285.0	1.0	0.0	7.84636	6.96454	-10.72638	13.91728	15.95216	0.85723	1.16655	201.04333	186.42112	76.13775	0.32026	 	1.61324E21	 	1.68864E-21	 	-1749.28762	26.99375	 
280.0	1.0	0.0	7.84814	6.96296	-10.74661	13.89066	15.871	0.8539	1.1711	201.37526	186.58094	76.27169	0.32012	 	2.7315600000000003E21	 	9.8837E-22	 	-1884.02554	26.94758	 
275.0	1.0	0.0	7.84991	6.96139	-10.76678	13.86404	15.78978	0.85053	1.17574	201.7064	186.73981	76.40536	0.31998	 	4.66974E21	 	5.72919E-22	 	-2018.53236	26.90136	 
270.0	1.0	0.0	7.85168	6.95982	-10.78687	13.83743	15.70848	0.84713	1.18045	202.03675	186.89774	76.53875	0.31983	 	8.06237E21	 	3.28809E-22	 	-2152.80779	26.85509	 
265.0	1.0	0.0	7.85344	6.95826	-10.80689	13.81082	15.62711	0.84371	1.18525	202.3663	187.05474	76.67187	0.31969	 	1.40618E22	 	1.86788E-22	 	-2286.85149	26.80874	 
260.0	1.0	0.0	7.8552	6.9567	-10.82685	13.78421	15.54567	0.84025	1.19013	202.69507	187.2108	76.80472	0.31955	 	2.47827E22	 	1.05E-22	 	-2420.66309	26.76232	 
255.0	1.0	0.0	7.85695	6.95515	-10.84673	13.75761	15.46414	0.83675	1.1951	203.02304	187.36593	76.93729	0.31941	 	4.41486E22	 	5.83885E-23	 	-2554.24219	26.71582	 
250.0	1.0	0.0	7.8587	6.9536	-10.86654	13.73101	15.38254	0.83323	1.20015	203.35021	187.52013	77.06959	0.31926	 	7.95203E22	 	3.21096E-23	 	-2687.58834	26.66923	 
245.0	1.0	0.0	7.86044	6.95206	-10.88628	13.70441	15.30086	0.82967	1.2053	203.6766	187.67341	77.20161	0.31912	 	1.4486799999999998E23	 	1.7457E-23	 	-2820.70108	26.62255	 
240.0	1.0	0.0	7.86217	6.95053	-10.90595	13.67781	15.21908	0.82608	1.21054	204.00219	187.82576	77.33336	0.31898	 	2.6701899999999998E23	 	9.37969E-24	 	-2953.57985	26.57576	 
235.0	1.0	0.0	7.8639	6.949	-10.92555	13.65122	15.13723	0.82245	1.21587	204.32699	187.97719	77.46484	0.31884	 	4.9812599999999996E23	 	4.97897E-24	 	-3086.22411	26.52885	 
230.0	1.0	0.0	7.86563	6.94748	-10.94508	13.62463	15.05528	0.81879	1.22131	204.651	188.12769	77.59604	0.31869	 	9.40843E23	 	2.61016E-24	 	-3218.63324	26.48183	 
225.0	1.0	0.0	7.86735	6.94596	-10.96453	13.59804	14.97323	0.8151	1.22684	204.97422	188.27729	77.72696	0.31855	 	1.79986E24	 	1.35085E-24	 	-3350.80658	26.43467	 
220.0	1.0	0.0	7.86906	6.94445	-10.98392	13.57146	14.89109	0.81137	1.23248	205.29665	188.42596	77.85761	0.31841	 	3.48879E24	 	6.89907E-25	 	-3482.74341	26.38737	 
215.0	1.0	0.0	7.87077	6.94294	-11.00324	13.54488	14.80885	0.8076	1.23823	205.61828	188.57373	77.98799	0.31827	 	6.85486E24	 	3.47569E-25	 	-3614.44297	26.33991	 
210.0	1.0	0.0	7.87247	6.94144	-11.02248	13.5183	14.72651	0.8038	1.24409	205.93913	188.72058	78.11809	0.31813	 	1.3658200000000001E25	 	1.72654E-25	 	-3745.90446	26.2923	 
205.0	1.0	0.0	7.87417	6.93994	-11.04166	13.49173	14.64406	0.79996	1.25006	206.25918	188.86653	78.24792	0.31799	 	2.7608900000000003E25	 	8.45282E-26	 	-3877.12697	26.2445	 
200.0	1.0	0.0	7.87586	6.93845	-11.06076	13.46515	14.5615	0.79608	1.25615	206.57844	189.01157	78.37747	0.31784	 	5.66455E25	 	4.07681E-26	 	-4008.10957	26.19652	 
195.0	1.0	0.0	7.87755	6.93697	-11.0798	13.43859	14.47883	0.79217	1.26236	206.89691	189.15571	78.50675	0.3177	 	1.1801800000000001E26	 	1.93608E-26	 	-4138.85125	26.14834	 
190.0	1.0	0.0	7.87923	6.93549	-11.09876	13.41202	14.39603	0.78822	1.26869	207.21459	189.29894	78.63575	0.31756	 	2.49813E26	 	9.04886E-27	 	-4269.35093	26.09994	 
185.0	1.0	0.0	7.8809	6.93401	-11.11765	13.38546	14.31312	0.78422	1.27515	207.53148	189.44128	78.76448	0.31742	 	5.37513E26	 	4.16012E-27	 	-4399.60749	26.05131	 
180.0	1.0	0.0	7.88257	6.93254	-11.13648	13.3589	14.23008	0.78019	1.28174	207.84758	189.58272	78.89293	0.31728	 	1.17627E27	 	1.88028E-27	 	-4529.61968	26.00244	 
175.0	1.0	0.0	7.88423	6.93108	-11.15523	13.33234	14.1469	0.77612	1.28846	208.16289	189.72327	79.02111	0.31713	 	2.6194699999999996E27	 	8.35018E-28	 	-4659.38619	25.9533	 
170.0	1.0	0.0	7.88589	6.92962	-11.17391	13.30579	14.0636	0.77201	1.29533	208.4774	189.86293	79.14901	0.31699	 	5.93974E27	 	3.64141E-28	 	-4788.90564	25.90389	 
165.0	1.0	0.0	7.88754	6.92817	-11.19252	13.27923	13.98015	0.76785	1.30234	208.79113	190.00169	79.27664	0.31685	 	1.37226E28	 	1.55838E-28	 	-4918.17655	25.85418	 
160.0	1.0	0.0	7.88919	6.92673	-11.21106	13.25269	13.89655	0.76366	1.30949	209.10407	190.13957	79.40399	0.31671	 	3.2322200000000003E28	 	6.5407E-29	 	-5047.19734	25.80416	 
155.0	1.0	0.0	7.89083	6.92528	-11.22953	13.22614	13.81281	0.75942	1.3168	209.41621	190.27656	79.53107	0.31657	 	7.76703E28	 	2.69047E-29	 	-5175.96633	25.7538	 
150.0	1.0	0.0	7.89247	6.92385	-11.24793	13.1996	13.7289	0.75513	1.32427	209.72757	190.41268	79.65787	0.31643	 	1.9054900000000003E29	 	1.08386E-29	 	-5304.48175	25.70308	 
145.0	1.0	0.0	7.8941	6.92242	-11.26626	13.17306	13.64484	0.75081	1.3319	210.03814	190.54791	79.7844	0.31629	 	4.77618E29	 	4.27305E-30	 	-5432.74169	25.65199	 
140.0	1.0	0.0	7.89572	6.92099	-11.28452	13.14652	13.5606	0.74644	1.33969	210.34791	190.68226	79.91065	0.31614	 	1.22409E30	 	1.64733E-30	 	-5560.74414	25.60049	 
135.0	1.0	0.0	7.89734	6.91958	-11.30271	13.11999	13.47619	0.74203	1.34766	210.6569	190.81573	80.03662	0.316	 	3.21041E30	 	6.20506E-31	 	-5688.48694	25.54856	 
130.0	1.0	0.0	7.89896	6.91816	-11.32083	13.09346	13.3916	0.73756	1.35581	210.96509	190.94834	80.16232	0.31586	 	8.62371E30	 	2.2817E-31	 	-5815.96782	25.49618	 
125.0	1.0	0.0	7.90056	6.91675	-11.33888	13.06693	13.30682	0.73306	1.36415	211.2725	191.08007	80.28774	0.31572	 	2.37469E31	 	8.18327E-32	 	-5943.18436	25.44331	 
120.0	1.0	0.0	7.90217	6.91535	-11.35686	13.04041	13.22184	0.7285	1.37267	211.57912	191.21093	80.41289	0.31558	 	6.7097699999999995E31	 	2.85981E-32	 	-6070.13398	25.38992	 
115.0	1.0	0.0	7.90376	6.91395	-11.37476	13.01389	13.13666	0.7239	1.3814	211.88495	191.34092	80.53776	0.31544	 	1.9472899999999997E32	 	9.72871E-33	 	-6196.81394	25.33599	 
110.0	1.0	0.0	7.90535	6.91256	-11.3926	12.98737	13.05126	0.71925	1.39033	212.18999	191.47005	80.66235	0.3153	 	5.8107399999999995E32	 	3.21828E-33	 	-6323.22132	25.28147	 
105.0	1.0	0.0	7.90694	6.91118	-11.41037	12.96085	12.96564	0.71456	1.39947	212.49423	191.59831	80.78667	0.31516	 	1.78479E33	 	1.0341E-33	 	-6449.35303	25.22634	 
100.0	1.0	0.0	7.90852	6.9098	-11.42806	12.93434	12.87978	0.70981	1.40883	212.79769	191.72571	80.91072	0.31502	 	5.64942E33	 	3.22379E-34	 	-6575.20577	25.17055	 
95.0	1.0	0.0	7.91009	6.90842	-11.44569	12.90783	12.79369	0.70501	1.41842	213.10037	191.85226	81.03448	0.31487	 	1.84507E34	 	9.73865E-35	 	-6700.77603	25.11405	 
90.0	1.0	0.0	7.91166	6.90705	-11.46324	12.88133	12.70734	0.70016	1.42824	213.40225	191.97795	81.15797	0.31473	 	6.2255300000000005E34	 	2.84706E-35	 	-6826.06008	25.05681	 
85.0	1.0	0.0	7.91323	6.90569	-11.48073	12.85482	12.62073	0.69526	1.43831	213.70334	192.10278	81.28119	0.31459	 	2.1731399999999997E35	 	8.04387E-36	 	-6951.05396	24.99878	 
80.0	1.0	0.0	7.91478	6.90433	-11.49815	12.82832	12.53385	0.6903	1.44864	214.00364	192.22676	81.40413	0.31445	 	7.85906E35	 	2.19318E-36	 	-7075.75343	24.93989	 
75.0	1.0	0.0	7.91633	6.90298	-11.51549	12.80182	12.44668	0.6853	1.45922	214.30316	192.34989	81.52679	0.31431	 	2.9491E36	 	5.76186E-37	 	-7200.15398	24.88011	 
70.0	1.0	0.0	7.91788	6.90163	-11.53277	12.77533	12.35921	0.68024	1.47008	214.60189	192.47217	81.64917	0.31417	 	1.15013E37	 	1.45621E-37	 	-7324.25081	24.81937	 
65.0	1.0	0.0	7.91942	6.90029	-11.54997	12.74884	12.27142	0.67512	1.48122	214.89982	192.5936	81.77128	0.31403	 	4.66962E37	 	3.53439E-38	 	-7448.0388	24.7576	 
60.0	1.0	0.0	7.92095	6.89895	-11.5671	12.72235	12.18331	0.66995	1.49265	215.19697	192.7142	81.89311	0.31389	 	1.9773499999999997E38	 	8.22325E-39	 	-7571.51249	24.69474	 
55.0	1.0	0.0	7.92248	6.89762	-11.58417	12.69586	12.09485	0.66472	1.5044	215.49333	192.83394	82.01467	0.31375	 	8.749549999999999E38	 	1.83052E-39	 	-7694.66604	24.63071	 
50.0	1.0	0.0	7.92401	6.89629	-11.60116	12.66938	12.00603	0.65943	1.51645	215.78891	192.95285	82.13594	0.31361	 	4.05393E39	 	3.89058E-40	 	-7817.49323	24.56544	 
45.0	1.0	0.0	7.92552	6.89497	-11.61809	12.6429	11.91684	0.65409	1.52884	216.08369	193.07092	82.25694	0.31347	 	1.97104E40	 	7.87811E-41	 	-7939.98741	24.49883	 
40.0	1.0	0.0	7.92704	6.89366	-11.63494	12.61642	11.82724	0.64869	1.54158	216.37769	193.18816	82.37767	0.31333	 	1.00797E41	 	1.51632E-41	 	-8062.14143	24.43081	 
35.0	1.0	0.0	7.92854	6.89235	-11.65172	12.58995	11.73723	0.64322	1.55467	216.67089	193.30456	82.49811	0.31319	 	5.4350400000000006E41	 	2.76724E-42	 	-8183.94772	24.36126	 
30.0	1.0	0.0	7.93004	6.89104	-11.66844	12.56348	11.64679	0.6377	1.56813	216.96331	193.42013	82.61828	0.31305	 	3.0980899999999995E42	 	4.77585E-43	 	-8305.39809	24.29007	 
25.0	1.0	0.0	7.93154	6.88975	-11.68508	 	11.55588	0.63212	1.58198	217.25495	193.53487	82.73818	0.31291	 	1.87214E43	 	7.7729E-44	 	-8426.4838	 	 
