T (C)	Fraction solid (wt)-TOTAL	Fraction liquid (wt)-LIQUID	Density (g/(cm)^3)-TOTAL	Molar volume (cm^3)-TOTAL	Volume change (%)-  	Average expansion coeff. (10e-6 1/K)-  	Thermal conductivity (W/(m*K))-TOTAL	Electrical resistivity (10e-6 Ohm*m)-TOTAL	Electrical conductivity (10e6 1/(Ohm*m))-TOTAL	Young's modulus (GPa)-TOTAL	Bulk modulus (GPa)-TOTAL	Shear modulus(GPa)-TOTAL	Poisson's ratio-TOTAL	Liquid viscosity (mPa s)-  	Total viscosity (mPa s)-  	Liquid diffusivity (10e-9 (m^2)/s)-  	Total diffusivity (10e-9 (m^2)/s)-  	Surface Tension (mN/m)-  	Enthalpy (J/mole)-TOTAL	Specific heat (J/(mole K))-TOTAL	Latent heat (J/mole)-TOTAL
1400.0	0.0465001	0.9535	7.13958	7.68871	0.0	30.27205	31.15266	1.31585	0.75997	3.67746E-4	124.70731	1.23061E-4	0.49416	6.6321	7.12029	1.23132	1.1469	1794.36132	48523.099	 	0.0
1395.0	0.48102	0.51898	7.26707	7.55383	-1.7543	25.58116	32.39579	1.26157	0.79266	4.56604	122.31887	1.58738	0.43823	6.67854	832.99664	1.2191	0.00977414	1793.29638	41660.319	1372.556	6656.624
1390.0	0.69945	0.30055	7.3345	7.48456	-2.65522	23.20009	33.05347	1.23277	0.81118	21.31869	121.27768	7.56439	0.40915	6.72464	3863.23339	1.20712	0.0021012	1791.96474	38174.27	697.2098	9937.008
1385.0	0.81868	0.18132	7.37331	7.44538	-3.16482	21.8804	33.4023	1.21622	0.82222	41.10275	120.89734	14.75443	0.39289	6.77064	7613.29717	1.19531	0.00106301	1790.41041	36220.823	390.6894	11685.28
1380.0	0.88783	0.11217	7.39733	7.42144	-3.4762	21.0995	33.58025	1.20613	0.8291	57.89774	120.86485	20.92781	0.38327	6.81682	11093.11459	1.18363	7.27353E-4	1788.67879	35024.774	239.2098	12676.636
1375.0	0.92994	0.0700598	7.41323	7.40575	-3.68024	20.61091	33.66126	1.19959	0.83362	70.62952	121.02439	25.64084	0.37729	6.8634	14093.38077	1.17205	5.70779E-4	1786.81449	34229.78	158.9988	13267.419
1370.0	0.95663	0.0433675	7.42446	7.39478	-3.82293	20.28976	33.68532	1.1951	0.83675	79.9395	121.29456	29.10298	0.37339	6.91057	16683.05208	1.16051	4.80716E-4	1784.85959	33659.644	114.0272	13633.823
1365.0	0.97415	0.025853	7.43288	7.38662	-3.92897	20.06873	33.67472	1.19183	0.83904	86.72415	121.63041	31.63385	0.37075	6.95846	18983.62731	1.14902	4.21174E-4	1782.85263	33221.787	87.5714	13868.423
1360.0	0.98598	0.0140168	7.43954	7.38022	-4.01223	19.91005	33.64229	1.18934	0.8408	91.72663	122.00634	33.50404	0.36889	7.00724	21102.76656	1.13754	3.77723E-4	1780.82772	32865.005	71.3564	14022.42
1355.0	0.99419	0.00581222	7.44507	7.37495	-4.08086	19.79141	33.59569	1.18734	0.84222	95.48695	122.40707	34.91219	0.36753	7.05701	23123.26324	1.12606	3.43662E-4	1778.81456	32559.708	61.0594	14125.4
1350.0	1.0	0.0	7.44984	7.37041	-4.13983	19.69923	33.53966	1.18568	0.8434	98.37929	122.82328	35.99674	0.3665	 	25106.32772	 	3.15546E-4	 	32288.134	54.3148	14195.124
1345.0	1.0	0.0	7.4524	7.36789	-4.17257	19.68083	33.45721	1.18494	0.84393	98.88492	123.26512	36.18718	0.3663	 	26670.50248	 	2.96124E-4	 	32079.28369	41.77006	 
1340.0	1.0	0.0	7.45495	7.36537	-4.20541	19.66204	33.37473	1.18419	0.84446	99.38952	123.70391	36.37731	0.36609	 	28342.68408	 	2.77792E-4	 	31887.39753	38.37723	 
1335.0	1.0	0.0	7.4575	7.36285	-4.23819	19.64325	33.29225	1.18345	0.84499	99.89331	124.14048	36.5672	0.36589	 	30131.09943	 	2.60494E-4	 	31695.8031	38.31889	 
1330.0	1.0	0.0	7.46005	7.36033	-4.27093	19.62446	33.20977	1.1827	0.84552	100.39629	124.57485	36.75685	0.36568	 	32044.59171	 	2.44178E-4	 	31504.5	38.26062	 
1325.0	1.0	0.0	7.4626	7.35782	-4.30361	19.60568	33.12729	1.18195	0.84606	100.89845	125.00704	36.94625	0.36548	 	34092.73347	 	2.28793E-4	 	31313.48783	38.20243	 
1320.0	1.0	0.0	7.46515	7.35531	-4.33623	19.5869	33.04481	1.18119	0.8466	101.39981	125.43705	37.13541	0.36527	 	36285.89139	 	2.14292E-4	 	31122.76618	38.14433	 
1315.0	1.0	0.0	7.46769	7.35281	-4.36881	19.56813	32.96233	1.18043	0.84715	101.90036	125.86489	37.32432	0.36507	 	38635.29716	 	2.00629E-4	 	30932.33466	38.0863	 
1310.0	1.0	0.0	7.47023	7.35031	-4.40134	19.54936	32.87986	1.17966	0.8477	102.40009	126.29058	37.51299	0.36486	 	41153.1251	 	1.87761E-4	 	30742.19287	38.02836	 
1305.0	1.0	0.0	7.47277	7.34781	-4.43381	19.5306	32.79738	1.1789	0.84825	102.89902	126.71413	37.70141	0.36466	 	43852.57727	 	1.75647E-4	 	30552.3404	37.97049	 
1300.0	1.0	0.0	7.47531	7.34532	-4.46623	19.51185	32.7149	1.17812	0.84881	103.39713	127.13555	37.88959	0.36445	 	46747.9768	 	1.64246E-4	 	30362.77686	37.91271	 
1295.0	1.0	0.0	7.47784	7.34283	-4.4986	19.4931	32.63242	1.17735	0.84937	103.89443	127.55484	38.07753	0.36425	 	49854.87023	 	1.53521E-4	 	30173.50184	37.855	 
1290.0	1.0	0.0	7.48037	7.34034	-4.53092	19.47436	32.54994	1.17657	0.84993	104.39093	127.97203	38.26522	0.36404	 	53190.1399	 	1.43435E-4	 	29984.51495	37.79738	 
1285.0	1.0	0.0	7.4829	7.33786	-4.56318	19.45562	32.46746	1.17578	0.8505	104.88661	128.38711	38.45266	0.36384	 	56772.12734	 	1.33956E-4	 	29795.81577	37.73984	 
1280.0	1.0	0.0	7.48543	7.33538	-4.59539	19.43689	32.38498	1.17499	0.85107	105.38148	128.80011	38.63986	0.36364	 	60620.76885	 	1.25049E-4	 	29607.40392	37.68237	 
1275.0	1.0	0.0	7.48795	7.33291	-4.62755	19.41817	32.30249	1.1742	0.85164	105.87554	129.21103	38.82681	0.36343	 	64757.74453	 	1.16683E-4	 	29419.27898	37.62499	 
1270.0	1.0	0.0	7.49047	7.33044	-4.65966	19.39946	32.22001	1.17341	0.85222	106.36879	129.61989	39.01352	0.36323	 	69206.64224	 	1.0883E-4	 	29231.44056	37.56768	 
1265.0	1.0	0.0	7.49299	7.32798	-4.69172	19.38075	32.13753	1.17261	0.8528	106.86122	130.02669	39.19998	0.36303	 	73993.13797	 	1.0146E-4	 	29043.88824	37.51046	 
1260.0	1.0	0.0	7.49551	7.32552	-4.72372	19.36205	32.05504	1.1718	0.85339	107.35285	130.43144	39.38619	0.36282	 	79145.19446	 	9.45468E-5	 	28856.62164	37.45332	 
1255.0	1.0	0.0	7.49802	7.32306	-4.75567	19.34336	31.97256	1.17099	0.85398	107.84367	130.83416	39.57216	0.36262	 	84693.28003	 	8.80651E-5	 	28669.64035	37.39626	 
1250.0	1.0	0.0	7.50053	7.32061	-4.78757	19.32468	31.89007	1.17018	0.85457	108.33367	131.23486	39.75788	0.36242	 	90670.6097	 	8.19904E-5	 	28482.94396	37.33928	 
1245.0	1.0	0.0	7.50304	7.31816	-4.81941	19.30601	31.80758	1.16937	0.85516	108.82287	131.63354	39.94336	0.36221	 	97113.41123	 	7.62996E-5	 	28296.53207	37.28238	 
1240.0	1.0	0.0	7.50555	7.31572	-4.8512	19.28735	31.72509	1.16854	0.85577	109.31125	132.03021	40.12858	0.36201	 	104061.2185	 	7.09708E-5	 	28110.40428	37.22556	 
1235.0	1.0	0.0	7.50805	7.31328	-4.88294	19.26869	31.6426	1.16772	0.85637	109.79882	132.4249	40.31356	0.36181	 	111557.1955	 	6.59832E-5	 	27924.56019	37.16882	 
1230.0	1.0	0.0	7.51056	7.31084	-4.91463	19.25005	31.5601	1.16689	0.85698	110.28559	132.81759	40.4983	0.36161	 	119648.4943	 	6.13171E-5	 	27738.99938	37.11216	 
1225.0	1.0	0.0	7.51306	7.30841	-4.94626	19.23142	31.47761	1.16606	0.85759	110.77154	133.20832	40.68278	0.36141	 	128386.6506	 	5.69537E-5	 	27553.72146	37.05558	 
1220.0	1.0	0.0	7.51555	7.30598	-4.97784	19.2128	31.39511	1.16522	0.85821	111.25668	133.59708	40.86702	0.3612	 	137828.0211	 	5.28753E-5	 	27368.72603	36.99909	 
1215.0	1.0	0.0	7.51805	7.30356	-5.00937	19.19419	31.31261	1.16438	0.85883	111.74101	133.98388	41.05101	0.361	 	148034.2677	 	4.90649E-5	 	27184.01267	36.94267	 
1210.0	1.0	0.0	7.52054	7.30114	-5.04084	19.17559	31.2301	1.16353	0.85945	112.22453	134.36874	41.23475	0.3608	 	159072.8931	 	4.55067E-5	 	26999.58098	36.88634	 
1205.0	1.0	0.0	7.52303	7.29872	-5.07226	19.157	31.1476	1.16268	0.86008	112.70723	134.75167	41.41825	0.3606	 	171017.835	 	4.21856E-5	 	26815.43055	36.83009	 
1200.0	1.0	0.0	7.52552	7.29631	-5.10363	19.13842	31.06509	1.16182	0.86072	113.18913	135.13267	41.60149	0.3604	 	183950.1237	 	3.90871E-5	 	26631.56099	36.77391	 
1195.0	1.0	0.0	7.528	7.2939	-5.13494	19.11986	30.98258	1.16096	0.86135	113.67022	135.51176	41.78449	0.3602	 	197958.6123	 	3.61978E-5	 	26447.97188	36.71782	 
1190.0	1.0	0.0	7.53048	7.2915	-5.1662	19.10131	30.90006	1.1601	0.86199	114.15049	135.88894	41.96724	0.36	 	213140.7867	 	3.3505E-5	 	26264.66281	36.66181	 
1185.0	1.0	0.0	7.53296	7.2891	-5.1974	19.08278	30.81755	1.15923	0.86264	114.62996	136.26422	42.14974	0.35979	 	229603.6652	 	3.09963E-5	 	26081.63339	36.60588	 
1180.0	1.0	0.0	7.53544	7.2867	-5.22856	19.06425	30.73502	1.15836	0.86329	115.10861	136.63762	42.33199	0.35959	 	247464.7977	 	2.86605E-5	 	25898.8832	36.55004	 
1175.0	1.0	0.0	7.53791	7.28431	-5.25965	19.04574	30.6525	1.15748	0.86395	115.58645	137.00914	42.51399	0.35939	 	266853.3775	 	2.64867E-5	 	25716.41183	36.49427	 
1170.0	1.0	0.0	7.54038	7.28192	-5.2907	19.02725	30.56997	1.1566	0.8646	116.06349	137.37879	42.69574	0.35919	 	287911.4771	 	2.44647E-5	 	25534.21888	36.43859	 
1165.0	1.0	0.0	7.54285	7.27954	-5.32169	19.00877	30.48744	1.15571	0.86527	116.53971	137.74658	42.87724	0.35899	 	310795.4251	 	2.25848E-5	 	25352.30393	36.38299	 
1160.0	1.0	0.0	7.54531	7.27716	-5.35263	18.99031	30.4049	1.15482	0.86594	117.01512	138.11252	43.05849	0.35879	 	335677.3391	 	2.0838E-5	 	25170.66658	36.32747	 
1155.0	1.0	0.0	7.54778	7.27479	-5.38351	18.97186	30.32236	1.15392	0.86661	117.48972	138.47661	43.2395	0.35859	 	362746.8345	 	1.92157E-5	 	24989.30642	36.27203	 
1150.0	1.0	0.0	7.55024	7.27242	-5.41434	18.95343	30.23982	1.15302	0.86729	117.96351	138.83888	43.42025	0.35839	 	392212.931	 	1.77099E-5	 	24808.22304	36.21668	 
1145.0	1.0	0.0	7.55269	7.27005	-5.44511	18.93501	30.15727	1.15212	0.86797	118.43648	139.19932	43.60075	0.35819	 	424306.1802	 	1.63128E-5	 	24627.41602	36.1614	 
1140.0	1.0	0.0	7.55515	7.26769	-5.47583	18.91662	30.07472	1.15121	0.86865	118.90865	139.55795	43.781	0.35799	 	459281.0412	 	1.50175E-5	 	24446.88495	36.10621	 
1135.0	1.0	0.0	7.5576	7.26533	-5.5065	18.89823	29.99216	1.15029	0.86935	119.38001	139.91477	43.961	0.35779	 	497418.5366	 	1.3817E-5	 	24266.62942	36.05111	 
1130.0	1.0	0.0	7.56005	7.26298	-5.53711	18.87987	29.9096	1.14937	0.87004	119.85055	140.2698	44.14075	0.3576	 	539029.2224	 	1.27051E-5	 	24086.64902	35.99608	 
1125.0	1.0	0.0	7.5625	7.26063	-5.56767	18.86153	29.82703	1.14844	0.87074	120.32029	140.62303	44.32025	0.3574	 	584456.5115	 	1.16758E-5	 	23906.94333	35.94114	 
1120.0	1.0	0.0	7.56494	7.25828	-5.59817	18.8432	29.74446	1.14751	0.87145	120.78921	140.97449	44.4995	0.3572	 	634080.396	 	1.07236E-5	 	23727.51193	35.88628	 
1115.0	1.0	0.0	7.56738	7.25594	-5.62862	18.8249	29.66188	1.14658	0.87216	121.25732	141.32418	44.6785	0.357	 	688321.6183	 	9.8431E-6	 	23548.35442	35.8315	 
1110.0	1.0	0.0	7.56982	7.25361	-5.65901	18.80661	29.57929	1.14564	0.87288	121.72463	141.6721	44.85725	0.3568	 	747646.3497	 	9.02942E-6	 	23369.47038	35.77681	 
1105.0	1.0	0.0	7.57225	7.25127	-5.68935	18.78835	29.4967	1.14469	0.8736	122.19112	142.01827	45.03574	0.3566	 	812571.44	 	8.27793E-6	 	23190.85938	35.7222	 
1100.0	1.0	0.0	7.57469	7.24894	-5.71964	18.77011	29.41411	1.14374	0.87432	122.6568	142.36269	45.21398	0.3564	 	883670.3135	 	7.58428E-6	 	23012.52101	35.66767	 
1095.0	1.0	0.0	7.57712	7.24662	-5.74987	18.75188	29.33151	1.14279	0.87505	123.12167	142.70537	45.39197	0.35621	 	961579.596	 	6.94441E-6	 	22834.45485	35.61323	 
1090.0	1.0	0.0	7.57954	7.2443	-5.78004	18.73369	29.2489	1.14183	0.87579	123.58573	143.04633	45.56971	0.35601	 	1047006.568	 	6.35449E-6	 	22656.66048	35.55887	 
1085.0	1.0	0.0	7.58197	7.24198	-5.81016	18.71551	29.16628	1.14086	0.87653	124.04897	143.38556	45.7472	0.35581	 	1140737.551	 	5.81097E-6	 	22479.13747	35.5046	 
1080.0	1.0	0.0	7.58439	7.23967	-5.84023	18.69735	29.08366	1.13989	0.87728	124.51141	143.72308	45.92443	0.35561	 	1243647.361	 	5.3105E-6	 	22301.88541	35.45041	 
1075.0	1.0	0.0	7.5868	7.23737	-5.87024	18.67922	29.00103	1.13891	0.87803	124.97304	144.0589	46.10141	0.35541	 	1356709.955	 	4.84996E-6	 	22124.90387	35.39631	 
1070.0	1.0	0.0	7.58922	7.23506	-5.90019	18.66112	28.91839	1.13793	0.87879	125.43385	144.39302	46.27814	0.35522	 	1481010.449	 	4.42642E-6	 	21948.19243	35.34229	 
1065.0	1.0	0.0	7.59163	7.23276	-5.93009	18.64304	28.83575	1.13695	0.87955	125.89386	144.72545	46.45462	0.35502	 	1617758.681	 	4.03718E-6	 	21771.75065	35.28836	 
1060.0	1.0	0.0	7.59404	7.23047	-5.95993	18.62498	28.7531	1.13595	0.88032	126.35305	145.0562	46.63084	0.35482	 	1768304.541	 	3.67967E-6	 	21595.57811	35.23451	 
1055.0	1.0	0.0	7.59645	7.22818	-5.98972	18.60696	28.67044	1.13496	0.88109	126.81143	145.38528	46.80681	0.35463	 	1934155.296	 	3.35153E-6	 	21419.67438	35.18075	 
1050.0	1.0	0.0	7.59885	7.22589	-6.01945	18.58895	28.58777	1.13395	0.88187	127.26901	145.71269	46.98252	0.35443	 	2116995.207	 	3.05053E-6	 	21244.03903	35.12707	 
1045.0	1.0	0.0	7.60125	7.22361	-6.04913	18.57098	28.5051	1.13294	0.88266	127.72577	146.03844	47.15798	0.35423	 	2318707.737	 	2.77463E-6	 	21068.67163	35.07348	 
1040.0	1.0	0.0	7.60365	7.22133	-6.07875	18.55304	28.42241	1.13193	0.88345	128.18172	146.36255	47.33319	0.35404	 	2541400.729	 	2.5219E-6	 	20893.57174	35.01998	 
1035.0	1.0	0.0	7.60604	7.21906	-6.10832	18.53512	28.33972	1.13091	0.88424	128.63686	146.68501	47.50814	0.35384	 	2787434.962	 	2.29055E-6	 	20718.73892	34.96656	 
1030.0	1.0	0.0	7.60843	7.21679	-6.13783	18.51723	28.25702	1.12988	0.88505	129.09118	147.00584	47.68284	0.35364	 	3059456.581	 	2.07892E-6	 	20544.17274	34.91324	 
1025.0	1.0	0.0	7.61082	7.21453	-6.16729	18.49937	28.17431	1.12885	0.88585	129.5447	147.32504	47.85729	0.35345	 	3360433.939	 	1.88546E-6	 	20369.87276	34.86	 
1020.0	1.0	0.0	7.61321	7.21227	-6.19669	18.48155	28.09159	1.12782	0.88667	129.99741	147.64262	48.03148	0.35325	 	3693699.499	 	1.70873E-6	 	20195.83853	34.80685	 
1015.0	1.0	0.0	7.61559	7.21001	-6.22603	18.46375	28.00886	1.12677	0.88749	130.44931	147.95859	48.20542	0.35306	 	4062997.532	 	1.54741E-6	 	20022.06961	34.75378	 
1010.0	1.0	0.0	7.61797	7.20776	-6.25532	18.44599	27.92612	1.12573	0.88832	130.90039	148.27296	48.3791	0.35286	 	4472538.453	 	1.40026E-6	 	19848.56555	34.70081	 
1005.0	1.0	0.0	7.62035	7.20551	-6.28455	18.42826	27.84337	1.12467	0.88915	131.35067	148.58572	48.55252	0.35267	 	4927060.777	 	1.26614E-6	 	19675.3259	34.64793	 
1000.0	1.0	0.0	7.62272	7.20327	-6.31372	18.41057	27.76061	1.12361	0.88999	131.80013	148.8969	48.7257	0.35247	 	5431901.824	 	1.14397E-6	 	19502.35021	34.59514	 
995.0	1.0	0.0	7.62509	7.20103	-6.34284	18.39291	27.67784	1.12255	0.89083	132.24878	149.2065	48.89861	0.35228	 	5993078.493	 	1.03278E-6	 	19329.63803	34.54244	 
990.0	1.0	0.0	7.62745	7.19879	-6.3719	18.37528	27.59505	1.12148	0.89168	132.69662	149.51452	49.07127	0.35208	 	6617379.597	 	9.31656E-7	 	19157.18889	34.48983	 
986.72	1.0	0.0	7.62901	7.19733	-6.39096	18.36373	27.54068	1.12077	0.89224	132.99028	149.71594	49.18452	0.35195	 	7065351.075	 	8.70317E-7	 	19044.08408	34.44631	 
985.0	1.0	0.0	7.63021	7.1962	-6.4057	18.33899	27.48757	1.1214	0.89174	133.22727	149.82185	49.27796	0.35179	 	7339588.008	 	8.36657E-7	 	18964.04555	46.62919	 
980.0	1.0	0.0	7.63369	7.19291	-6.44838	18.26744	27.33442	1.12321	0.89031	133.90781	150.12328	49.54646	0.35134	 	8205515.604	 	7.45391E-7	 	18732.04298	46.40051	 
975.0	1.0	0.0	7.63714	7.18966	-6.49068	18.19662	27.18353	1.12493	0.88894	134.5741	150.41441	49.8096	0.35089	 	9181893.084	 	6.6347E-7	 	18501.70129	46.06834	 
970.0	1.0	0.0	7.64057	7.18644	-6.53262	18.12649	27.03481	1.12659	0.88763	135.22653	150.69551	50.06752	0.35044	 	1.028386513E7	 	5.90003E-7	 	18272.96866	45.74653	 
965.0	1.0	0.0	7.64397	7.18324	-6.5742	18.05703	26.88817	1.12818	0.88638	135.86545	150.96686	50.32034	0.35001	 	1.152879716E7	 	5.24175E-7	 	18045.79524	45.43468	 
960.0	1.0	0.0	7.64735	7.18007	-6.61545	17.98819	26.74353	1.1297	0.88519	136.49119	151.2287	50.5682	0.34958	 	1.293662166E7	 	4.65245E-7	 	17820.133	45.13245	 
955.0	1.0	0.0	7.6507	7.17692	-6.65636	17.91996	26.60081	1.13116	0.88405	137.10407	151.48125	50.81121	0.34915	 	1.45302419E7	 	4.12539E-7	 	17595.93575	44.83945	 
950.0	1.0	0.0	7.65403	7.1738	-6.69695	17.8523	26.45994	1.13255	0.88296	137.70439	151.72473	51.04949	0.34873	 	1.633600294E7	 	3.65444E-7	 	17373.15906	44.55534	 
945.0	1.0	0.0	7.65733	7.17071	-6.73722	17.78518	26.32083	1.13388	0.88193	138.29243	151.95932	51.28312	0.34832	 	1.83842414E7	 	3.23401E-7	 	17151.76019	44.27977	 
940.0	1.0	0.0	7.66062	7.16763	-6.77719	17.71858	26.18343	1.13515	0.88094	138.86843	152.18521	51.51222	0.34792	 	2.070992843E7	 	2.85906E-7	 	16931.69807	44.01242	 
935.0	1.0	0.0	7.66388	7.16458	-6.81686	17.65246	26.04767	1.13637	0.88	139.43267	152.40258	51.73688	0.34752	 	2.335342209E7	 	2.52497E-7	 	16712.93326	43.75296	 
930.0	1.0	0.0	7.66712	7.16155	-6.85625	17.5868	25.91349	1.13752	0.8791	139.98536	152.61159	51.95718	0.34712	 	2.636134896E7	 	2.22761E-7	 	16495.4279	43.50107	 
925.0	1.0	0.0	7.67034	7.15855	-6.89536	17.52158	25.78082	1.13862	0.87825	140.52673	152.81239	52.1732	0.34673	 	2.978763843E7	 	1.96319E-7	 	16279.14567	43.25645	 
920.0	1.0	0.0	7.67354	7.15556	-6.93419	17.45677	25.64962	1.13967	0.87744	141.05699	153.00515	52.38503	0.34635	 	3.369473703E7	 	1.7283E-7	 	16064.05174	43.01879	 
915.0	1.0	0.0	7.67672	7.1526	-6.97276	17.39234	25.51984	1.14067	0.87668	141.57636	153.19	52.59274	0.34597	 	3.815503709E7	 	1.51987E-7	 	15850.1128	42.78779	 
910.0	1.0	0.0	7.67988	7.14965	-7.01108	17.32828	25.39141	1.14161	0.87595	142.08502	153.36709	52.7964	0.34559	 	4.325255709E7	 	1.3351E-7	 	15637.29692	42.56318	 
905.0	1.0	0.0	7.68303	7.14672	-7.04914	17.26455	25.26431	1.14251	0.87527	142.58316	153.53657	52.99609	0.34522	 	4.908492397E7	 	1.17149E-7	 	15425.57362	42.34466	 
900.0	1.0	0.0	7.68616	7.14382	-7.08696	17.20115	25.13847	1.14335	0.87462	143.07098	153.69856	53.19187	0.34486	 	5.576571073E7	 	1.02677E-7	 	15214.91377	42.13197	 
895.0	1.0	0.0	7.68927	7.14093	-7.12454	17.13804	25.01387	1.14415	0.87401	143.54863	153.85322	53.3838	0.3445	 	6.342719849E7	 	8.98897E-8	 	15005.28957	41.92484	 
890.0	1.0	0.0	7.69236	7.13805	-7.16188	17.07522	24.89047	1.1449	0.87344	144.01631	154.00067	53.57196	0.34414	 	7.222364532E7	 	7.86037E-8	 	14796.67453	41.72301	 
885.0	1.0	0.0	7.69544	7.1352	-7.199	17.01265	24.76823	1.14561	0.8729	144.47417	154.14105	53.7564	0.34379	 	8.23351554E7	 	6.86541E-8	 	14589.0434	41.52623	 
880.0	1.0	0.0	7.6985	7.13236	-7.2359	16.95032	24.64711	1.14627	0.8724	144.92239	154.27451	53.93719	0.34344	 	9.397226698E7	 	5.98925E-8	 	14382.37219	41.33424	 
875.0	1.0	0.0	7.70154	7.12954	-7.27258	16.88821	24.52709	1.14688	0.87193	145.36112	154.40119	54.11438	0.34309	 	1.073814111E8	 	5.21863E-8	 	14176.63784	41.14687	 
870.0	1.0	0.0	7.70457	7.12674	-7.30905	16.82631	24.40813	1.14745	0.8715	145.79054	154.52121	54.28803	0.34275	 	1.228513782E8	 	4.54161E-8	 	13971.81893	40.96378	 
865.0	1.0	0.0	7.70759	7.12395	-7.34532	16.7646	24.29021	1.14798	0.8711	146.21079	154.63472	54.45821	0.34241	 	1.407210403E8	 	3.94755E-8	 	13767.89487	40.78481	 
860.0	1.0	0.0	7.71059	7.12118	-7.38138	16.70306	24.1733	1.14846	0.87073	146.62203	154.74186	54.62497	0.34208	 	1.613885442E8	 	3.4269E-8	 	13564.84614	40.60975	 
855.0	1.0	0.0	7.71358	7.11842	-7.41724	16.64167	24.05738	1.14891	0.87039	147.02442	154.84278	54.78836	0.34175	 	1.853222878E8	 	2.97116E-8	 	13362.65424	40.43838	 
850.0	1.0	0.0	7.71655	7.11568	-7.45291	16.58042	23.94242	1.14931	0.87009	147.41811	154.93761	54.94844	0.34142	 	2.130740394E8	 	2.57273E-8	 	13161.30163	40.27052	 
845.0	1.0	0.0	7.71883	7.11358	-7.48024	16.55653	23.86723	1.14779	0.87124	147.8224	155.1983	55.10603	0.34125	 	2.421499967E8	 	2.25373E-8	 	12999.55927	32.34847	 
840.0	1.0	0.0	7.7211	7.11148	-7.50752	16.53261	23.79202	1.14627	0.87239	148.22599	155.4578	55.26339	0.34109	 	2.755100624E8	 	1.97198E-8	 	12834.7604	32.95977	 
835.0	1.0	0.0	7.72338	7.10939	-7.53473	16.50868	23.7168	1.14474	0.87356	148.62888	155.71611	55.42053	0.34092	 	3.138313232E8	 	1.72341E-8	 	12670.20766	32.91055	 
830.0	1.0	0.0	7.72565	7.1073	-7.56189	16.48474	23.64156	1.14321	0.87473	149.03107	155.97324	55.57744	0.34075	 	3.579050396E8	 	1.50437E-8	 	12505.90035	32.86146	 
825.0	1.0	0.0	7.72791	7.10522	-7.58898	16.46078	23.56631	1.14166	0.87592	149.43257	156.22919	55.73413	0.34058	 	4.086570969E8	 	1.31156E-8	 	12341.83775	32.81252	 
820.0	1.0	0.0	7.73017	7.10314	-7.61601	16.43681	23.49104	1.1401	0.87711	149.83336	156.48396	55.89059	0.34042	 	4.671723326E8	 	1.14206E-8	 	12178.01912	32.76373	 
815.0	1.0	0.0	7.73243	7.10106	-7.64299	16.41282	23.41575	1.13854	0.87832	150.23346	156.73756	56.04683	0.34025	 	5.347235157E8	 	9.93222E-9	 	12014.44369	32.71509	 
810.0	1.0	0.0	7.73468	7.09899	-7.6699	16.38882	23.34045	1.13696	0.87954	150.63286	156.98999	56.20284	0.34008	 	6.128059154E8	 	8.62685E-9	 	11851.11068	32.6666	 
805.0	1.0	0.0	7.73693	7.09693	-7.69675	16.3648	23.26513	1.13538	0.88077	151.03156	157.24127	56.35862	0.33992	 	7.031785982E8	 	7.48342E-9	 	11688.0193	32.61828	 
800.0	1.0	0.0	7.73918	7.09487	-7.72354	16.34077	23.1898	1.13378	0.882	151.42956	157.49138	56.51418	0.33975	 	8.079138317E8	 	6.48309E-9	 	11525.1687	32.57012	 
795.0	1.0	0.0	7.74142	7.09282	-7.75026	16.31673	23.11445	1.13218	0.88325	151.82687	157.74034	56.66952	0.33958	 	9.294562766E8	 	5.60906E-9	 	11362.55803	32.52213	 
790.0	1.0	0.0	7.74366	7.09077	-7.77693	16.29267	23.03908	1.13056	0.88451	152.22348	157.98815	56.82463	0.33941	 	1.070694008E9	 	4.84636E-9	 	11200.18641	32.47432	 
785.0	1.0	0.0	7.74589	7.08872	-7.80354	16.26859	22.9637	1.12894	0.88579	152.61939	158.23481	56.97951	0.33925	 	1.235043864E9	 	4.18169E-9	 	11038.05294	32.42669	 
780.0	1.0	0.0	7.74813	7.08668	-7.83008	16.2445	22.88829	1.12731	0.88707	153.01461	158.48034	57.13417	0.33908	 	1.426554157E9	 	3.6032E-9	 	10876.15666	32.37926	 
775.0	1.0	0.0	7.75035	7.08464	-7.85657	16.22039	22.81287	1.12567	0.88836	153.40913	158.72473	57.2886	0.33891	 	1.650028494E9	 	3.10041E-9	 	10714.4966	32.33201	 
770.0	1.0	0.0	7.75258	7.08261	-7.88299	16.19627	22.73743	1.12401	0.88967	153.80295	158.96798	57.44281	0.33875	 	1.911175247E9	 	2.66399E-9	 	10553.07176	32.28497	 
765.0	1.0	0.0	7.75479	7.08058	-7.90935	16.17214	22.66197	1.12235	0.89099	154.19608	159.2101	57.59679	0.33858	 	2.216788308E9	 	2.28572E-9	 	10391.88109	32.23813	 
760.0	1.0	0.0	7.75701	7.07856	-7.93565	16.14799	22.58649	1.12068	0.89232	154.58851	159.4511	57.75055	0.33842	 	2.574965995E9	 	1.9583E-9	 	10230.9235	32.19152	 
755.0	1.0	0.0	7.75922	7.07654	-7.96189	16.12382	22.51099	1.11899	0.89366	154.98025	159.69098	57.90408	0.33825	 	2.995376633E9	 	1.6753E-9	 	10070.19787	32.14513	 
750.0	1.0	0.0	7.76143	7.07453	-7.98806	16.09965	22.43548	1.1173	0.89501	155.37129	159.92975	58.05738	0.33808	 	3.489581255E9	 	1.43104E-9	 	9909.70302	32.09897	 
745.0	1.0	0.0	7.76363	7.07252	-8.01418	16.07545	22.35994	1.1156	0.89638	155.76163	160.1674	58.21046	0.33792	 	4.071426407E9	 	1.22054E-9	 	9749.43774	32.05306	 
740.0	1.0	0.0	7.76583	7.07052	-8.04023	16.05124	22.28438	1.11388	0.89776	156.15128	160.40394	58.36331	0.33775	 	4.757523071E9	 	1.03939E-9	 	9589.40074	32.0074	 
735.0	1.0	0.0	7.76803	7.06852	-8.06622	16.02702	22.2088	1.11216	0.89915	156.54024	160.63938	58.51594	0.33759	 	5.567831611E9	 	8.83743E-10	 	9429.59072	31.962	 
730.0	1.0	0.0	7.77022	7.06653	-8.09215	16.00278	22.13319	1.11042	0.90056	156.9285	160.87371	58.66834	0.33742	 	6.52637747E9	 	7.50206E-10	 	9270.00628	31.91689	 
725.0	1.0	0.0	7.77241	7.06454	-8.11802	15.97853	22.05757	1.10868	0.90198	157.31606	161.10695	58.82052	0.33726	 	7.662128385E9	 	6.35818E-10	 	9110.64598	31.87206	 
720.0	1.0	0.0	7.77459	7.06256	-8.14382	15.95426	21.98192	1.10692	0.90341	157.70293	161.3391	58.97246	0.33709	 	9.01007153E9	 	5.37989E-10	 	8951.50831	31.82753	 
715.0	1.0	0.0	7.77677	7.06058	-8.16956	15.92998	21.90625	1.10515	0.90486	158.08911	161.57016	59.12419	0.33692	 	1.06125E10	 	4.54454E-10	 	8792.59169	31.78332	 
710.0	1.0	0.0	7.77894	7.0586	-8.19525	15.90568	21.83056	1.10337	0.90631	158.47459	161.80013	59.27568	0.33676	 	1.2520799999999998E10	 	3.83242E-10	 	8633.89447	31.73944	 
705.0	1.0	0.0	7.78112	7.05663	-8.22086	15.88137	21.75484	1.10158	0.90779	158.85938	162.02902	59.42695	0.33659	 	1.4797299999999998E10	 	3.22634E-10	 	8475.4149	31.69591	 
700.0	1.0	0.0	7.78328	7.05467	-8.24642	15.85704	21.6791	1.09978	0.90928	159.24347	162.25684	59.578	0.33643	 	1.75176E10	 	2.71138E-10	 	8317.15117	31.65275	 
695.0	1.0	0.0	7.78545	7.05271	-8.27192	15.8327	21.60333	1.09796	0.91078	159.62687	162.48358	59.72881	0.33626	 	2.07743E10	 	2.27459E-10	 	8159.10137	31.60996	 
690.0	1.0	0.0	7.78761	7.05075	-8.29735	15.80835	21.52754	1.09614	0.91229	160.00958	162.70925	59.8794	0.3361	 	2.4680099999999996E10	 	1.90473E-10	 	8001.26348	31.56758	 
685.0	1.0	0.0	7.78976	7.0488	-8.32272	15.78397	21.45172	1.0943	0.91382	160.39159	162.93386	60.02977	0.33593	 	2.9372899999999996E10	 	1.59211E-10	 	7843.63538	31.52562	 
680.0	1.0	0.0	7.79191	7.04686	-8.34803	15.75959	21.37587	1.09245	0.91537	160.77291	163.1574	60.1799	0.33577	 	3.5022E10	 	1.32833E-10	 	7686.21486	31.4841	 
675.0	1.0	0.0	7.79406	7.04491	-8.37327	15.73519	21.3	1.09059	0.91693	161.15354	163.37988	60.32981	0.3356	 	4.1835E10	 	1.10617E-10	 	7528.99956	31.44306	 
670.0	1.0	0.0	7.7962	7.04298	-8.39845	15.71077	21.22411	1.08872	0.91851	161.53347	163.60131	60.4795	0.33544	 	5.006769999999999E10	 	9.19411E-11	 	7371.98701	31.40251	 
665.0	1.0	0.0	7.79834	7.04105	-8.42357	15.68634	21.14818	1.08684	0.9201	161.91272	163.82169	60.62896	0.33528	 	6.003539999999999E10	 	7.62696E-11	 	7215.17459	31.36248	 
660.0	1.0	0.0	7.80047	7.03912	-8.44863	15.6619	21.07222	1.08494	0.92171	162.29126	164.04102	60.77819	0.33511	 	7.21277E10	 	6.31446E-11	 	7058.56629	31.32166	 
655.0	1.0	0.0	7.8026	7.0372	-8.47362	15.63744	20.99624	1.08304	0.92333	162.66912	164.25931	60.92719	0.33495	 	8.68271E10	 	5.21734E-11	 	6902.19962	31.27333	 
650.0	1.0	0.0	7.80473	7.03528	-8.49856	15.61297	20.92023	1.08112	0.92497	163.04628	164.47656	61.07597	0.33478	 	1.04732E11	 	4.30207E-11	 	6746.12435	31.21505	 
645.0	1.0	0.0	7.80685	7.03337	-8.52343	15.58848	20.84418	1.07918	0.92663	163.42275	164.69277	61.22452	0.33462	 	1.26588E11	 	3.54003E-11	 	6590.33947	31.15698	 
640.0	1.0	0.0	7.80897	7.03146	-8.54823	15.56397	20.76811	1.07724	0.9283	163.79853	164.90795	61.37284	0.33445	 	1.53323E11	 	2.90684E-11	 	6434.84401	31.09909	 
635.0	1.0	0.0	7.81108	7.02956	-8.57297	15.53945	20.692	1.07528	0.92999	164.17362	165.1221	61.52094	0.33429	 	1.86097E11	 	2.3818E-11	 	6279.63696	31.04141	 
630.0	1.0	0.0	7.81319	7.02766	-8.59765	15.51492	20.61587	1.07331	0.9317	164.54802	165.33522	61.6688	0.33413	 	2.2636E11	 	1.94736E-11	 	6124.71734	30.98392	 
625.0	1.0	0.0	7.8153	7.02577	-8.62227	15.49037	20.5397	1.07132	0.93342	164.92172	165.54732	61.81644	0.33396	 	2.75937E11	 	1.58864E-11	 	5970.08407	30.92665	 
620.0	1.0	0.0	7.8174	7.02388	-8.64683	15.46581	20.46349	1.06933	0.93517	165.29473	165.7584	61.96386	0.3338	 	3.37117E11	 	1.29309E-11	 	5815.73591	30.86963	 
615.0	1.0	0.0	7.81949	7.022	-8.67132	15.44123	20.38726	1.06732	0.93693	165.66705	165.96846	62.11104	0.33364	 	4.12793E11	 	1.05012E-11	 	5661.672	30.81278	 
610.0	1.0	0.0	7.82159	7.02012	-8.69574	15.41664	20.31099	1.06529	0.93871	166.03868	166.17752	62.258	0.33347	 	5.06617E11	 	8.50828E-12	 	5507.89137	30.75613	 
605.0	1.0	0.0	7.82367	7.01825	-8.72011	15.39203	20.23468	1.06326	0.94051	166.40962	166.38556	62.40474	0.33331	 	6.23217E11	 	6.87727E-12	 	5354.39305	30.69966	 
600.0	1.0	0.0	7.82576	7.01638	-8.74441	15.36741	20.15834	1.06121	0.94232	166.77987	166.5926	62.55124	0.33315	 	7.68475E11	 	5.54556E-12	 	5201.17606	30.6434	 
595.0	1.0	0.0	7.82784	7.01452	-8.76865	15.34278	20.08196	1.05914	0.94416	167.14942	166.79864	62.69752	0.33298	 	9.49879E11	 	4.46081E-12	 	5048.23942	30.58733	 
590.0	1.0	0.0	7.82991	7.01266	-8.79282	15.31812	20.00554	1.05707	0.94601	167.51829	167.00368	62.84356	0.33282	 	1.17699E12	 	3.57932E-12	 	4895.58217	30.53145	 
585.0	1.0	0.0	7.83198	7.0108	-8.81693	15.29346	19.92908	1.05497	0.94789	167.88646	167.20773	62.98939	0.33266	 	1.46205E12	 	2.86475E-12	 	4743.20335	30.47576	 
580.0	1.0	0.0	7.83405	7.00895	-8.84098	15.26878	19.85259	1.05287	0.94979	168.25395	167.41078	63.13498	0.33249	 	1.82077E12	 	2.28695E-12	 	4591.10198	30.42027	 
575.0	1.0	0.0	7.83611	7.00711	-8.86496	15.24408	19.77605	1.05075	0.9517	168.62074	167.61285	63.28034	0.33233	 	2.27339E12	 	1.8209E-12	 	4439.2771	30.36498	 
570.0	1.0	0.0	7.83817	7.00527	-8.88888	15.21937	19.69948	1.04862	0.95364	168.98685	167.81393	63.42548	0.33217	 	2.846E12	 	1.44596E-12	 	4287.72775	30.30987	 
565.0	1.0	0.0	7.84022	7.00344	-8.91274	15.19465	19.62286	1.04647	0.9556	169.35226	168.01403	63.57039	0.33201	 	3.57239E12	 	1.14512E-12	 	4136.45297	30.25496	 
560.0	1.0	0.0	7.84227	7.00161	-8.93653	15.16991	19.5462	1.0443	0.95758	169.71698	168.21315	63.71507	0.33184	 	4.49644E12	 	9.0436E-13	 	3985.45181	30.20023	 
555.0	1.0	0.0	7.84431	6.99978	-8.96026	15.14515	19.4695	1.04213	0.95958	170.08102	168.4113	63.85952	0.33168	 	5.67525E12	 	7.12215E-13	 	3834.72331	30.1457	 
550.0	1.0	0.0	7.84635	6.99796	-8.98392	15.12038	19.39276	1.03993	0.9616	170.44436	168.60848	64.00375	0.33152	 	7.18339E12	 	5.59289E-13	 	3684.26651	30.09136	 
545.0	1.0	0.0	7.84839	6.99615	-9.00752	15.0956	19.31597	1.03773	0.96365	170.80701	168.80468	64.14774	0.33136	 	9.11853E12	 	4.3792E-13	 	3534.08048	30.03721	 
540.0	1.0	0.0	7.85042	6.99434	-9.03105	15.0708	19.23913	1.0355	0.96571	171.16898	168.99992	64.29151	0.33119	 	1.1609E13	 	3.41872E-13	 	3384.16427	29.98324	 
535.0	1.0	0.0	7.85244	6.99253	-9.05453	15.04599	19.16224	1.03326	0.96781	171.53025	169.1942	64.43505	0.33103	 	1.48239E13	 	2.66083E-13	 	3234.51692	29.92947	 
530.0	1.0	0.0	7.85446	6.99073	-9.07793	15.02116	19.08531	1.03101	0.96992	171.89084	169.38752	64.57836	0.33087	 	1.89867E13	 	2.06459E-13	 	3085.1375	29.87588	 
525.0	1.0	0.0	7.85648	6.98894	-9.10128	14.99632	19.00833	1.02874	0.97206	172.25073	169.57989	64.72144	0.33071	 	2.43942E13	 	1.59693E-13	 	2936.02507	29.82249	 
520.0	1.0	0.0	7.85849	6.98715	-9.12456	14.97146	18.9313	1.02646	0.97422	172.60994	169.7713	64.8643	0.33055	 	3.14408E13	 	1.23126E-13	 	2787.17871	29.76927	 
515.0	1.0	0.0	7.8605	6.98537	-9.14777	14.94659	18.85422	1.02416	0.97641	172.96846	169.96177	65.00692	0.33038	 	4.06537E13	 	9.46227E-14	 	2638.59746	29.71625	 
510.0	1.0	0.0	7.86251	6.98359	-9.17092	14.9217	18.77708	1.02184	0.97863	173.32629	170.15128	65.14932	0.33022	 	5.27389E13	 	7.2477E-14	 	2490.28042	29.66341	 
505.0	1.0	0.0	7.8645	6.98181	-9.19401	14.8968	18.6999	1.01951	0.98087	173.68343	170.33986	65.29148	0.33006	 	6.8646E13	 	5.53267E-14	 	2342.22664	29.61076	 
500.0	1.0	0.0	7.8665	6.98004	-9.21703	14.87188	18.62265	1.01716	0.98313	174.03988	170.52749	65.43342	0.3299	 	8.96561E13	 	4.20892E-14	 	2194.43522	29.55828	 
495.0	1.0	0.0	7.86849	6.97828	-9.23998	14.84695	18.54536	1.01479	0.98542	174.39564	170.71419	65.57513	0.32974	 	1.17504E14	 	3.19065E-14	 	2046.90522	29.506	 
490.0	1.0	0.0	7.87047	6.97652	-9.26288	14.822	18.468	1.01241	0.98774	174.75072	170.89996	65.71661	0.32958	 	1.5455E14	 	2.41007E-14	 	1899.63575	29.45389	 
485.0	1.0	0.0	7.87245	6.97476	-9.2857	14.79704	18.39059	1.01001	0.99009	175.1051	171.08479	65.85786	0.32942	 	2.0401E14	 	1.81381E-14	 	1752.62588	29.40197	 
480.0	1.0	0.0	7.87443	6.97301	-9.30847	14.77206	18.31312	1.00759	0.99246	175.4588	171.26869	65.99888	0.32926	 	2.7029399999999997E14	 	1.35998E-14	 	1605.87471	29.35023	 
475.0	1.0	0.0	7.8764	6.97126	-9.33116	14.74707	18.23558	1.00516	0.99487	175.81181	171.45167	66.13967	0.32909	 	3.59462E14	 	1.01583E-14	 	1459.38134	29.29867	 
470.0	1.0	0.0	7.87837	6.96952	-9.3538	14.72207	18.15799	1.00271	0.9973	176.16413	171.63373	66.28024	0.32893	 	4.79885E14	 	7.55834E-15	 	1313.14486	29.2473	 
465.0	1.0	0.0	7.88033	6.96779	-9.37636	14.69705	18.08033	1.00024	0.99976	176.51576	171.81487	66.42057	0.32877	 	6.43162E14	 	5.60158E-15	 	1167.16439	29.19609	 
460.0	1.0	0.0	7.88229	6.96606	-9.39887	14.67201	18.0026	0.99775	1.00225	176.86671	171.9951	66.56067	0.32861	 	8.65444E14	 	4.13467E-15	 	1021.43903	29.14507	 
455.0	1.0	0.0	7.88424	6.96433	-9.4213	14.64696	17.92481	0.99525	1.00477	177.21696	172.17441	66.70055	0.32845	 	1.16931E15	 	3.03934E-15	 	875.96791	29.09422	 
450.0	1.0	0.0	7.88619	6.96261	-9.44368	14.6219	17.84696	0.99273	1.00733	177.56653	172.35281	66.84019	0.32829	 	1.58644E15	 	2.2248E-15	 	730.75013	29.04356	 
445.0	1.0	0.0	7.88813	6.9609	-9.46598	14.59682	17.76903	0.99019	1.00991	177.91541	172.53031	66.9796	0.32813	 	2.16155E15	 	1.62157E-15	 	585.78482	28.99306	 
440.0	1.0	0.0	7.89007	6.95919	-9.48823	14.57173	17.69103	0.98763	1.01253	178.26361	172.7069	67.11879	0.32797	 	2.95795E15	 	1.17673E-15	 	441.07111	28.94274	 
435.0	1.0	0.0	7.892	6.95748	-9.5104	14.54662	17.61296	0.98505	1.01518	178.61111	172.88259	67.25774	0.32781	 	4.06573E15	 	8.50106E-16	 	296.60814	28.89259	 
430.0	1.0	0.0	7.89393	6.95578	-9.53251	14.5215	17.53481	0.98246	1.01786	178.95793	173.05738	67.39647	0.32765	 	5.61374E15	 	6.11339E-16	 	152.39505	28.84262	 
425.0	1.0	0.0	7.89586	6.95409	-9.55456	14.49636	17.45659	0.97984	1.02057	179.30406	173.23127	67.53496	0.32749	 	7.78704E15	 	4.37586E-16	 	8.43109	28.79279	 
420.0	1.0	0.0	7.89777	6.9524	-9.57654	14.4712	17.37829	0.97721	1.02333	179.64951	173.40428	67.67322	0.32733	 	1.08528E16	 	3.11724E-16	 	-135.28477	28.74317	 
415.0	1.0	0.0	7.89969	6.95071	-9.59845	14.44604	17.29991	0.97455	1.02611	179.99426	173.57639	67.81126	0.32717	 	1.51988E16	 	2.20984E-16	 	-278.75294	28.69363	 
410.0	1.0	0.0	7.9016	6.94903	-9.6203	14.42085	17.22145	0.97188	1.02893	180.33833	173.74762	67.94906	0.32701	 	2.13902E16	 	1.55879E-16	 	-421.97372	28.64416	 
405.0	1.0	0.0	7.9035	6.94736	-9.64209	14.39566	17.1429	0.96919	1.03179	180.68171	173.91796	68.08663	0.32685	 	3.02559E16	 	1.09396E-16	 	-564.94737	28.59473	 
400.0	1.0	0.0	7.9054	6.94569	-9.66381	14.37045	17.06427	0.96647	1.03469	181.02441	174.08742	68.22398	0.32669	 	4.30173E16	 	7.63758E-17	 	-707.67415	28.54536	 
395.0	1.0	0.0	7.9073	6.94402	-9.68546	14.34522	16.98555	0.96374	1.03762	181.36642	174.256	68.36109	0.32653	 	6.1484E16	 	5.30394E-17	 	-850.15434	28.49604	 
390.0	1.0	0.0	7.90919	6.94236	-9.70704	14.31998	16.90674	0.96099	1.0406	181.70774	174.42371	68.49797	0.32637	 	8.8353E16	 	3.66334E-17	 	-992.38817	28.44677	 
385.0	1.0	0.0	7.91107	6.94071	-9.72856	14.29472	16.82784	0.95821	1.04361	182.04838	174.59055	68.63462	0.32621	 	1.27665E17	 	2.51617E-17	 	-1134.37589	28.39754	 
380.0	1.0	0.0	7.91296	6.93906	-9.75002	14.26945	16.74884	0.95542	1.04666	182.38832	174.75651	68.77104	0.32605	 	1.85512E17	 	1.71842E-17	 	-1276.11774	28.34837	 
375.0	1.0	0.0	7.91483	6.93742	-9.77141	14.24416	16.66975	0.9526	1.04975	182.72759	174.92161	68.90722	0.3259	 	2.71127E17	 	1.16678E-17	 	-1417.61395	28.29924	 
370.0	1.0	0.0	7.9167	6.93578	-9.79273	14.21886	16.59056	0.94977	1.05289	183.06616	175.08584	69.04318	0.32574	 	3.98601E17	 	7.87518E-18	 	-1558.86472	28.25015	 
365.0	1.0	0.0	7.91857	6.93414	-9.81399	14.19355	16.51126	0.94691	1.05607	183.40405	175.24921	69.17891	0.32558	 	5.89558E17	 	5.28303E-18	 	-1699.87029	28.20111	 
360.0	1.0	0.0	7.92043	6.93251	-9.83518	14.16822	16.43186	0.94403	1.05929	183.74125	175.41172	69.3144	0.32542	 	8.77402E17	 	3.52204E-18	 	-1840.63083	28.15211	 
355.0	1.0	0.0	7.92229	6.93089	-9.8563	14.14287	16.35236	0.94113	1.06255	184.07777	175.57337	69.44966	0.32526	 	1.31408E18	 	2.33308E-18	 	-1981.14656	28.10315	 
350.0	1.0	0.0	7.92414	6.92927	-9.87736	14.11752	16.27274	0.93821	1.06586	184.4136	175.73417	69.58469	0.3251	 	1.98087E18	 	1.5354E-18	 	-2121.41764	28.05422	 
345.0	1.0	0.0	7.92598	6.92766	-9.89835	14.09214	16.19301	0.93526	1.06922	184.74874	175.89412	69.7195	0.32494	 	3.00591E18	 	1.0037E-18	 	-2261.44425	28.00532	 
340.0	1.0	0.0	7.92782	6.92605	-9.91927	14.06675	16.11317	0.93229	1.07263	185.0832	176.05322	69.85406	0.32478	 	4.59251E18	 	6.51633E-19	 	-2401.22655	27.95646	 
335.0	1.0	0.0	7.92966	6.92444	-9.94013	14.04135	16.03321	0.9293	1.07608	185.41697	176.21147	69.9884	0.32463	 	7.06563E18	 	4.20094E-19	 	-2540.76469	27.90763	 
330.0	1.0	0.0	7.93149	6.92284	-9.96092	14.01593	15.95313	0.92629	1.07958	185.75006	176.36888	70.12251	0.32447	 	1.09485E19	 	2.6888E-19	 	-2680.05881	27.85882	 
325.0	1.0	0.0	7.93332	6.92125	-9.98165	13.9905	15.87292	0.92325	1.08313	186.08246	176.52545	70.25638	0.32431	 	1.70898E19	 	1.70829E-19	 	-2819.10903	27.81004	 
320.0	1.0	0.0	7.93514	6.91966	-10.0023	13.96505	15.79258	0.92019	1.08673	186.41418	176.68118	70.39002	0.32415	 	2.68769E19	 	1.07714E-19	 	-2957.91546	27.76129	 
315.0	1.0	0.0	7.93695	6.91808	-10.0229	13.93959	15.71211	0.91711	1.09039	186.7452	176.83607	70.52343	0.32399	 	4.25956E19	 	6.73922E-20	 	-3096.47821	27.71255	 
310.0	1.0	0.0	7.93876	6.9165	-10.04342	13.91411	15.63151	0.914	1.09409	187.07555	176.99013	70.65661	0.32384	 	6.80426E19	 	4.18298E-20	 	-3234.79736	27.66383	 
305.0	1.0	0.0	7.94057	6.91493	-10.06388	13.88862	15.55076	0.91087	1.09786	187.40521	177.14336	70.78955	0.32368	 	1.0957599999999998E20	 	2.57521E-20	 	-3372.87299	27.61513	 
300.0	1.0	0.0	7.94237	6.91336	-10.08427	13.86311	15.46987	0.90771	1.10167	187.73418	177.29576	70.92227	0.32352	 	1.77934E20	 	1.57216E-20	 	-3510.70514	27.56643	 
295.0	1.0	0.0	7.94417	6.9118	-10.10459	13.83759	15.38884	0.90453	1.10555	188.06246	177.44734	71.05475	0.32336	 	2.9141299999999997E20	 	9.51569E-21	 	-3648.29386	27.51774	 
290.0	1.0	0.0	7.94596	6.91024	-10.12485	13.81205	15.30766	0.90133	1.10948	188.39007	177.59809	71.187	0.32321	 	4.8146399999999993E20	 	5.70882E-21	 	-3785.63918	27.46906	 
285.0	1.0	0.0	7.94774	6.90869	-10.14504	13.7865	15.22631	0.89809	1.11347	188.71698	177.74802	71.31901	0.32305	 	8.02649E20	 	3.394E-21	 	-3922.7411	27.42038	 
280.0	1.0	0.0	7.94952	6.90714	-10.16516	13.76093	15.14481	0.89484	1.11752	189.04321	177.89713	71.45079	0.32289	 	1.35052E21	 	1.99908E-21	 	-4059.59962	27.3717	 
275.0	1.0	0.0	7.9513	6.9056	-10.18522	13.73535	15.06315	0.89156	1.12163	189.36876	178.04543	71.58235	0.32273	 	2.2940200000000001E21	 	1.16625E-21	 	-4196.2147	27.32302	 
270.0	1.0	0.0	7.95307	6.90406	-10.20521	13.70976	14.98131	0.88825	1.12581	189.69362	178.19292	71.71366	0.32258	 	3.93486E21	 	6.73717E-22	 	-4332.58629	27.27432	 
265.0	1.0	0.0	7.95483	6.90253	-10.22513	13.68415	14.89931	0.88492	1.13005	190.01779	178.33959	71.84475	0.32242	 	6.81737E21	 	3.85277E-22	 	-4468.71434	27.22561	 
260.0	1.0	0.0	7.95659	6.901	-10.24498	13.65852	14.81712	0.88156	1.13435	190.34128	178.48545	71.9756	0.32226	 	1.19339E22	 	2.1805E-22	 	-4604.59874	27.17688	 
255.0	1.0	0.0	7.95835	6.89948	-10.26477	13.63288	14.73474	0.87817	1.13873	190.66409	178.63051	72.10622	0.32211	 	2.1113E22	 	1.22094E-22	 	-4740.23938	27.12813	 
250.0	1.0	0.0	7.9601	6.89797	-10.28449	13.60723	14.65218	0.87476	1.14317	190.98621	178.77477	72.2366	0.32195	 	3.7761899999999996E22	 	6.76175E-23	 	-4875.63614	27.07935	 
245.0	1.0	0.0	7.96184	6.89646	-10.30414	13.58156	14.56942	0.87132	1.14768	191.30764	178.91822	72.36676	0.32179	 	6.830169999999999E22	 	3.70263E-23	 	-5010.78884	27.03054	 
240.0	1.0	0.0	7.96358	6.89495	-10.32372	13.55588	14.48646	0.86786	1.15226	191.62839	179.06088	72.49668	0.32164	 	1.24975E23	 	2.00404E-23	 	-5145.69731	26.98169	 
235.0	1.0	0.0	7.96531	6.89345	-10.34324	13.53018	14.40329	0.86436	1.15692	191.94846	179.20274	72.62636	0.32148	 	2.3141E23	 	1.07176E-23	 	-5280.36133	26.9328	 
230.0	1.0	0.0	7.96704	6.89195	-10.36269	13.50446	14.3199	0.86084	1.16165	192.26784	179.3438	72.75581	0.32132	 	4.33767E23	 	5.66145E-24	 	-5414.78065	26.88386	 
225.0	1.0	0.0	7.96876	6.89046	-10.38207	13.47873	14.2363	0.85729	1.16646	192.58653	179.48408	72.88503	0.32117	 	8.23396E23	 	2.95283E-24	 	-5548.95502	26.83487	 
220.0	1.0	0.0	7.97048	6.88898	-10.40138	13.45299	14.15246	0.85372	1.17135	192.90455	179.62356	73.01402	0.32101	 	1.58345E24	 	1.52006E-24	 	-5682.88411	26.78582	 
215.0	1.0	0.0	7.97219	6.8875	-10.42062	13.42723	14.06839	0.85011	1.17632	193.22187	179.76226	73.14277	0.32085	 	3.08617E24	 	7.72004E-25	 	-5816.56761	26.7367	 
210.0	1.0	0.0	7.9739	6.88603	-10.4398	13.40146	13.98407	0.84648	1.18137	193.53852	179.90017	73.27129	0.3207	 	6.09865E24	 	3.86665E-25	 	-5950.00514	26.68751	 
205.0	1.0	0.0	7.9756	6.88456	-10.45891	13.37567	13.8995	0.84281	1.1865	193.85447	180.0373	73.39957	0.32054	 	1.2224600000000001E25	 	1.90905E-25	 	-6083.19629	26.63823	 
200.0	1.0	0.0	7.9773	6.88309	-10.47795	13.34987	13.81467	0.83912	1.19172	194.16975	180.17365	73.52762	0.32039	 	2.48665E25	 	9.28689E-26	 	-6216.14062	26.58887	 
195.0	1.0	0.0	7.97899	6.88163	-10.49692	13.32406	13.72958	0.8354	1.19703	194.48434	180.30922	73.65543	0.32023	 	5.1355300000000004E25	 	4.44925E-26	 	-6348.83764	26.5394	 
190.0	1.0	0.0	7.98067	6.88018	-10.51582	13.29822	13.6442	0.83165	1.20243	194.79824	180.44401	73.78302	0.32008	 	1.0773500000000002E26	 	2.09823E-26	 	-6481.28683	26.48984	 
185.0	1.0	0.0	7.98235	6.87873	-10.53466	13.27238	13.55854	0.82787	1.20792	195.11146	180.57804	73.91036	0.31992	 	2.2969400000000002E26	 	9.73521E-27	 	-6613.48761	26.44016	 
180.0	1.0	0.0	7.98403	6.87729	-10.55343	13.24652	13.47258	0.82406	1.21351	195.424	180.71129	74.03747	0.31976	 	4.979640000000001E26	 	4.44151E-27	 	-6745.43936	26.39035	 
175.0	1.0	0.0	7.9857	6.87585	-10.57213	13.22064	13.38631	0.82022	1.21919	195.73585	180.84377	74.16435	0.31961	 	1.0983599999999999E27	 	1.99143E-27	 	-6877.14142	26.34041	 
170.0	1.0	0.0	7.98736	6.87442	-10.59076	13.19475	13.29972	0.81635	1.22497	196.04702	180.97549	74.291	0.31945	 	2.4662999999999998E27	 	8.76983E-28	 	-7008.59305	26.29033	 
165.0	1.0	0.0	7.98902	6.87299	-10.60932	13.16885	13.2128	0.81245	1.23085	196.3575	181.10644	74.4174	0.3193	 	5.64111E27	 	3.79093E-28	 	-7139.79349	26.24009	 
160.0	1.0	0.0	7.99068	6.87157	-10.62781	13.14293	13.12554	0.80851	1.23684	196.6673	181.23663	74.54358	0.31914	 	1.31516E28	 	1.60749E-28	 	-7270.7419	26.18968	 
155.0	1.0	0.0	7.99232	6.87015	-10.64624	13.11699	13.03792	0.80455	1.24293	196.97642	181.36606	74.66952	0.31899	 	3.12736E28	 	6.68198E-29	 	-7401.43737	26.13909	 
150.0	1.0	0.0	7.99397	6.86874	-10.6646	13.09104	12.94994	0.80056	1.24913	197.28485	181.49473	74.79522	0.31883	 	7.59045E28	 	2.72091E-29	 	-7531.87893	26.08831	 
145.0	1.0	0.0	7.9956	6.86734	-10.68288	13.06508	12.86157	0.79653	1.25544	197.5926	181.62264	74.92069	0.31868	 	1.88177E29	 	1.08456E-29	 	-7662.06556	26.03733	 
140.0	1.0	0.0	7.99723	6.86593	-10.7011	13.0391	12.77281	0.79248	1.26186	197.89966	181.74981	75.04592	0.31852	 	4.76881E29	 	4.22848E-30	 	-7791.99614	25.98612	 
135.0	1.0	0.0	7.99886	6.86454	-10.71925	13.0131	12.68364	0.78839	1.2684	198.20604	181.87622	75.17092	0.31837	 	1.2363699999999999E30	 	1.61123E-30	 	-7921.66948	25.93467	 
130.0	1.0	0.0	8.00048	6.86315	-10.73733	12.98709	12.59404	0.78427	1.27506	198.51174	182.00188	75.29569	0.31821	 	3.28207E30	 	5.99522E-31	 	-8051.08431	25.88297	 
125.0	1.0	0.0	8.00209	6.86176	-10.75535	12.96107	12.50399	0.78012	1.28185	198.81675	182.1268	75.42021	0.31806	 	8.92889E30	 	2.17639E-31	 	-8180.23926	25.83099	 
120.0	1.0	0.0	8.0037	6.86038	-10.77329	12.93503	12.41348	0.77594	1.28875	199.12108	182.25097	75.54451	0.31791	 	2.49174E31	 	7.70092E-32	 	-8309.13288	25.77872	 
115.0	1.0	0.0	8.00531	6.85901	-10.79116	12.90898	12.3225	0.77173	1.29579	199.42473	182.37439	75.66856	0.31775	 	7.13987E31	 	2.65336E-32	 	-8437.76361	25.72615	 
110.0	1.0	0.0	8.0069	6.85764	-10.80897	12.88291	12.23101	0.76749	1.30295	199.72769	182.49708	75.79238	0.3176	 	2.1028599999999997E32	 	8.89293E-33	 	-8566.12979	25.67324	 
105.0	1.0	0.0	8.0085	6.85628	-10.8267	12.85683	12.139	0.76322	1.31025	200.02997	182.61903	75.91597	0.31744	 	6.37289E32	 	2.8961E-33	 	-8694.22962	25.61997	 
100.0	1.0	0.0	8.01008	6.85492	-10.84437	12.83073	12.04645	0.75891	1.31768	200.33156	182.74024	76.03932	0.31729	 	1.9896100000000002E33	 	9.15384E-34	 	-8822.06122	25.56632	 
95.0	1.0	0.0	8.01167	6.85357	-10.86197	12.80462	11.95333	0.75457	1.32525	200.63247	182.86072	76.16243	0.31714	 	6.4066E33	 	2.80469E-34	 	-8949.62255	25.51227	 
90.0	1.0	0.0	8.01324	6.85222	-10.87949	12.7785	11.85962	0.75021	1.33297	200.9327	182.98046	76.28531	0.31698	 	2.13046E34	 	8.31956E-35	 	-9076.91143	25.45778	 
85.0	1.0	0.0	8.01481	6.85088	-10.89695	12.75235	11.7653	0.74581	1.34082	201.23224	183.09948	76.40795	0.31683	 	7.326360000000001E34	 	2.38596E-35	 	-9203.92555	25.40282	 
80.0	1.0	0.0	8.01638	6.84954	-10.91434	12.7262	11.67033	0.74138	1.34883	201.5311	183.21776	76.53035	0.31667	 	2.60912E35	 	6.60621E-36	 	-9330.66241	25.34737	 
75.0	1.0	0.0	8.01793	6.84821	-10.93166	12.70003	11.57469	0.73692	1.35699	201.82928	183.33533	76.65252	0.31652	 	9.637029999999999E35	 	1.76323E-36	 	-9457.11938	25.29139	 
70.0	1.0	0.0	8.01949	6.84688	-10.94891	12.67384	11.47835	0.73244	1.3653	202.12677	183.45216	76.77445	0.31637	 	3.69767E36	 	4.52941E-37	 	-9583.29361	25.23485	 
65.0	1.0	0.0	8.02103	6.84556	-10.96609	12.64764	11.38127	0.72792	1.37377	202.42359	183.56828	76.89615	0.31621	 	1.47633E37	 	1.11792E-37	 	-9709.18207	25.17769	 
60.0	1.0	0.0	8.02258	6.84424	-10.9832	12.62142	11.28342	0.72338	1.3824	202.71971	183.68367	77.01761	0.31606	 	6.14452E37	 	2.6463E-38	 	-9834.78152	25.11989	 
55.0	1.0	0.0	8.02411	6.84293	-11.00024	12.5952	11.18476	0.71881	1.3912	203.01516	183.79835	77.13883	0.31591	 	2.67094E38	 	5.99647E-39	 	-9960.08847	25.06139	 
50.0	1.0	0.0	8.02564	6.84163	-11.01721	12.56895	11.08526	0.71421	1.40015	203.30992	183.91231	77.25981	0.31575	 	1.21503E39	 	1.29808E-39	 	-10085.09921	25.00215	 
45.0	1.0	0.0	8.02717	6.84033	-11.03411	12.54269	10.98486	0.70958	1.40928	203.60399	184.02555	77.38056	0.3156	 	5.796850000000001E39	 	2.67871E-40	 	-10209.80976	24.94211	 
40.0	1.0	0.0	8.02869	6.83904	-11.05094	12.51642	10.88354	0.70493	1.41857	203.89739	184.13809	77.50107	0.31545	 	2.90714E40	 	5.25742E-41	 	-10334.21584	24.88122	 
35.0	1.0	0.0	8.0302	6.83775	-11.0677	12.49013	10.78123	0.70026	1.42804	204.1901	184.24991	77.62135	0.3153	 	1.5362600000000001E41	 	9.79E-42	 	-10458.31287	24.81941	 
30.0	1.0	0.0	8.03171	6.83646	-11.08439	12.46383	10.67789	0.69557	1.43768	204.48213	184.36102	77.74138	0.31514	 	8.5766E41	 	1.72516E-42	 	-10582.09593	24.75661	 
25.0	1.0	0.0	8.03321	6.83519	-11.10101	 	10.57346	0.69085	1.44749	204.77347	184.47143	77.86118	0.31499	 	5.0724E42	 	2.86885E-43	 	-10705.55975	 	 
