T (C)	Fraction solid (wt)-TOTAL	Fraction liquid (wt)-LIQUID	Density (g/(cm)^3)-TOTAL	Molar volume (cm^3)-TOTAL	Volume change (%)-  	Average expansion coeff. (10e-6 1/K)-  	Thermal conductivity (W/(m*K))-TOTAL	Electrical resistivity (10e-6 Ohm*m)-TOTAL	Electrical conductivity (10e6 1/(Ohm*m))-TOTAL	Young's modulus (GPa)-TOTAL	Bulk modulus (GPa)-TOTAL	Shear modulus(GPa)-TOTAL	Poisson's ratio-TOTAL	Liquid viscosity (mPa s)-  	Total viscosity (mPa s)-  	Liquid diffusivity (10e-9 (m^2)/s)-  	Total diffusivity (10e-9 (m^2)/s)-  	Surface Tension (mN/m)-  	Enthalpy (J/mole)-TOTAL	Specific heat (J/(mole K))-TOTAL	Latent heat (J/mole)-TOTAL
1400.0	0.00375	0.99625	7.02933	7.9857	0.0	34.39574	29.65154	1.38246	0.72335	1.58511E-7	120.67647	5.28767E-8	0.49888	6.61522	6.61522	1.23446	1.23446	1764.26379	41057.625	 	0.0
1395.0	0.00393	0.99607	7.03363	7.98083	-0.0609989	34.3518	29.56987	1.38214	0.72352	1.92903E-7	120.87179	6.43515E-8	0.49882	6.68952	6.68952	1.2171	1.2171	1767.76861	40844.465	42.632	13.072
1390.0	0.00412	0.99588	7.0379	7.97601	-0.12144	34.30909	29.48796	1.38182	0.72368	2.32171E-7	121.06666	7.74538E-8	0.49877	6.76506	6.76506	1.1999	1.1999	1771.31169	40631.912	42.5106	25.975
1385.0	0.0043	0.9957	7.0421	7.97125	-0.18093	34.26872	29.40632	1.38149	0.72385	2.76623E-7	121.26065	9.22867E-8	0.49872	6.84178	6.84178	1.18288	1.18288	1774.89214	40419.963	42.3898	38.711
1380.0	0.00448	0.99552	7.04636	7.96644	-0.24125	34.22574	29.32471	1.38116	0.72403	3.26645E-7	121.45408	1.08979E-7	0.49866	6.91989	6.91989	1.166	1.166	1778.5118	40208.614	42.2698	51.28
1375.0	0.00466	0.99534	7.0506	7.96164	-0.30135	34.18305	29.24317	1.38082	0.72421	3.82524E-7	121.64692	1.27626E-7	0.49861	6.99929	6.99929	1.14929	1.14929	1782.16892	39997.863	42.1502	63.686
1370.0	0.00484	0.99516	7.05483	7.95688	-0.36094	34.14149	29.16173	1.38048	0.72439	4.44603E-7	121.83964	1.48344E-7	0.49855	7.08004	7.08004	1.13273	1.13273	1785.86262	39787.706	42.0314	75.928
1365.0	0.00501	0.99499	7.05905	7.9521	-0.42079	34.09888	29.08018	1.38014	0.72456	5.13127E-7	122.03083	1.71214E-7	0.4985	7.16219	7.16219	1.11633	1.11633	1789.59341	39578.139	41.9134	88.007
1360.0	0.00518	0.99482	7.06325	7.94736	-0.48021	34.05717	28.9987	1.37979	0.72475	5.8841E-7	122.22177	1.9634E-7	0.49845	7.24575	7.24575	1.10009	1.10009	1793.3599	39369.159	41.796	99.922
1355.0	0.00535	0.99465	7.06744	7.94263	-0.53934	34.016	28.91731	1.37944	0.72493	6.70762E-7	122.41225	2.23827E-7	0.49839	7.33072	7.33072	1.08401	1.08401	1797.16166	39160.762	41.6794	111.676
1350.0	0.00552	0.99448	7.07162	7.93796	-0.59791	33.97609	28.83598	1.37908	0.72512	7.60404E-7	122.60268	2.53748E-7	0.49834	7.41721	7.41721	1.06808	1.06808	1800.99782	38952.945	41.5634	123.27
1345.0	0.00569	0.99431	7.0758	7.9333	-0.65625	33.93658	28.75472	1.37872	0.72531	8.5755E-7	122.79259	2.86175E-7	0.4983	7.5052	7.5052	1.05231	1.05231	1804.86818	38745.705	41.448	134.704
1340.0	0.00585	0.99415	7.07996	7.9286	-0.71504	33.89544	28.6737	1.37834	0.72551	9.62526E-7	122.98106	3.21218E-7	0.49824	7.59469	7.59469	1.0367	1.0367	1808.7731	38539.038	41.3334	145.98
1335.9	0.00599	0.99401	7.08338	7.92481	-0.76254	33.86348	28.60705	1.37804	0.72567	1.05446E-6	123.13619	3.51908E-7	0.49821	7.66928	7.66928	1.02401	1.02401	1811.99716	38370.097	41.22976	155.1
1335.0	0.0527802	0.94722	7.09818	7.90832	-0.969	33.28691	28.74082	1.37086	0.72947	4.2305E-4	123.51799	1.41734E-4	0.49241	7.68759	8.40503	1.02099	0.93384	1812.01781	37665.405	780.86542	824.625
1330.0	0.27925	0.72075	7.171	7.82792	-1.97581	30.4779	29.41602	1.33523	0.74893	0.52483	127.441	0.17926	0.46385	7.79043	108.53025	1.00438	0.0720958	1811.81824	34253.878	682.3054	4041.582
1325.0	0.43639	0.56361	7.22299	7.77161	-2.68094	28.53058	29.9004	1.3095	0.76365	3.38169	130.19247	1.1713	0.44357	7.89416	615.30214	0.98809	0.012677	1814.50501	31853.2444	480.12672	6247.028
1320.0	0.54944	0.45056	7.26003	7.73133	-3.18539	27.15806	30.24657	1.29047	0.77491	8.88303	132.16315	3.10883	0.42868	7.99892	1592.39389	0.9721	0.00488307	1817.21037	30094.49152	351.75058	7810.504
1315.0	0.63324	0.36676	7.28798	7.70109	-3.56399	26.1462	30.50143	1.27567	0.7839	16.15467	133.66415	5.69848	0.41746	8.10505	2932.90455	0.95636	0.0026429	1819.93198	28758.99785	267.09873	8951.156
1310.0	0.69692	0.30308	7.30977	7.67766	-3.85749	25.37858	30.68753	1.26394	0.79118	24.23645	134.8552	8.60184	0.40879	8.21283	4515.92639	0.94084	0.00171105	1822.66897	27711.57039	209.48549	9804.173
1305.0	0.74632	0.25368	7.32724	7.65899	-4.09129	24.78247	30.82185	1.25446	0.79716	32.43757	135.83513	11.56854	0.40197	8.32235	6253.80481	0.92553	0.00123166	1825.41846	26865.86062	169.14195	10455.907
1300.0	0.78536	0.21464	7.34164	7.64367	-4.28313	24.30694	30.91667	1.24665	0.80215	40.34386	136.66591	14.44463	0.3965	8.43401	8092.60786	0.91038	9.48786E-4	1828.18525	26164.98504	140.17512	10963.23
1295.0	0.8167	0.1833	7.35381	7.63085	-4.4436	23.92172	30.98097	1.24011	0.80638	47.74467	137.39055	17.14919	0.39204	8.54812	10005.08779	0.89537	7.64986E-4	1830.9646	25570.43616	118.90978	11364.652
1290.0	0.8422	0.1578	7.36427	7.61991	-4.58062	23.60398	31.02129	1.23454	0.81002	54.5529	138.03606	19.64669	0.38835	8.66471	11979.74101	0.88051	6.36854E-4	1833.756	25055.4975	102.98773	11686.885
1285.0	0.87037	0.12963	7.37603	7.60782	-4.73197	23.24044	31.06677	1.22879	0.81381	62.9012	138.76285	22.72041	0.38424	8.7696	14476.64152	0.86719	5.25325E-4	1836.40804	24493.10557	112.47839	12056.991
1280.0	0.8978	0.1022	7.38802	7.59567	-4.88417	22.87144	31.10939	1.22317	0.81755	71.97563	139.50088	26.07435	0.3802	8.86262	17379.63419	0.85534	4.36174E-4	1838.94502	23936.99287	111.22254	12421.234
1275.0	0.91838	0.0816207	7.39788	7.58576	-5.00823	22.58516	31.12526	1.21861	0.8206	79.51098	140.13185	28.86906	0.3771	8.9552	20208.82046	0.84377	3.73903E-4	1841.48167	23477.38594	91.92139	12689.384
1270.0	0.9342	0.0658022	7.40626	7.57739	-5.11309	22.35527	31.12179	1.21481	0.82317	85.79921	140.68964	31.2077	0.37465	9.04757	23007.75289	0.83246	3.27356E-4	1844.02133	23084.00328	78.67653	12891.72
1265.0	0.94661	0.053387	7.41358	7.57012	-5.20408	22.16611	31.10395	1.21157	0.82537	91.08669	141.19581	33.17865	0.37267	9.13997	25817.10763	0.82137	2.90789E-4	1846.5603	22737.53141	69.29437	13047.555
1260.0	0.95653	0.0434698	7.4201	7.56367	-5.28485	22.00692	31.07516	1.20875	0.8273	95.57344	141.66417	34.85438	0.37104	9.23231	28673.49464	0.81051	2.6097E-4	1849.0974	22425.20188	62.46591	13169.652
1255.0	0.96457	0.0354265	7.42604	7.55783	-5.35797	21.87012	31.03788	1.20626	0.82901	99.41869	142.10415	36.29297	0.36967	9.32484	31609.98626	0.79986	2.35955E-4	1851.63308	22138.3102	57.37834	13266.715
1250.0	0.97119	0.0288138	7.43151	7.55246	-5.42523	21.75039	30.99386	1.20402	0.83055	102.74653	142.52224	37.53988	0.3685	9.41759	34656.49763	0.78939	2.14509E-4	1854.16885	21870.76291	53.50946	13344.834
1245.0	0.97669	0.0233146	7.43662	7.54747	-5.48778	21.64439	30.94446	1.20198	0.83196	105.65405	142.92309	38.63081	0.36748	9.51067	37840.95122	0.77909	1.95812E-4	1856.69776	21618.19754	50.51307	13408.369
1240.0	0.98131	0.0186936	7.44144	7.54277	-5.54663	21.54908	30.89064	1.20011	0.83326	108.21818	143.31008	39.59414	0.36659	9.60423	41189.93854	0.76896	1.79299E-4	1859.22195	21377.42062	48.15538	13460.509
1235.0	0.98523	0.0147744	7.44602	7.53831	-5.60249	21.46241	30.8333	1.19837	0.83447	110.49915	143.68549	40.45213	0.3658	9.69833	44729.34714	0.75899	1.64565E-4	1861.74289	21146.0567	46.27278	13503.629
1230.0	0.98858	0.0114228	7.4504	7.53404	-5.65588	21.38282	30.77251	1.19676	0.83559	112.54544	144.05143	41.22274	0.36509	9.79293	48485.35254	0.74916	1.51314E-4	1864.25693	20922.30932	44.74948	13539.522
1225.0	0.99147	0.00853414	7.45462	7.52994	-5.70721	21.3091	30.70906	1.19524	0.83665	114.39476	144.40912	41.91994	0.36444	9.88834	52484.07541	0.73947	1.3932E-4	1866.76602	20704.80103	43.50166	13569.565
1220.0	0.99397	0.00602938	7.45871	7.52598	-5.7568	21.24031	30.64333	1.19381	0.83766	116.07853	144.75967	42.55542	0.36385	9.9846	56753.10037	0.72989	1.28411E-4	1869.27004	20492.45937	42.46833	13594.825
1215.0	0.99619	0.00381186	7.46276	7.52214	-5.80487	21.1758	30.57563	1.19244	0.83862	117.63217	145.10589	43.14239	0.3633	10.0657	61324.88505	0.72159	1.1844E-4	1871.77471	20283.65092	41.76169	13616.933
1210.0	0.99823	0.00177278	7.46693	7.51839	-5.85192	21.11404	30.50691	1.19111	0.83955	119.10469	145.45091	43.69922	0.36278	10.12015	66244.33422	0.71529	1.09276E-4	1874.29588	20076.74221	41.38174	13637.523
1205.0	1.0	0.0	7.47098	7.51474	-5.89762	21.05609	30.43842	1.18977	0.8405	120.4587	145.79004	44.21178	0.36229	 	71520.52247	 	1.00873E-4	 	19873.5728	40.63388	13654.751
1202.55	1.0	0.0	7.47219	7.51352	-5.9129	21.05057	30.39854	1.18935	0.84079	120.6692	145.92924	44.29258	0.36218	 	74018.88292	 	9.73064E-5	 	19772.66639	 	 
1200.0	1.0	0.0	7.47344	7.51226	-5.92866	21.04515	30.35716	1.18892	0.8411	120.88778	146.07394	44.37649	0.36207	 	76715.29437	 	9.37242E-5	 	19682.21062	38.27244	 
1195.0	1.0	0.0	7.4759	7.50979	-5.95955	21.03458	30.27591	1.18806	0.84171	121.31623	146.35669	44.54101	0.36185	 	82328.03059	 	8.70381E-5	 	19504.81639	35.47885	 
1190.0	1.0	0.0	7.47835	7.50733	-5.99039	21.02408	30.19465	1.1872	0.84232	121.74373	146.63764	44.70523	0.36163	 	88393.51379	 	8.07895E-5	 	19327.70795	35.42169	 
1185.0	1.0	0.0	7.4808	7.50487	-6.02119	21.01365	30.11339	1.18634	0.84293	122.17029	146.91682	44.86914	0.36141	 	94951.57497	 	7.49526E-5	 	19150.88342	35.36491	 
1180.0	1.0	0.0	7.48325	7.50241	-6.05194	21.00329	30.03213	1.18547	0.84355	122.59591	147.19424	45.03276	0.36119	 	102045.8333	 	6.95027E-5	 	18974.34118	35.30845	 
1175.0	1.0	0.0	7.4857	7.49996	-6.08264	20.993	29.95086	1.1846	0.84417	123.02059	147.46991	45.19608	0.36097	 	109724.0916	 	6.44167E-5	 	18798.0796	35.25232	 
1170.0	1.0	0.0	7.48814	7.49751	-6.11329	20.98278	29.86959	1.18372	0.8448	123.44433	147.74384	45.35909	0.36075	 	118038.7489	 	5.96724E-5	 	18622.09707	35.1965	 
1165.0	1.0	0.0	7.49058	7.49507	-6.14389	20.97265	29.78831	1.18284	0.84543	123.86713	148.01604	45.52181	0.36053	 	127047.2959	 	5.52491E-5	 	18446.39202	35.14101	 
1160.0	1.0	0.0	7.49302	7.49263	-6.17444	20.96259	29.70703	1.18195	0.84606	124.289	148.28653	45.68423	0.36031	 	136812.8246	 	5.11271E-5	 	18270.9629	35.08582	 
1159.75	1.0	0.0	7.49314	7.49251	-6.17597	20.96209	29.70293	1.1819	0.84609	124.31024	148.30011	45.69241	0.36029	 	137326.3777	 	5.0927E-5	 	18262.12493	 	 
1155.0	1.0	0.0	7.49864	7.48702	-6.2447	20.81866	29.4064	1.18987	0.84043	125.39919	148.56871	46.12553	0.35933	 	148984.4134	 	4.67864E-5	 	17928.86191	68.4202	 
1150.0	1.0	0.0	7.5043	7.48138	-6.31539	20.67203	29.10642	1.19792	0.83478	126.49405	148.82692	46.56189	0.35834	 	162452.2537	 	4.27574E-5	 	17585.18078	68.73623	 
1145.0	1.0	0.0	7.50983	7.47586	-6.38442	20.5297	28.81835	1.20564	0.82943	127.53995	149.06348	46.97955	0.3574	 	177272.0925	 	3.90453E-5	 	17248.61282	67.31359	 
1140.0	1.0	0.0	7.51524	7.47048	-6.45188	20.39148	28.54155	1.21304	0.82437	128.54072	149.28146	47.37992	0.35649	 	193591.6707	 	3.56277E-5	 	16918.82265	65.95803	 
1135.0	1.0	0.0	7.52055	7.46521	-6.51784	20.25716	28.2754	1.22013	0.81958	129.49976	149.4834	47.76424	0.35561	 	211576.0653	 	3.2484E-5	 	16595.49297	64.66594	 
1130.0	1.0	0.0	7.52574	7.46006	-6.58237	20.12656	28.01932	1.22691	0.81506	130.42009	149.67146	48.13364	0.35477	 	231409.8552	 	2.95944E-5	 	16278.32389	63.43382	 
1128.35	1.0	0.0	7.52743	7.45838	-6.60332	20.08432	27.93707	1.22908	0.81362	130.71525	149.73067	48.25223	0.3545	 	238382.7553	 	2.8695E-5	 	16175.14155	 	 
1125.43	1.0	0.0	7.53185	7.454	-6.65816	19.94799	27.76637	1.23405	0.81034	131.38473	149.70459	48.52697	0.35373	 	251668.3144	 	2.71235E-5	 	15934.61712	 	 
1125.0	1.0	0.0	7.53229	7.45357	-6.66354	19.93715	27.74565	1.2346	0.80998	131.45963	149.71945	48.5571	0.35366	 	253643.5904	 	2.6904E-5	 	15907.9777	74.06924	 
1120.0	1.0	0.0	7.53729	7.44863	-6.72549	19.81285	27.50943	1.24074	0.80597	132.31269	149.88705	48.90056	0.35288	 	277906.5844	 	2.44673E-5	 	15601.26614	61.34231	 
1115.0	1.0	0.0	7.54219	7.44378	-6.78615	19.69191	27.28174	1.24661	0.80218	133.13406	150.04565	49.23166	0.35212	 	304725.7658	 	2.22338E-5	 	15300.12013	60.2292	 
1110.0	1.0	0.0	7.54701	7.43904	-6.84559	19.57415	27.0621	1.2522	0.79859	133.9258	150.19632	49.5512	0.35139	 	334392.9909	 	2.01883E-5	 	15004.26863	59.1703	 
1105.0	1.0	0.0	7.55173	7.43438	-6.90386	19.45942	26.85006	1.25753	0.79521	134.68982	150.33998	49.85989	0.35068	 	367235.8544	 	1.83163E-5	 	14713.45663	58.1624	 
1100.0	1.0	0.0	7.55637	7.42982	-6.96101	19.34756	26.64519	1.2626	0.79202	135.42784	150.47743	50.15838	0.35	 	403622.2839	 	1.66046E-5	 	14427.44417	57.20249	 
1095.0	1.0	0.0	7.56093	7.42534	-7.0171	19.23843	26.4471	1.26742	0.789	136.14147	150.60938	50.44729	0.34934	 	443965.8602	 	1.50408E-5	 	14146.00518	56.2878	 
1090.0	1.0	0.0	7.56541	7.42094	-7.07218	19.13189	26.25541	1.27201	0.78616	136.83219	150.73646	50.72717	0.34871	 	488731.8534	 	1.36132E-5	 	13868.92629	55.41578	 
1085.0	1.0	0.0	7.56982	7.41662	-7.1263	19.02782	26.06978	1.27637	0.78347	137.50138	150.85921	50.99856	0.34809	 	538444.0519	 	1.2311E-5	 	13596.00593	54.58407	 
1080.0	1.0	0.0	7.57416	7.41237	-7.17949	18.92609	25.88986	1.28051	0.78094	138.15033	150.97813	51.26194	0.34749	 	593692.709	 	1.11243E-5	 	13327.05409	53.79037	 
1075.0	1.0	0.0	7.57843	7.40819	-7.2318	18.82659	25.71535	1.28443	0.77855	138.78021	151.09367	51.51777	0.34692	 	655143.3932	 	1.00436E-5	 	13061.89103	53.03261	 
1070.0	1.0	0.0	7.58263	7.40408	-7.28327	18.72921	25.54595	1.28816	0.7763	139.39216	151.20622	51.76648	0.34636	 	723547.3301	 	9.06034E-6	 	12800.34679	52.30885	 
1065.0	1.0	0.0	7.58678	7.40004	-7.33393	18.63383	25.3814	1.29168	0.77418	139.98722	151.31615	52.00848	0.34581	 	799753.0029	 	8.16649E-6	 	12542.25994	51.61737	 
1060.0	1.0	0.0	7.59087	7.39605	-7.38382	18.54037	25.22142	1.29502	0.77219	140.56637	151.42379	52.24414	0.34528	 	884719.6651	 	7.35462E-6	 	12287.47737	50.95651	 
1055.0	1.0	0.0	7.5949	7.39213	-7.43297	18.44874	25.06579	1.29817	0.77031	141.13054	151.52944	52.47382	0.34477	 	979532.6543	 	6.61782E-6	 	12035.85454	50.32457	 
1050.0	1.0	0.0	7.59887	7.38826	-7.48142	18.35883	24.91428	1.30115	0.76855	141.68058	151.63337	52.69785	0.34427	 	1085421.099	 	5.94973E-6	 	11787.25382	49.72014	 
1045.0	1.0	0.0	7.6028	7.38445	-7.52919	18.27057	24.76667	1.30396	0.7669	142.21732	151.73584	52.91656	0.34379	 	1203778.134	 	5.34448E-6	 	11541.54491	49.14178	 
1040.0	1.0	0.0	7.60667	7.38068	-7.57631	18.18388	24.62275	1.3066	0.76534	142.74152	151.83708	53.13023	0.34332	 	1336184.199	 	4.79661E-6	 	11298.60407	48.58817	 
1035.0	1.0	0.0	7.6105	7.37697	-7.6228	18.09868	24.48235	1.30909	0.76389	143.25391	151.93731	53.33917	0.34286	 	1484433.748	 	4.30114E-6	 	11058.3136	48.05809	 
1030.0	1.0	0.0	7.61429	7.3733	-7.6687	18.01489	24.34529	1.31143	0.76253	143.75518	152.03672	53.54362	0.34241	 	1650566.25	 	3.85344E-6	 	10820.56206	47.55031	 
1025.0	1.0	0.0	7.61803	7.36968	-7.71402	17.93245	24.2114	1.31362	0.76125	144.24597	152.13551	53.74385	0.34198	 	1836901.565	 	3.44926E-6	 	10585.24309	47.06379	 
1020.0	1.0	0.0	7.62172	7.36611	-7.7588	17.85128	24.08052	1.31568	0.76007	144.7269	152.23383	53.9401	0.34155	 	2046081.013	 	3.0847E-6	 	10352.25606	46.59741	 
1015.0	1.0	0.0	7.62538	7.36258	-7.80304	17.77133	23.95251	1.31759	0.75896	145.19853	152.33185	54.13259	0.34114	 	2281114.698	 	2.75617E-6	 	10121.50477	46.15026	 
1010.0	1.0	0.0	7.629	7.35908	-7.84678	17.69254	23.82724	1.31938	0.75793	145.66142	152.42971	54.32153	0.34073	 	2545436.415	 	2.46038E-6	 	9892.89826	45.7213	 
1005.0	1.0	0.0	7.63258	7.35563	-7.89003	17.61483	23.70457	1.32104	0.75698	146.11607	152.52755	54.50713	0.34034	 	2842966.68	 	2.1943E-6	 	9666.34944	45.30976	 
1000.0	1.0	0.0	7.63613	7.35221	-7.9328	17.53817	23.58438	1.32258	0.7561	146.56299	152.62549	54.68958	0.33995	 	3178186.369	 	1.95518E-6	 	9441.77585	44.91472	 
995.0	1.0	0.0	7.63964	7.34883	-7.97513	17.46249	23.46656	1.324	0.75529	147.00262	152.72366	54.86906	0.33958	 	3556221.762	 	1.74048E-6	 	9219.09901	44.53537	 
990.0	1.0	0.0	7.64312	7.34549	-8.01702	17.38774	23.35101	1.3253	0.75454	147.43542	152.82217	55.04575	0.33921	 	3982943.073	 	1.54788E-6	 	8998.24377	44.17105	 
985.0	1.0	0.0	7.64657	7.34218	-8.05849	17.31387	23.23761	1.3265	0.75386	147.86178	152.92111	55.2198	0.33885	 	4465079.442	 	1.37528E-6	 	8779.13897	43.82096	 
980.0	1.0	0.0	7.64998	7.3389	-8.09956	17.24085	23.12629	1.32759	0.75325	148.28211	153.02058	55.39138	0.33849	 	5010352.391	 	1.22074E-6	 	8561.71671	43.48445	 
975.0	1.0	0.0	7.65337	7.33565	-8.14023	17.16861	23.01694	1.32857	0.75269	148.69677	153.12066	55.56063	0.33815	 	5627631.025	 	1.0825E-6	 	8345.91227	43.16089	 
970.0	1.0	0.0	7.65673	7.33243	-8.18053	17.09712	22.91079	1.32938	0.75223	149.10611	153.22145	55.7277	0.33781	 	6327113.249	 	9.58969E-7	 	8131.66413	42.84963	 
965.0	1.0	0.0	7.66006	7.32924	-8.22047	17.02634	22.80508	1.33017	0.75178	149.51048	153.32302	55.8927	0.33748	 	7120537.202	 	8.48686E-7	 	7918.91316	42.55019	 
960.0	1.0	0.0	7.66337	7.32608	-8.26006	16.95623	22.70111	1.33087	0.75139	149.91018	153.42544	56.05578	0.33715	 	8021428.214	 	7.50328E-7	 	7707.60343	42.26195	 
955.0	1.0	0.0	7.66665	7.32294	-8.29932	16.88674	22.59883	1.33147	0.75105	150.30552	153.52878	56.21704	0.33683	 	9045387.8	 	6.62691E-7	 	7497.68142	41.9844	 
950.0	1.0	0.0	7.6699	7.31984	-8.33824	16.81784	22.49815	1.33198	0.75076	150.69678	153.63309	56.37661	0.33652	 	1.021043134E7	 	5.84686E-7	 	7289.09609	41.71707	 
945.0	1.0	0.0	7.67314	7.31675	-8.37685	16.7495	22.39903	1.33241	0.75052	151.08423	153.73845	56.53458	0.33621	 	1.153738527E7	 	5.15324E-7	 	7081.79867	41.45948	 
940.0	1.0	0.0	7.67635	7.31369	-8.41516	16.68167	22.30141	1.33275	0.75033	151.46813	153.8449	56.69107	0.33591	 	1.305035122E7	 	4.53711E-7	 	6875.74259	41.21122	 
935.0	1.0	0.0	7.67953	7.31066	-8.45317	16.61434	22.20523	1.333	0.75018	151.84871	153.95249	56.84617	0.33561	 	1.477725389E7	 	3.99038E-7	 	6670.88354	40.97181	 
930.0	1.0	0.0	7.6827	7.30765	-8.4909	16.54745	22.11043	1.33318	0.75009	152.22622	154.06127	56.99997	0.33532	 	1.675048348E7	 	3.50574E-7	 	6467.17868	40.74097	 
925.0	1.0	0.0	7.68585	7.30465	-8.52835	16.481	22.01698	1.33327	0.75003	152.60087	154.17129	57.15256	0.33503	 	1.900765297E7	 	3.07659E-7	 	6264.58751	40.51823	 
920.0	1.0	0.0	7.68897	7.30169	-8.56553	16.41493	21.92483	1.33329	0.75002	152.97288	154.28258	57.30402	0.33475	 	2.159249131E7	 	2.69699E-7	 	6063.07114	40.30327	 
915.95	1.0	0.0	7.69149	7.2993	-8.59544	16.36174	21.85116	1.33325	0.75005	153.27216	154.37362	57.42584	0.33452	 	2.395913349E7	 	2.42234E-7	 	5900.73013	 	 
915.0	1.0	0.0	7.69208	7.29873	-8.60255	16.34886	21.83374	1.33324	0.75005	153.34264	154.39878	57.45437	0.33447	 	2.455846768E7	 	2.36133E-7	 	5862.21367	40.17149	 
910.0	1.0	0.0	7.69521	7.29576	-8.63968	16.28154	21.74318	1.33316	0.7501	153.71102	154.53157	57.6034	0.33422	 	2.797553598E7	 	2.06418E-7	 	5660.72179	40.29838	 
905.0	1.0	0.0	7.69832	7.29282	-8.67657	16.21446	21.65405	1.33299	0.75019	154.07724	154.66579	57.75149	0.33397	 	3.190416402E7	 	1.80235E-7	 	5460.15331	40.1137	 
900.0	1.0	0.0	7.70141	7.28989	-8.71324	16.14759	21.56682	1.3327	0.75035	154.44147	154.80145	57.89872	0.33372	 	3.642617555E7	 	1.57191E-7	 	5260.4789	39.93488	 
895.0	1.0	0.0	7.70449	7.28698	-8.74969	16.08092	21.48005	1.33238	0.75053	154.80388	154.93859	58.04515	0.33348	 	4.163730063E7	 	1.36931E-7	 	5061.67064	39.76165	 
890.0	1.0	0.0	7.70755	7.28409	-8.78593	16.01443	21.39436	1.33199	0.75075	155.16462	155.07724	58.19083	0.33324	 	4.764967685E7	 	1.19141E-7	 	4863.70203	39.59372	 
886.43	1.0	0.0	7.70973	7.28203	-8.81169	15.96702	21.33382	1.33167	0.75094	155.42146	155.17723	58.29452	0.33307	 	5.250867237E7	 	1.07784E-7	 	4722.74083	 	 
885.0	1.0	0.0	7.71058	7.28122	-8.82182	15.94869	21.30984	1.33153	0.75102	155.52365	155.21199	58.33601	0.333	 	5.458617544E7	 	1.03554E-7	 	4667.1427	39.31187	 
880.0	1.0	0.0	7.71357	7.2784	-8.85715	15.88466	21.22675	1.33097	0.75133	155.88084	155.33473	58.48101	0.33275	 	6.258261353E7	 	8.99329E-8	 	4472.88257	38.85203	 
875.0	1.0	0.0	7.71655	7.27559	-8.89228	15.82078	21.14466	1.33034	0.75169	156.23685	155.45901	58.62549	0.3325	 	7.183760113E7	 	7.8007E-8	 	4279.41936	38.69264	 
870.0	1.0	0.0	7.71951	7.2728	-8.92721	15.75706	21.06353	1.32965	0.75208	156.59183	155.58486	58.76948	0.33225	 	8.256266703E7	 	6.75781E-8	 	4086.72785	38.5383	 
865.0	1.0	0.0	7.72245	7.27003	-8.96195	15.69345	20.98333	1.3289	0.7525	156.94587	155.71229	58.91304	0.33201	 	9.500712061E7	 	5.84696E-8	 	3894.78335	38.3889	 
860.0	1.0	0.0	7.72538	7.26727	-8.9965	15.62994	20.90405	1.32808	0.75297	157.29911	155.84132	59.05622	0.33177	 	1.094651934E8	 	5.0524E-8	 	3703.56217	38.24424	 
855.0	1.0	0.0	7.7283	7.26453	-9.03086	15.56652	20.82567	1.32719	0.75347	157.65165	155.97195	59.19906	0.33154	 	1.262845935E8	 	4.36017E-8	 	3513.04148	38.10414	 
850.0	1.0	0.0	7.73121	7.2618	-9.06504	15.50315	20.74816	1.32625	0.75401	158.00359	156.10422	59.3416	0.33131	 	1.458767986E8	 	3.75784E-8	 	3323.1993	37.96844	 
845.0	1.0	0.0	7.7334	7.25974	-9.09081	15.47808	20.68718	1.32423	0.75515	158.34244	156.31306	59.47493	0.33117	 	1.655092687E8	 	3.29735E-8	 	3166.25903	31.38805	 
840.0	1.0	0.0	7.73558	7.25769	-9.11651	15.45302	20.62619	1.32221	0.75631	158.6808	156.52115	59.60811	0.33103	 	1.87997051E8	 	2.88994E-8	 	3006.3246	31.98689	 
835.0	1.0	0.0	7.73777	7.25564	-9.14214	15.42796	20.56519	1.32018	0.75747	159.01867	156.72848	59.74112	0.3309	 	2.137858923E8	 	2.52992E-8	 	2846.60018	31.94488	 
830.0	1.0	0.0	7.73995	7.2536	-9.16771	15.40289	20.50418	1.31813	0.75865	159.35606	156.93507	59.87398	0.33076	 	2.433958264E8	 	2.21212E-8	 	2687.08496	31.90304	 
825.0	1.0	0.0	7.74212	7.25156	-9.19321	15.37783	20.44316	1.31607	0.75984	159.69295	157.1409	60.00667	0.33063	 	2.774343311E8	 	1.93192E-8	 	2527.77809	31.86138	 
820.0	1.0	0.0	7.74429	7.24953	-9.21864	15.35276	20.38213	1.314	0.76103	160.02936	157.34599	60.13921	0.33049	 	3.16611953E8	 	1.68515E-8	 	2368.67867	31.81988	 
815.0	1.0	0.0	7.74645	7.2475	-9.24401	15.3277	20.32109	1.31192	0.76224	160.36528	157.55034	60.27159	0.33036	 	3.617608871E8	 	1.46809E-8	 	2209.78579	31.77858	 
810.0	1.0	0.0	7.74861	7.24548	-9.26932	15.30264	20.26004	1.30983	0.76346	160.70072	157.75395	60.40381	0.33022	 	4.138571024E8	 	1.27739E-8	 	2051.09852	31.73745	 
805.0	1.0	0.0	7.75077	7.24347	-9.29456	15.27758	20.19898	1.30772	0.76469	161.03566	157.95681	60.53587	0.33008	 	4.740467258E8	 	1.11006E-8	 	1892.61586	31.69653	 
800.0	1.0	0.0	7.75292	7.24146	-9.31973	15.25251	20.1379	1.30561	0.76593	161.37012	158.15894	60.66777	0.32995	 	5.436775504E8	 	9.63398E-9	 	1734.33678	31.65581	 
795.0	1.0	0.0	7.75507	7.23945	-9.34483	15.22745	20.07682	1.30348	0.76718	161.7041	158.36034	60.79951	0.32981	 	6.24336718E8	 	8.35026E-9	 	1576.26024	31.61531	 
790.0	1.0	0.0	7.75721	7.23745	-9.36987	15.20239	20.01572	1.30134	0.76844	162.03758	158.561	60.93109	0.32968	 	7.178958505E8	 	7.22803E-9	 	1418.3851	31.57503	 
785.0	1.0	0.0	7.75935	7.23546	-9.39485	15.17733	19.95461	1.29918	0.76971	162.37058	158.76093	61.06251	0.32954	 	8.265651853E8	 	6.24823E-9	 	1260.71023	31.53498	 
780.0	1.0	0.0	7.76148	7.23347	-9.41976	15.15227	19.89349	1.29702	0.771	162.7031	158.96013	61.19377	0.32941	 	9.529586082E8	 	5.3939E-9	 	1103.23441	31.49516	 
775.0	1.0	0.0	7.76361	7.23149	-9.4446	15.12721	19.83235	1.29484	0.7723	163.03513	159.15861	61.32488	0.32927	 	1.100171897E9	 	4.64996E-9	 	945.9564	31.4556	 
770.0	1.0	0.0	7.76574	7.22951	-9.46937	15.10215	19.77121	1.29265	0.77361	163.36667	159.35636	61.45582	0.32914	 	1.271877004E9	 	4.00303E-9	 	788.87485	31.41631	 
765.0	1.0	0.0	7.76786	7.22753	-9.49408	15.07709	19.71005	1.29044	0.77493	163.69773	159.55339	61.58661	0.329	 	1.472435852E9	 	3.4412E-9	 	631.98842	31.37729	 
760.0	1.0	0.0	7.76997	7.22557	-9.51873	15.05203	19.64888	1.28822	0.77626	164.0283	159.7497	61.71724	0.32887	 	1.707037888E9	 	2.95398E-9	 	475.29567	31.33855	 
755.0	1.0	0.0	7.77208	7.2236	-9.54331	15.02698	19.58769	1.28599	0.77761	164.35839	159.9453	61.8477	0.32873	 	1.981866632E9	 	2.53203E-9	 	318.79507	31.30012	 
750.0	1.0	0.0	7.77419	7.22165	-9.56782	15.00192	19.52649	1.28375	0.77897	164.68799	160.14017	61.97801	0.3286	 	2.304301672E9	 	2.16714E-9	 	162.48506	31.262	 
745.0	1.0	0.0	7.77629	7.21969	-9.59227	14.97686	19.46528	1.2815	0.78034	165.01711	160.33434	62.10816	0.32847	 	2.683164029E9	 	1.85204E-9	 	6.364	31.22421	 
740.0	1.0	0.0	7.77839	7.21775	-9.61665	14.9518	19.40406	1.27923	0.78172	165.34574	160.52779	62.23815	0.32833	 	3.129014745E9	 	1.58035E-9	 	-149.56989	31.18678	 
735.0	1.0	0.0	7.78048	7.2158	-9.64096	14.92675	19.34281	1.27694	0.78312	165.67389	160.72053	62.36798	0.3282	 	3.654518825E9	 	1.34642E-9	 	-305.31838	31.1497	 
730.0	1.0	0.0	7.78257	7.21387	-9.66521	14.90169	19.28156	1.27465	0.78453	166.00156	160.91257	62.49765	0.32806	 	4.274889622E9	 	1.14532E-9	 	-460.88343	31.11301	 
725.0	1.0	0.0	7.78466	7.21194	-9.68939	14.87664	19.22029	1.27234	0.78596	166.32874	161.1039	62.62716	0.32793	 	5.008432409E9	 	9.72704E-10	 	-616.26705	31.07672	 
720.0	1.0	0.0	7.78674	7.21001	-9.71351	14.85158	19.159	1.27001	0.78739	166.65544	161.29453	62.75652	0.32779	 	5.877210441E9	 	8.24765E-10	 	-771.47134	31.04086	 
715.0	1.0	0.0	7.78881	7.20809	-9.73756	14.82653	19.0977	1.26767	0.78885	166.98165	161.48446	62.88571	0.32766	 	6.907862602E9	 	6.98178E-10	 	-926.49856	31.00544	 
710.0	1.0	0.0	7.79088	7.20618	-9.76155	14.80147	19.03639	1.26532	0.79031	167.30738	161.67369	63.01475	0.32753	 	8.132608975E9	 	5.90033E-10	 	-1081.35106	30.9705	 
705.0	1.0	0.0	7.79295	7.20427	-9.78547	14.77642	18.97506	1.26296	0.79179	167.63263	161.86222	63.14362	0.32739	 	9.590489819E9	 	4.97796E-10	 	-1236.03132	30.93605	 
700.0	1.0	0.0	7.79501	7.20236	-9.80932	14.75136	18.91371	1.26058	0.79329	167.95739	162.05005	63.27234	0.32726	 	1.13289E10	 	4.19256E-10	 	-1390.542	30.90213	 
695.0	1.0	0.0	7.79706	7.20046	-9.83311	14.72631	18.85234	1.25818	0.7948	168.28168	162.2372	63.4009	0.32712	 	1.3405499999999998E10	 	3.52491E-10	 	-1544.88582	30.86877	 
690.0	1.0	0.0	7.79912	7.19857	-9.85683	14.70126	18.79096	1.25577	0.79632	168.60548	162.42365	63.52929	0.32699	 	1.5890399999999998E10	 	2.95833E-10	 	-1699.06575	30.83599	 
685.0	1.0	0.0	7.80116	7.19668	-9.88049	14.67621	18.72956	1.25335	0.79786	168.92879	162.60941	63.65753	0.32686	 	1.88694E10	 	2.47835E-10	 	-1853.08488	30.80382	 
680.0	1.0	0.0	7.80321	7.19479	-9.90408	14.65115	18.66815	1.25091	0.79942	169.25163	162.79449	63.78561	0.32672	 	2.24473E10	 	2.07245E-10	 	-2006.94649	30.77232	 
675.0	1.0	0.0	7.80524	7.19291	-9.9276	14.6261	18.60672	1.24846	0.80099	169.57398	162.97888	63.91353	0.32659	 	2.6752699999999996E10	 	1.7298E-10	 	-2160.65407	30.74151	 
670.0	1.0	0.0	7.80728	7.19104	-9.95106	14.60105	18.54526	1.24599	0.80258	169.89585	163.16259	64.04129	0.32646	 	3.1943099999999996E10	 	1.44109E-10	 	-2314.21127	30.71144	 
665.0	1.0	0.0	7.8093	7.18917	-9.97445	14.576	18.48379	1.2435	0.80418	170.21724	163.34561	64.1689	0.32632	 	3.82127E10	 	1.19826E-10	 	-2467.62202	30.68215	 
660.0	1.0	0.0	7.81133	7.18731	-9.99778	14.55095	18.4223	1.24101	0.8058	170.53815	163.52796	64.29634	0.32619	 	4.58007E10	 	9.94411E-11	 	-2620.87956	30.65151	 
655.0	1.0	0.0	7.81335	7.18545	-10.02104	14.5259	18.3608	1.23849	0.80743	170.85857	163.70963	64.42362	0.32606	 	5.500279999999999E10	 	8.23607E-11	 	-2773.92327	30.60874	 
650.0	1.0	0.0	7.81536	7.1836	-10.04423	14.50085	18.29927	1.23596	0.80909	171.17852	163.89062	64.55075	0.32592	 	6.618479999999999E10	 	6.8077E-11	 	-2926.67271	30.54989	 
645.0	1.0	0.0	7.81737	7.18175	-10.06736	14.4758	18.23772	1.23341	0.81076	171.49798	164.07095	64.67772	0.32579	 	7.98008E10	 	5.61556E-11	 	-3079.12918	30.49129	 
640.0	1.0	0.0	7.81938	7.17991	-10.09042	14.45075	18.17615	1.23085	0.81244	171.81696	164.25059	64.80452	0.32566	 	9.641539999999998E10	 	4.62256E-11	 	-3231.29399	30.43296	 
635.0	1.0	0.0	7.82138	7.17808	-10.11342	14.42571	18.11456	1.22828	0.81415	172.13546	164.42957	64.93117	0.32552	 	1.16732E11	 	3.79712E-11	 	-3383.16843	30.37489	 
630.0	1.0	0.0	7.82337	7.17624	-10.13635	14.40066	18.05296	1.22568	0.81587	172.45349	164.60789	65.05766	0.32539	 	1.41629E11	 	3.11239E-11	 	-3534.75377	30.31707	 
625.0	1.0	0.0	7.82537	7.17442	-10.15922	14.37561	17.99132	1.22307	0.81761	172.77103	164.78553	65.18399	0.32526	 	1.72207E11	 	2.54557E-11	 	-3686.05154	30.25955	 
620.0	1.0	0.0	7.82735	7.1726	-10.18202	14.35056	17.92967	1.22044	0.81937	173.08809	164.96251	65.31016	0.32512	 	2.09845E11	 	2.07737E-11	 	-3837.06361	30.20241	 
615.0	1.0	0.0	7.82933	7.17078	-10.20475	14.32552	17.868	1.2178	0.82115	173.40467	165.13883	65.43617	0.32499	 	2.56279E11	 	1.69145E-11	 	-3987.79095	30.14547	 
610.0	1.0	0.0	7.83131	7.16897	-10.22742	14.30047	17.8063	1.21514	0.82295	173.72076	165.31449	65.56202	0.32486	 	3.13697E11	 	1.37407E-11	 	-4138.23485	30.08878	 
605.0	1.0	0.0	7.83328	7.16717	-10.25002	14.27543	17.74458	1.21246	0.82477	174.03638	165.48949	65.68771	0.32473	 	3.84865E11	 	1.11365E-11	 	-4288.39658	30.03235	 
600.0	1.0	0.0	7.83525	7.16537	-10.27256	14.25038	17.68283	1.20977	0.8266	174.35152	165.66383	65.81324	0.32459	 	4.73285E11	 	9.00435E-12	 	-4438.27739	29.97616	 
595.0	1.0	0.0	7.83721	7.16357	-10.29503	14.22533	17.62106	1.20706	0.82846	174.66618	165.83752	65.93861	0.32446	 	5.83408E11	 	7.26289E-12	 	-4587.87858	29.92024	 
590.0	1.0	0.0	7.83917	7.16178	-10.31743	14.20029	17.55927	1.20433	0.83034	174.98036	166.01056	66.06383	0.32433	 	7.20898E11	 	5.84385E-12	 	-4737.20138	29.86456	 
585.0	1.0	0.0	7.84112	7.16	-10.33977	14.17525	17.49745	1.20158	0.83223	175.29407	166.18294	66.18888	0.3242	 	8.92989E11	 	4.69033E-12	 	-4886.24708	29.80914	 
580.0	1.0	0.0	7.84307	7.15822	-10.36204	14.1502	17.43561	1.19882	0.83415	175.60729	166.35467	66.31378	0.32406	 	1.10894E12	 	3.75494E-12	 	-5035.01693	29.75397	 
575.0	1.0	0.0	7.84502	7.15645	-10.38425	14.12516	17.37374	1.19604	0.83609	175.92003	166.52576	66.43851	0.32393	 	1.38064E12	 	2.99833E-12	 	-5183.51219	29.69905	 
570.0	1.0	0.0	7.84695	7.15468	-10.40639	14.10012	17.31184	1.19324	0.83805	176.23229	166.6962	66.56309	0.3238	 	1.72338E12	 	2.38787E-12	 	-5331.73412	29.64439	 
565.0	1.0	0.0	7.84889	7.15292	-10.42846	14.07507	17.24992	1.19042	0.84004	176.54408	166.86599	66.68751	0.32367	 	2.1569E12	 	1.89662E-12	 	-5479.68395	29.58997	 
560.0	1.0	0.0	7.85082	7.15116	-10.45047	14.05003	17.18797	1.18759	0.84204	176.85538	167.03515	66.81176	0.32353	 	2.70675E12	 	1.50232E-12	 	-5627.36294	29.5358	 
555.0	1.0	0.0	7.85274	7.14941	-10.47242	14.02499	17.12599	1.18473	0.84407	177.16621	167.20366	66.93586	0.3234	 	3.4061E12	 	1.18669E-12	 	-5774.77234	29.48188	 
550.0	1.0	0.0	7.85466	7.14766	-10.49429	13.99995	17.06398	1.18186	0.84613	177.47656	167.37153	67.0598	0.32327	 	4.29813E12	 	9.3473E-13	 	-5921.9134	29.42821	 
545.0	1.0	0.0	7.85658	7.14592	-10.51611	13.97491	17.00194	1.17896	0.8482	177.78643	167.53877	67.18358	0.32314	 	5.43922E12	 	7.34147E-13	 	-6068.78736	29.37479	 
540.0	1.0	0.0	7.85849	7.14418	-10.53785	13.94987	16.93988	1.17605	0.8503	178.09582	167.70537	67.3072	0.32301	 	6.90321E12	 	5.74919E-13	 	-6215.39544	29.32162	 
535.0	1.0	0.0	7.86039	7.14245	-10.55953	13.92483	16.87778	1.17312	0.85243	178.40474	167.87134	67.43066	0.32288	 	8.78711E12	 	4.48882E-13	 	-6361.73889	29.26869	 
530.0	1.0	0.0	7.86229	7.14072	-10.58115	13.89979	16.81565	1.17017	0.85458	178.71317	168.03667	67.55396	0.32274	 	1.12188E13	 	3.49411E-13	 	-6507.81893	29.21601	 
525.0	1.0	0.0	7.86419	7.139	-10.60269	13.87475	16.75349	1.1672	0.85675	179.02113	168.20137	67.6771	0.32261	 	1.43673E13	 	2.71141E-13	 	-6653.6368	29.16357	 
520.0	1.0	0.0	7.86608	7.13729	-10.62418	13.84971	16.6913	1.16421	0.85895	179.32861	168.36545	67.80008	0.32248	 	1.84569E13	 	2.09741E-13	 	-6799.19371	29.11138	 
515.0	1.0	0.0	7.86796	7.13558	-10.64559	13.82467	16.62907	1.1612	0.86118	179.63562	168.5289	67.9229	0.32235	 	2.37861E13	 	1.61723E-13	 	-6944.49088	29.05943	 
510.0	1.0	0.0	7.86984	7.13387	-10.66694	13.79963	16.56681	1.15817	0.86343	179.94214	168.69172	68.04557	0.32222	 	3.07535E13	 	1.2429E-13	 	-7089.52954	29.00773	 
505.0	1.0	0.0	7.87172	7.13217	-10.68823	13.7746	16.50451	1.15512	0.86571	180.24819	168.85392	68.16807	0.32209	 	3.98932E13	 	9.52031E-14	 	-7234.3109	28.95627	 
500.0	1.0	0.0	7.87359	7.13048	-10.70945	13.74956	16.44218	1.15205	0.86802	180.55376	169.0155	68.29041	0.32196	 	5.19236E13	 	7.2675E-14	 	-7378.83616	28.90505	 
495.0	1.0	0.0	7.87545	7.12879	-10.7306	13.72452	16.37982	1.14896	0.87036	180.85885	169.17645	68.4126	0.32182	 	6.78143E13	 	5.52855E-14	 	-7523.10652	28.85407	 
490.0	1.0	0.0	7.87731	7.12711	-10.75169	13.69949	16.31741	1.14584	0.87272	181.16347	169.33679	68.53462	0.32169	 	8.88786E13	 	4.19082E-14	 	-7667.1232	28.80334	 
485.0	1.0	0.0	7.87917	7.12543	-10.77271	13.67445	16.25497	1.14271	0.87511	181.46761	169.49651	68.65648	0.32156	 	1.16902E14	 	3.16533E-14	 	-7810.88738	28.75283	 
480.0	1.0	0.0	7.88102	7.12375	-10.79367	13.64942	16.19249	1.13955	0.87754	181.77127	169.65562	68.77819	0.32143	 	1.54322E14	 	2.38199E-14	 	-7954.40025	28.70257	 
475.0	1.0	0.0	7.88287	7.12209	-10.81456	13.62438	16.12997	1.13637	0.87999	182.07446	169.81411	68.89973	0.3213	 	2.04478E14	 	1.78579E-14	 	-8097.66301	28.65255	 
470.0	1.0	0.0	7.88471	7.12042	-10.83538	13.59935	16.06741	1.13317	0.88248	182.37717	169.97199	69.02112	0.32117	 	2.7196199999999997E14	 	1.33369E-14	 	-8240.67683	28.60276	 
465.0	1.0	0.0	7.88654	7.11876	-10.85614	13.57431	16.00481	1.12995	0.88499	182.6794	170.12926	69.14234	0.32104	 	3.63119E14	 	9.92162E-15	 	-8383.44288	28.55321	 
460.0	1.0	0.0	7.88837	7.11711	-10.87683	13.54928	15.94217	1.12671	0.88754	182.98116	170.28592	69.2634	0.32091	 	4.86745E14	 	7.35154E-15	 	-8525.96236	28.5039	 
455.0	1.0	0.0	7.8902	7.11547	-10.89746	13.52424	15.87949	1.12344	0.89012	183.28244	170.44197	69.38431	0.32078	 	6.55091E14	 	5.42508E-15	 	-8668.23641	28.45481	 
450.0	1.0	0.0	7.89202	7.11382	-10.91802	13.49921	15.81676	1.12015	0.89274	183.58324	170.59742	69.50505	0.32065	 	8.85291E14	 	3.98684E-15	 	-8810.26621	28.40596	 
445.0	1.0	0.0	7.89384	7.11219	-10.93851	13.47418	15.75398	1.11684	0.89538	183.88357	170.75226	69.62564	0.32052	 	1.20141E15	 	2.9175E-15	 	-8952.0529	28.35734	 
440.0	1.0	0.0	7.89565	7.11055	-10.95894	13.44915	15.69116	1.1135	0.89807	184.18342	170.9065	69.74606	0.32039	 	1.6374E15	 	2.12575E-15	 	-9093.59763	28.30895	 
435.0	1.0	0.0	7.89746	7.10893	-10.97931	13.42411	15.6283	1.11014	0.90078	184.4828	171.06014	69.86633	0.32026	 	2.2414E15	 	1.54203E-15	 	-9234.90156	28.26079	 
430.0	1.0	0.0	7.89926	7.10731	-10.9996	13.39908	15.56538	1.10676	0.90354	184.7817	171.21318	69.98643	0.32013	 	3.08193E15	 	1.11356E-15	 	-9375.96581	28.21285	 
425.0	1.0	0.0	7.90105	7.10569	-11.01984	13.37405	15.50242	1.10336	0.90633	185.08012	171.36562	70.10638	0.31999	 	4.25702E15	 	8.00441E-16	 	-9516.79136	28.16511	 
420.0	1.0	0.0	7.90284	7.10408	-11.04	13.34902	15.4394	1.09992	0.90915	185.37807	171.51747	70.22616	0.31986	 	5.90764E15	 	5.72664E-16	 	-9657.37959	28.11764	 
415.0	1.0	0.0	7.90463	7.10248	-11.0601	13.32399	15.37634	1.09647	0.91202	185.67555	171.66872	70.34579	0.31973	 	8.23738E15	 	4.07737E-16	 	-9797.73096	28.07027	 
410.0	1.0	0.0	7.90641	7.10088	-11.08014	13.29896	15.31322	1.09299	0.91492	185.97254	171.81938	70.46525	0.3196	 	1.15419E16	 	2.88885E-16	 	-9937.84569	28.02295	 
405.0	1.0	0.0	7.90819	7.09928	-11.1001	13.27393	15.25005	1.08948	0.91787	186.26907	171.96944	70.58456	0.31947	 	1.62528E16	 	2.0365E-16	 	-10077.72398	27.97566	 
400.0	1.0	0.0	7.90996	7.09769	-11.12001	13.2489	15.18682	1.08595	0.92085	186.56511	172.11892	70.7037	0.31934	 	2.3003E16	 	1.42828E-16	 	-10217.36603	27.92841	 
395.0	1.0	0.0	7.91172	7.09611	-11.13984	13.22388	15.12354	1.0824	0.92388	186.86069	172.2678	70.82269	0.31921	 	3.27266E16	 	9.96461E-17	 	-10356.77204	27.8812	 
390.0	1.0	0.0	7.91348	7.09453	-11.15962	13.19885	15.0602	1.07882	0.92694	187.15578	172.4161	70.94151	0.31909	 	4.68085E16	 	6.91471E-17	 	-10495.94218	27.83403	 
385.0	1.0	0.0	7.91524	7.09296	-11.17932	13.17382	14.9968	1.07521	0.93005	187.45041	172.56382	71.06017	0.31896	 	6.7314700000000008E16	 	4.77201E-17	 	-10634.87664	27.78689	 
380.0	1.0	0.0	7.91699	7.09139	-11.19896	13.14879	14.93333	1.07157	0.93321	187.74455	172.71095	71.17868	0.31883	 	9.73446E16	 	3.27482E-17	 	-10773.57556	27.73979	 
375.0	1.0	0.0	7.91874	7.08982	-11.21853	13.12377	14.86981	1.06791	0.93641	188.03823	172.85749	71.29702	0.3187	 	1.41574E17	 	2.23448E-17	 	-10912.03913	27.69271	 
370.0	1.0	0.0	7.92048	7.08827	-11.23804	13.09874	14.80622	1.06423	0.93965	188.33142	173.00346	71.4152	0.31857	 	2.07103E17	 	1.51569E-17	 	-11050.26746	27.64567	 
365.0	1.0	0.0	7.92221	7.08671	-11.25748	13.07371	14.74257	1.06051	0.94294	188.62415	173.14884	71.53322	0.31844	 	3.04774E17	 	1.02195E-17	 	-11188.2607	27.59865	 
360.0	1.0	0.0	7.92394	7.08517	-11.27686	13.04869	14.67885	1.05677	0.94628	188.9164	173.29365	71.65108	0.31831	 	4.51253E17	 	6.84815E-18	 	-11326.01899	27.55166	 
355.0	1.0	0.0	7.92567	7.08362	-11.29617	13.02366	14.61506	1.053	0.94967	189.20817	173.43788	71.76878	0.31818	 	6.72318E17	 	4.56011E-18	 	-11463.54244	27.50469	 
350.0	1.0	0.0	7.92739	7.08209	-11.31542	12.99864	14.5512	1.0492	0.9531	189.49947	173.58154	71.88632	0.31805	 	1.00811E18	 	3.01697E-18	 	-11600.83114	27.45774	 
345.0	1.0	0.0	7.9291	7.08056	-11.3346	12.97361	14.48727	1.04538	0.95659	189.7903	173.72462	72.0037	0.31792	 	1.52156E18	 	1.98286E-18	 	-11737.8852	27.41081	 
340.0	1.0	0.0	7.93081	7.07903	-11.35371	12.94859	14.42326	1.04152	0.96013	190.08065	173.86713	72.12092	0.31779	 	2.31197E18	 	1.29441E-18	 	-11874.70468	27.3639	 
335.0	1.0	0.0	7.93252	7.07751	-11.37276	12.92357	14.35918	1.03764	0.96372	190.37052	174.00907	72.23798	0.31766	 	3.53725E18	 	8.39134E-19	 	-12011.28967	27.317	 
330.0	1.0	0.0	7.93421	7.07599	-11.39174	12.89854	14.29502	1.03373	0.96737	190.65993	174.15043	72.35488	0.31753	 	5.45018E18	 	5.40133E-19	 	-12147.64021	27.27011	 
325.0	1.0	0.0	7.93591	7.07448	-11.41065	12.87352	14.23078	1.02979	0.97107	190.94886	174.29123	72.47162	0.3174	 	8.45853E18	 	3.45145E-19	 	-12283.75636	27.22323	 
320.0	1.0	0.0	7.9376	7.07298	-11.4295	12.8485	14.16646	1.02582	0.97483	191.23731	174.43147	72.58819	0.31728	 	1.3225E19	 	2.18904E-19	 	-12419.63812	27.17635	 
315.0	1.0	0.0	7.93928	7.07148	-11.44829	12.82348	14.10205	1.02181	0.97865	191.52529	174.57114	72.70461	0.31715	 	2.08352E19	 	1.37777E-19	 	-12555.28553	27.12948	 
310.0	1.0	0.0	7.94096	7.06998	-11.46701	12.79845	14.03756	1.01778	0.98253	191.8128	174.71024	72.82086	0.31702	 	3.30816E19	 	8.60362E-20	 	-12690.69857	27.08261	 
305.0	1.0	0.0	7.94263	7.06849	-11.48566	12.77343	13.97298	1.01372	0.98647	192.09983	174.84878	72.93696	0.31689	 	5.29476E19	 	5.32944E-20	 	-12825.87723	27.03573	 
300.0	1.0	0.0	7.9443	7.06701	-11.50425	12.74841	13.9083	1.00963	0.99047	192.38639	174.98676	73.05289	0.31676	 	8.54417E19	 	3.27405E-20	 	-12960.82147	26.98885	 
295.0	1.0	0.0	7.94596	7.06553	-11.52277	12.72339	13.84353	1.0055	0.99453	192.67248	175.12418	73.16866	0.31663	 	1.3904399999999998E20	 	1.99433E-20	 	-13095.53125	26.94196	 
290.0	1.0	0.0	7.94762	7.06406	-11.54122	12.69837	13.77867	1.00134	0.99866	192.95809	175.26105	73.28427	0.3165	 	2.2823799999999997E20	 	1.20426E-20	 	-13230.00649	26.89505	 
285.0	1.0	0.0	7.94928	7.06259	-11.55961	12.67335	13.7137	0.99715	1.00285	193.24323	175.39735	73.39972	0.31638	 	3.77992E20	 	7.20701E-21	 	-13364.2471	26.84812	 
280.0	1.0	0.0	7.95092	7.06112	-11.57794	12.64833	13.64863	0.99293	1.00712	193.5279	175.5331	73.51501	0.31625	 	6.31737E20	 	4.27359E-21	 	-13498.25297	26.80117	 
275.0	1.0	0.0	7.95256	7.05967	-11.5962	12.62332	13.58346	0.98868	1.01145	193.81209	175.6683	73.63014	0.31612	 	1.06576E21	 	2.5103E-21	 	-13632.02397	26.7542	 
270.0	1.0	0.0	7.9542	7.05821	-11.61439	12.5983	13.51818	0.98439	1.01586	194.09581	175.80294	73.74511	0.31599	 	1.81537E21	 	1.4603E-21	 	-13765.55994	26.70719	 
265.0	1.0	0.0	7.95583	7.05677	-11.63252	12.57328	13.45279	0.98007	1.02034	194.37906	175.93703	73.85991	0.31586	 	3.12297E21	 	8.4105E-22	 	-13898.86073	26.66016	 
260.0	1.0	0.0	7.95746	7.05532	-11.65058	12.54826	13.38728	0.97572	1.02489	194.66183	176.07057	73.97456	0.31574	 	5.42738E21	 	4.79452E-22	 	-14031.92613	26.61308	 
255.0	1.0	0.0	7.95908	7.05389	-11.66857	12.52324	13.32165	0.97133	1.02952	194.94413	176.20356	74.08904	0.31561	 	9.53142E21	 	2.7045E-22	 	-14164.75591	26.56596	 
250.0	1.0	0.0	7.9607	7.05245	-11.6865	12.49823	13.2559	0.9669	1.03423	195.22596	176.33601	74.20336	0.31548	 	1.6919999999999998E22	 	1.50908E-22	 	-14297.34983	26.51879	 
245.0	1.0	0.0	7.96231	7.05103	-11.70437	12.47321	13.19003	0.96245	1.03902	195.50732	176.46791	74.31752	0.31535	 	3.0370499999999996E22	 	8.32705E-23	 	-14429.70762	26.47156	 
240.0	1.0	0.0	7.96391	7.04961	-11.72216	12.4482	13.12402	0.95795	1.04389	195.7882	176.59926	74.43152	0.31522	 	5.513839999999999E22	 	4.54231E-23	 	-14561.82895	26.42427	 
235.0	1.0	0.0	7.96551	7.04819	-11.7399	12.42318	13.05788	0.95342	1.04885	196.06861	176.73007	74.54536	0.3151	 	1.01287E23	 	2.44864E-23	 	-14693.71351	26.37691	 
230.0	1.0	0.0	7.96711	7.04678	-11.75756	12.39817	12.99161	0.94886	1.0539	196.34854	176.86034	74.65904	0.31497	 	1.88323E23	 	1.30401E-23	 	-14825.36094	26.32949	 
225.0	1.0	0.0	7.9687	7.04537	-11.77516	12.37315	12.92519	0.94426	1.05904	196.62801	176.99007	74.77255	0.31484	 	3.54534E23	 	6.85786E-24	 	-14956.77082	26.28198	 
220.0	1.0	0.0	7.97028	7.04397	-11.7927	12.34814	12.85862	0.93962	1.06426	196.907	177.11925	74.88591	0.31471	 	6.76061E23	 	3.56025E-24	 	-15087.94273	26.23438	 
215.0	1.0	0.0	7.97186	7.04258	-11.81017	12.32312	12.7919	0.93494	1.06959	197.18552	177.2479	74.9991	0.31459	 	1.30634E24	 	1.82383E-24	 	-15218.87621	26.18669	 
210.0	1.0	0.0	7.97343	7.04119	-11.82757	12.29811	12.72503	0.93023	1.07501	197.46357	177.37602	75.11213	0.31446	 	2.55886E24	 	9.21558E-25	 	-15349.57073	26.1389	 
205.0	1.0	0.0	7.975	7.0398	-11.84491	12.2731	12.65799	0.92548	1.08052	197.74114	177.50359	75.225	0.31433	 	5.083270000000001E24	 	4.591E-25	 	-15480.02575	26.091	 
200.0	1.0	0.0	7.97656	7.03842	-11.86218	12.24809	12.59079	0.92069	1.08615	198.01824	177.63064	75.3377	0.3142	 	1.02457E25	 	2.25395E-25	 	-15610.24069	26.04299	 
195.0	1.0	0.0	7.97812	7.03705	-11.87939	12.22307	12.52341	0.91586	1.09187	198.29487	177.75715	75.45025	0.31408	 	2.09624E25	 	1.09001E-25	 	-15740.21492	25.99485	 
190.0	1.0	0.0	7.97967	7.03568	-11.89653	12.19806	12.45586	0.91099	1.09771	198.57103	177.88312	75.56263	0.31395	 	4.35566E25	 	5.18985E-26	 	-15869.94774	25.94657	 
185.0	1.0	0.0	7.98122	7.03432	-11.9136	12.17305	12.38812	0.90608	1.10365	198.84671	178.00857	75.67485	0.31382	 	9.195990000000001E25	 	2.43162E-26	 	-15999.43843	25.89814	 
180.0	1.0	0.0	7.98276	7.03296	-11.93061	12.14804	12.32019	0.90114	1.10971	199.12192	178.13349	75.78691	0.3137	 	1.9738100000000003E26	 	1.12053E-26	 	-16128.68621	25.84956	 
175.0	1.0	0.0	7.9843	7.03161	-11.94756	12.12303	12.25206	0.89615	1.11589	199.39666	178.25788	75.89881	0.31357	 	4.3093800000000004E26	 	5.0757E-27	 	-16257.69024	25.80081	 
170.0	1.0	0.0	7.98583	7.03026	-11.96444	12.09802	12.18372	0.89112	1.12218	199.67093	178.38174	76.01055	0.31344	 	9.575810000000001E26	 	2.25872E-27	 	-16386.44962	25.75188	 
165.0	1.0	0.0	7.98735	7.02892	-11.98125	12.07301	12.11517	0.88605	1.1286	199.94473	178.50508	76.12212	0.31332	 	2.16696E27	 	9.86868E-28	 	-16514.96339	25.70275	 
160.0	1.0	0.0	7.98887	7.02758	-11.99799	12.048	12.0464	0.88094	1.13515	200.21805	178.62789	76.23353	0.31319	 	4.99705E27	 	4.23069E-28	 	-16643.23054	25.65343	 
155.0	1.0	0.0	7.99039	7.02625	-12.01467	12.02299	11.9774	0.87579	1.14183	200.49091	178.75018	76.34478	0.31306	 	1.17504E28	 	1.7784E-28	 	-16771.24997	25.60389	 
150.0	1.0	0.0	7.9919	7.02492	-12.03129	11.99798	11.90817	0.87059	1.14864	200.76329	178.87195	76.45587	0.31294	 	2.81947E28	 	7.32511E-29	 	-16899.02053	25.55411	 
145.0	1.0	0.0	7.9934	7.0236	-12.04784	11.97298	11.83868	0.86536	1.15559	201.03519	178.9932	76.56679	0.31281	 	6.9083E28	 	2.95425E-29	 	-17026.54096	25.50409	 
140.0	1.0	0.0	7.9949	7.02228	-12.06432	11.94797	11.76894	0.86007	1.16269	201.30663	179.11392	76.67756	0.31268	 	1.7298000000000003E29	 	1.16573E-29	 	-17153.80995	25.4538	 
135.0	1.0	0.0	7.99639	7.02097	-12.08074	11.92296	11.69894	0.85475	1.16993	201.5776	179.23413	76.78816	0.31256	 	4.4298400000000004E29	 	4.49696E-30	 	-17280.82609	25.40323	 
130.0	1.0	0.0	7.99788	7.01967	-12.09709	11.89795	11.62866	0.84938	1.17733	201.84809	179.35383	76.8986	0.31243	 	1.16121E30	 	1.69451E-30	 	-17407.58787	25.35236	 
125.0	1.0	0.0	7.99936	7.01837	-12.11338	11.87295	11.55809	0.84397	1.18488	202.11811	179.473	77.00887	0.3123	 	3.11848E30	 	6.23147E-31	 	-17534.0937	25.30117	 
120.0	1.0	0.0	8.00084	7.01707	-12.1296	11.84794	11.48722	0.83851	1.19259	202.38766	179.59167	77.11899	0.31218	 	8.58794E30	 	2.23438E-31	 	-17660.34188	25.24964	 
115.0	1.0	0.0	8.00231	7.01578	-12.14575	11.82294	11.41603	0.83301	1.20047	202.65674	179.70981	77.22894	0.31205	 	2.42756E31	 	7.804E-32	 	-17786.33058	25.19774	 
110.0	1.0	0.0	8.00378	7.01449	-12.16184	11.79793	11.34453	0.82746	1.20851	202.92535	179.82745	77.33873	0.31193	 	7.05063E31	 	2.65233E-32	 	-17912.05788	25.14546	 
105.0	1.0	0.0	8.00524	7.01322	-12.17787	11.77293	11.27268	0.82187	1.21674	203.19349	179.94458	77.44835	0.3118	 	2.10636E32	 	8.76232E-33	 	-18037.52173	25.09277	 
100.0	1.0	0.0	8.00669	7.01194	-12.19382	11.74792	11.20048	0.81623	1.22514	203.46115	180.06119	77.55781	0.31167	 	6.4799699999999996E32	 	2.81059E-33	 	-18162.71993	25.03964	 
95.0	1.0	0.0	8.00814	7.01067	-12.20972	11.72292	11.12791	0.81055	1.23374	203.72834	180.1773	77.66712	0.31155	 	2.05528E33	 	8.74259E-34	 	-18287.65014	24.98604	 
90.0	1.0	0.0	8.00958	7.00941	-12.22554	11.69792	11.05496	0.80481	1.24252	203.99506	180.2929	77.77625	0.31142	 	6.72936E33	 	2.6339E-34	 	-18412.30987	24.93195	 
85.0	1.0	0.0	8.01102	7.00815	-12.2413	11.67291	10.9816	0.79903	1.25151	204.26132	180.40799	77.88523	0.3113	 	2.2775E34	 	7.67526E-35	 	-18536.69649	24.87732	 
80.0	1.0	0.0	8.01246	7.0069	-12.257	11.64791	10.90782	0.79321	1.2607	204.52709	180.52258	77.99404	0.31117	 	7.978770000000001E34	 	2.16028E-35	 	-18660.80715	24.82213	 
75.0	1.0	0.0	8.01388	7.00565	-12.27263	11.62291	10.8336	0.78734	1.27011	204.7924	180.63667	78.10269	0.31105	 	2.8977E35	 	5.86408E-36	 	-18784.63885	24.76634	 
70.0	1.0	0.0	8.01531	7.00441	-12.28819	11.59791	10.75892	0.78141	1.27973	205.05724	180.75025	78.21118	0.31092	 	1.09268E36	 	1.53277E-36	 	-18908.18837	24.7099	 
65.0	1.0	0.0	8.01672	7.00317	-12.30369	11.57291	10.68375	0.77545	1.28958	205.3216	180.86333	78.3195	0.31079	 	4.28528E36	 	3.85138E-37	 	-19031.45226	24.65278	 
60.0	1.0	0.0	8.01813	7.00194	-12.31912	11.5479	10.60808	0.76943	1.29966	205.5855	180.97591	78.42766	0.31067	 	1.75098E37	 	9.28637E-38	 	-19154.42688	24.59492	 
55.0	1.0	0.0	8.01954	7.00071	-12.33449	11.5229	10.53187	0.76337	1.30999	205.84892	181.08799	78.53566	0.31054	 	7.46811E37	 	2.14461E-38	 	-19277.10831	24.53629	 
50.0	1.0	0.0	8.02094	6.99949	-12.34979	11.4979	10.45511	0.75725	1.32056	206.11187	181.19957	78.6435	0.31042	 	3.3314499999999996E38	 	4.73432E-39	 	-19399.49236	24.47681	 
45.0	1.0	0.0	8.02233	6.99827	-12.36503	11.47291	10.37775	0.75109	1.33139	206.37436	181.31065	78.75117	0.31029	 	1.5576500000000002E39	 	9.96895E-40	 	-19521.57455	24.41644	 
40.0	1.0	0.0	8.02372	6.99706	-12.38019	11.44791	10.29978	0.74489	1.34248	206.63637	181.42124	78.85867	0.31017	 	7.6506E39	 	1.99776E-40	 	-19643.3501	24.35511	 
35.0	1.0	0.0	8.02511	6.99585	-12.3953	11.42291	10.22115	0.73863	1.35385	206.89791	181.53134	78.96602	0.31004	 	3.95688E40	 	3.80099E-41	 	-19764.81387	24.29275	 
30.0	1.0	0.0	8.02648	6.99465	-12.41034	11.39791	10.14184	0.73233	1.3655	207.15897	181.64094	79.0732	0.30992	 	2.16049E41	 	6.84846E-42	 	-19885.96037	24.2293	 
25.0	1.0	0.0	8.02786	6.99346	-12.42531	 	10.0618	0.72598	1.37745	207.41957	181.75004	79.18022	0.30979	 	1.2487499999999999E42	 	1.16532E-42	 	-20006.78369	 	 
