T (C)	Fraction solid (wt)-TOTAL	Fraction liquid (wt)-LIQUID	Density (g/(cm)^3)-TOTAL	Molar volume (cm^3)-TOTAL	Volume change (%)-  	Average expansion coeff. (10e-6 1/K)-  	Thermal conductivity (W/(m*K))-TOTAL	Electrical resistivity (10e-6 Ohm*m)-TOTAL	Electrical conductivity (10e6 1/(Ohm*m))-TOTAL	Young's modulus (GPa)-TOTAL	Bulk modulus (GPa)-TOTAL	Shear modulus(GPa)-TOTAL	Poisson's ratio-TOTAL	Liquid viscosity (mPa s)-  	Total viscosity (mPa s)-  	Liquid diffusivity (10e-9 (m^2)/s)-  	Total diffusivity (10e-9 (m^2)/s)-  	Surface Tension (mN/m)-  	Enthalpy (J/mole)-TOTAL	Specific heat (J/(mole K))-TOTAL	Latent heat (J/mole)-TOTAL
1400.0	0.00313	0.99687	7.41054	8.02507	0.0	35.56124	31.96197	1.28253	0.77971	2.01032E-8	121.84845	6.7041E-9	0.49932	6.83931	6.83931	1.19401	1.19401	1779.34755	40141.504	 	0.0
1395.0	0.00339	0.99661	7.41518	8.02001	-0.0631288	35.5149	31.86859	1.28244	0.77976	2.75704E-8	122.02852	9.19464E-9	0.49926	6.91599	6.91599	1.17725	1.17725	1783.47485	39930.594	42.182	14.126
1390.0	0.00364	0.99636	7.41981	8.01497	-0.12587	35.4693	31.77534	1.28235	0.77982	3.6816E-8	122.20827	1.22785E-8	0.4992	6.99396	6.99396	1.16063	1.16063	1787.62544	39720.309	42.057	28.048
1385.0	0.00389	0.99611	7.42443	8.01006	-0.18706	35.42772	31.68232	1.28225	0.77988	4.80434E-8	122.38914	1.60235E-8	0.49915	7.07321	7.07321	1.14418	1.14418	1791.79582	39510.643	41.9332	41.768
1380.0	0.00413	0.99587	7.42903	8.00507	-0.24933	35.38281	31.5891	1.28216	0.77994	6.14719E-8	122.56728	2.0503E-8	0.4991	7.15384	7.15384	1.12787	1.12787	1795.99174	39301.595	41.8096	55.287
1375.0	0.00438	0.99562	7.43362	8.00016	-0.31051	35.34062	31.49618	1.28205	0.78	7.73044E-8	122.74613	2.57845E-8	0.49905	7.2358	7.2358	1.11172	1.11172	1800.20727	39093.159	41.6872	68.607
1370.0	0.00461	0.99539	7.43818	7.99522	-0.37198	35.29733	31.40321	1.28194	0.78006	9.57427E-8	122.92342	3.19356E-8	0.49899	7.31915	7.31915	1.09573	1.09573	1804.44512	38885.332	41.5654	81.727
1365.0	0.00485	0.99515	7.44273	7.99033	-0.43291	35.25522	31.31034	1.28183	0.78013	1.16983E-7	123.10045	3.90217E-8	0.49894	7.40394	7.40394	1.07989	1.07989	1808.70262	38678.11	41.4444	94.65
1360.0	0.00508	0.99492	7.44727	7.98541	-0.4942	35.21178	31.21742	1.28173	0.7802	1.41215E-7	123.27599	4.71066E-8	0.49889	7.49019	7.49019	1.06419	1.06419	1812.98137	38471.489	41.3242	107.378
1355.0	0.00531	0.99469	7.4518	7.98061	-0.5541	35.17202	31.12478	1.28161	0.78027	1.68602E-7	123.45251	5.62441E-8	0.49884	7.57792	7.57792	1.04865	1.04865	1817.27628	38265.465	41.2048	119.91
1350.0	0.00553	0.99447	7.4563	7.97578	-0.61432	35.13103	31.03207	1.28149	0.78034	1.99353E-7	123.62736	6.65044E-8	0.49879	7.66717	7.66717	1.03326	1.03326	1821.59106	38060.035	41.086	132.249
1345.0	0.00575	0.99425	7.46087	7.97095	-0.67442	35.09006	30.93959	1.28136	0.78042	2.33598E-7	123.80307	7.79311E-8	0.49875	7.75812	7.75812	1.018	1.018	1825.92398	37855.195	40.968	144.392
1340.0	0.00597	0.99403	7.46534	7.96611	-0.73475	35.04812	30.84701	1.28123	0.7805	2.71494E-7	123.97583	9.05767E-8	0.49869	7.85053	7.85053	1.00291	1.00291	1830.27532	37650.94	40.851	156.345
1335.0	0.00619	0.99381	7.46979	7.96131	-0.79452	35.00749	30.75448	1.2811	0.78058	3.13174E-7	124.14842	1.04486E-7	0.49865	7.94453	7.94453	0.98797	0.98797	1834.64238	37447.268	40.7344	168.108
1334.99	0.00619	0.99381	7.4698	7.96131	-0.79462	35.0074	30.75433	1.2811	0.78058	3.13237E-7	124.14865	1.04507E-7	0.49865	7.94468	8.00894	0.98795	0.98002	1834.64907	37446.957	40.86728	168.128
1330.0	0.13219	0.86781	7.51946	7.90876	-1.44938	33.22356	31.08471	1.26355	0.79142	0.0253158	128.53788	0.00853332	0.48335	8.05986	13.93244	0.97081	0.56161	1838.31777	35352.77948	419.47394	2070.127
1325.0	0.23418	0.76582	7.56055	7.86579	-1.98487	31.77688	31.34847	1.24901	0.80063	0.28085	132.30869	0.095477	0.47077	8.1772	56.26521	0.95389	0.13863	1842.00593	33632.44253	344.06739	3598.121
1320.0	0.31803	0.68197	7.59502	7.8301	-2.42958	30.58696	31.56083	1.23673	0.80859	1.01095	135.43538	0.34615	0.46028	8.29664	174.455	0.93722	0.0445718	1845.70398	32195.08849	287.47081	4843.543
1315.0	0.388	0.612	7.62442	7.79998	-2.80487	29.59352	31.73297	1.22616	0.81555	2.32601	138.07263	0.80129	0.45141	8.41853	392.13407	0.92075	0.0197671	1849.40842	30973.89902	244.23789	5873.212
1310.0	0.45694	0.54306	7.65246	7.7714	-3.16106	28.64918	31.90643	1.21565	0.8226	4.62205	140.74241	1.60207	0.44252	8.54818	784.45714	0.90393	0.00985008	1852.96977	29762.02664	242.37448	6893.97
1305.0	0.53894	0.46106	7.68336	7.74014	-3.55061	27.59783	32.13315	1.20326	0.83107	9.25734	143.99782	3.2329	0.43174	8.69302	1592.57313	0.88606	0.00483655	1856.14075	28339.1809	284.56915	8126.105
1300.0	0.60337	0.39663	7.70826	7.71509	-3.86275	26.77028	32.30366	1.19312	0.83814	14.91931	146.58129	5.24161	0.42316	8.83798	2637.26799	0.86877	0.0029114	1859.30791	27194.35033	228.96611	9080.628
1295.0	0.65501	0.34499	7.72881	7.69446	-4.11973	26.10224	32.43017	1.18469	0.8441	21.13686	148.67682	7.46255	0.4162	8.98357	3869.33454	0.85197	0.00197805	1862.47632	26250.28552	188.81296	9834.783
1290.0	0.69712	0.30288	7.74606	7.67723	-4.3345	25.55648	32.52243	1.17756	0.84921	27.55321	150.41098	9.76753	0.41045	9.12978	5251.23615	0.83565	0.00145287	1865.63585	25454.51704	159.1537	10441.038
1285.0	0.73197	0.26803	7.7608	7.6625	-4.51804	25.10112	32.58749	1.17145	0.85364	33.93218	151.87039	12.07007	0.40563	9.27695	6758.37666	0.81977	0.00112526	1868.79187	24770.58542	136.78632	10935.848
1280.0	0.76119	0.23881	7.77357	7.64973	-4.67715	24.71653	32.63076	1.16614	0.85753	40.12489	153.11853	14.31454	0.40154	9.4253	8376.4922	0.80428	9.04978E-4	1871.94158	24172.33819	119.64945	11345.105
1275.0	0.78596	0.21404	7.78479	7.6385	-4.81707	24.38755	32.65637	1.16148	0.86097	46.04953	154.2008	16.46945	0.39803	9.57495	10099.60212	0.78916	7.48162E-4	1875.08121	23640.96111	106.27542	11687.577
1270.0	0.80718	0.19282	7.79478	7.6285	-4.94166	24.10297	32.66732	1.15734	0.86405	51.6604	155.15068	18.51657	0.39498	9.72624	11925.70892	0.77437	6.31554E-4	1878.21331	23162.90983	95.61026	11977.125
1265.0	0.8255	0.1745	7.80375	7.61951	-5.05374	23.85466	32.66622	1.15363	0.86683	56.94512	155.99402	20.44999	0.3923	9.87917	13859.09293	0.75991	5.4169E-4	1881.33403	22727.76438	87.02909	12224.168
1260.0	0.84147	0.15853	7.81188	7.61131	-5.15595	23.63493	32.65493	1.15028	0.86936	61.90402	156.74973	22.26869	0.38993	10.03406	15905.1562	0.74575	4.70472E-4	1884.44963	22327.571	80.03868	12436.656
1255.0	0.85547	0.14453	7.81931	7.6038	-5.24948	23.44033	32.63504	1.14722	0.87167	66.54512	157.43319	23.9746	0.38783	10.19077	18071.89854	0.73189	4.12714E-4	1887.55105	21956.16877	74.28045	12620.746
1250.0	0.86783	0.13217	7.82617	7.59687	-5.3358	23.26669	32.60788	1.14442	0.8738	70.88739	158.05697	25.57388	0.38593	10.34971	20370.59809	0.71829	3.64943E-4	1890.63691	21608.7248	69.48879	12781.268
1245.0	0.87879	0.12121	7.83253	7.59041	-5.41629	23.10987	32.57445	1.14184	0.87578	74.95032	158.6299	27.07306	0.38422	10.5109	22812.91041	0.70496	3.24803E-4	1893.71267	21281.40328	65.4643	12922.057
1240.0	0.88858	0.11142	7.83847	7.58437	-5.49161	22.96801	32.53559	1.13943	0.87763	78.75148	159.15984	28.47806	0.38267	10.67449	25411.78091	0.69187	2.90625E-4	1896.77377	20971.12324	62.05601	13046.187
1235.0	0.89756	0.10244	7.84428	7.57846	-5.5652	22.83044	32.49101	1.13723	0.87933	82.38205	159.65769	29.8222	0.38122	10.82902	28203.6728	0.67974	2.60991E-4	1899.80759	20669.17097	60.39045	13162.372
1230.0	0.90582	0.0941777	7.85587	7.57012	-5.66921	22.59524	32.21153	1.14329	0.87467	86.20653	159.84268	31.25254	0.37919	11.01764	31688.85234	0.66589	2.31517E-4	1902.83559	20250.78258	83.67768	13285.617
1225.0	0.91322	0.0867823	7.86945	7.56098	-5.78303	22.32686	31.83835	1.15284	0.86742	89.92881	159.85742	32.65383	0.377	11.21764	35741.77639	0.65184	2.04581E-4	1905.85136	19791.13377	91.92976	13397.757
1220.0	0.91983	0.0801676	7.88195	7.55226	-5.89173	22.07258	31.48406	1.16193	0.86064	80.10315	159.84702	29.12892	0.37498	11.42116	40169.435	0.63809	1.81424E-4	1908.85401	19351.19528	87.9877	13496.906
1215.0	0.92577	0.0742251	7.89346	7.54391	-5.99577	21.83116	31.14531	1.17063	0.85424	85.43257	159.8181	31.10947	0.3731	11.62851	45010.99767	0.62461	1.61367E-4	1911.83825	18928.70341	84.49837	13585.011
1210.0	0.93114	0.0688581	7.90408	7.5359	-6.09558	21.60131	30.82279	1.17891	0.84824	91.05951	159.77537	33.20079	0.37135	11.83948	50308.76936	0.61142	1.43889E-4	1914.80317	18521.76492	81.3877	13663.664
1205.0	0.93601	0.0639909	7.91389	7.52819	-6.19161	21.38181	30.51508	1.18678	0.84262	96.06262	159.72258	35.06675	0.36971	12.05436	56109.20119	0.5985	1.28579E-4	1917.75029	18128.78535	78.59591	13734.174
1200.0	0.94044	0.0595593	7.92297	7.52076	-6.2842	21.17157	30.22096	1.19428	0.83733	100.32582	159.66284	36.66396	0.36818	12.27332	62463.69967	0.58583	1.15108E-4	1920.68058	17748.40423	76.07622	13797.629
1195.0	0.94449	0.0555083	7.93138	7.51359	-6.37352	20.97025	29.93941	1.20142	0.83235	103.96419	159.59841	38.03351	0.36674	12.49615	69428.08824	0.57343	1.0321E-4	1923.58747	17379.45651	73.78954	13854.942
1190.0	0.94821	0.0517935	7.93967	7.50651	-6.46182	20.77056	29.6618	1.20853	0.82745	107.13569	159.5248	39.23302	0.36538	12.72321	77103.6918	0.56128	9.26191E-5	1926.47522	17014.82087	72.92713	13906.877
1185.0	0.95168	0.0483193	7.94711	7.49976	-6.54597	20.58278	29.3982	1.2152	0.82291	109.93629	159.45283	40.29653	0.36409	12.93151	85494.06812	0.55035	8.3244E-5	1929.39461	16660.57453	70.84927	13958.831
1180.0	0.95503	0.0449701	7.95436	7.49317	-6.62798	20.40049	29.13755	1.22187	0.81842	112.50012	159.37663	41.27382	0.36285	13.10017	94731.54233	0.5414	7.48691E-5	1932.38034	16305.88643	70.93762	14015.888
1175.0	0.95812	0.0418821	7.96111	7.48682	-6.70715	20.22604	28.88817	1.22817	0.81422	114.82607	159.30308	42.16338	0.36168	13.27438	104871.4101	0.53246	6.73974E-5	1935.34251	15960.64909	69.04747	14067.94
1170.0	0.96097	0.0390264	7.96741	7.48068	-6.78368	20.0589	28.64912	1.23415	0.81028	116.95942	159.23275	42.98168	0.36057	13.45455	116005.1021	0.52351	6.07185E-5	1938.27825	15624.10676	67.30847	14115.546
1165.0	0.96362	0.0363785	7.97332	7.47474	-6.85774	19.89858	28.41955	1.2398	0.80658	118.93554	159.16621	43.7416	0.35952	13.6405	128235.5298	0.51459	5.47372E-5	1941.18247	15295.58858	65.70364	14159.187
1160.0	0.96608	0.0339181	7.97886	7.46897	-6.92963	19.74411	28.19871	1.24517	0.8031	120.77854	159.10363	44.45196	0.35853	13.83277	141675.0907	0.50567	4.93725E-5	1944.06385	14974.49921	64.21787	14199.282
1155.0	0.96837	0.031626	7.98407	7.46336	-6.99945	19.5953	27.98596	1.25026	0.79983	122.50774	159.04555	45.11982	0.35758	14.03097	156449.5879	0.49679	4.45539E-5	1946.91362	14660.30406	62.83903	14236.194
1150.0	0.97051	0.0294884	7.98898	7.45791	-7.06737	19.45163	27.78073	1.25508	0.79676	124.13719	158.99197	45.75032	0.35668	14.23553	172696.7347	0.48794	4.0221E-5	1949.7329	14352.52574	61.55566	14270.244
1145.0	0.97251	0.0274901	7.99363	7.4526	-7.13353	19.31268	27.58246	1.25967	0.79386	125.6787	158.94312	46.34781	0.35582	14.44668	190569.807	0.47912	3.63207E-5	1952.52202	14050.73054	60.35904	14301.713
1140.0	0.97447	0.0255279	7.99803	7.44735	-7.19895	19.17501	27.39273	1.26392	0.79119	127.14467	158.90487	46.91737	0.35499	14.67646	210324.6887	0.46995	3.27933E-5	1955.30493	13753.25275	59.49556	14332.127
1135.0	0.97648	0.02352	8.00222	7.44211	-7.26432	19.03631	27.21226	1.2678	0.78877	128.54835	158.88168	47.46434	0.35416	14.93573	232252.086	0.46016	2.95921E-5	1958.08815	13458.42743	58.96506	14363.013
1130.0	0.97834	0.0216562	8.00618	7.437	-7.32793	18.9024	27.03757	1.27146	0.7865	129.87589	158.86149	47.98245	0.35337	15.20263	256387.0281	0.45048	2.67113E-5	1960.84021	13169.03278	57.87893	14391.467
1125.0	0.98008	0.0199214	8.00992	7.43202	-7.39001	18.7726	26.86819	1.27492	0.78437	131.13632	158.84457	48.47509	0.35262	15.47777	282966.6417	0.44089	2.4116E-5	1963.56686	12884.69477	56.8676	14417.742
1120.0	0.9817	0.0183027	8.01348	7.42716	-7.45057	18.64692	26.70359	1.27819	0.78236	132.33545	158.83116	48.9444	0.3519	15.76091	312250.2128	0.43142	2.17762E-5	1966.25682	12605.08069	55.92282	14442.057
1115.0	0.98321	0.0167881	8.01687	7.42241	-7.50981	18.52474	26.54335	1.28129	0.78046	133.48022	158.82141	49.393	0.35121	16.053	344529.2228	0.42205	1.96651E-5	1968.92028	12329.88679	55.03878	14464.607
1110.0	0.98463	0.0153703	8.0201	7.41776	-7.56777	18.40593	26.38716	1.28423	0.77868	134.57521	158.81529	49.82258	0.35054	16.35388	380125.3423	0.4128	1.77594E-5	1971.55046	12058.83995	54.20937	14485.56
1105.0	0.98596	0.0140393	8.0232	7.4132	-7.62451	18.29031	26.23477	1.28702	0.77699	135.6258	158.81299	50.23517	0.34991	16.6639	419398.1184	0.40365	1.60382E-5	1974.14291	11791.69324	53.42934	14505.068
1100.0	0.98721	0.0127878	8.02616	7.40873	-7.68018	18.17745	26.08596	1.28967	0.77539	136.63763	158.81453	50.63287	0.3493	16.98336	462750.0141	0.39462	1.4483E-5	1976.70328	11528.21977	52.69469	14523.266
1090.0	0.99008	0.00991583	8.03167	7.39959	-7.79411	17.93925	25.79473	1.29473	0.77236	138.95687	158.8562	51.54056	0.34803	17.68626	564891.0861	0.37618	1.17778E-5	1981.31488	10996.12478	53.2095	14571.545
1085.0	0.99151	0.00848675	8.03421	7.39505	-7.85073	17.81967	25.65313	1.2971	0.77095	140.15485	158.88795	52.00878	0.34742	18.0638	624489.1271	0.36697	1.06147E-5	1983.44946	10732.03159	52.81864	14596.936
1080.0	0.99281	0.00719181	8.03664	7.39062	-7.9059	17.70425	25.51486	1.29933	0.76963	141.30429	158.92077	52.45817	0.34683	18.45148	690281.3346	0.35793	9.56768E-6	1985.56618	10472.64776	51.87677	14619.654
1075.0	0.99399	0.00601253	8.03896	7.3863	-7.95973	17.59259	25.37965	1.30142	0.76839	142.42934	158.95484	52.89776	0.34627	18.84945	762962.6761	0.34908	8.62426E-6	1987.66809	10217.52903	51.02375	14640.069
1070.0	0.99507	0.00493367	8.04119	7.38208	-8.01237	17.48422	25.24332	1.3036	0.76711	143.56083	158.99067	53.3391	0.34574	19.25829	843320.9016	0.3404	7.77353E-6	1989.75079	9966.30058	50.24569	14658.489
1065.0	0.99606	0.00394327	8.04335	7.37794	-8.0639	17.37891	25.11335	1.30547	0.76601	144.7259	159.02852	53.79236	0.34523	19.6779	932227.0931	0.3319	7.00599E-6	1991.8148	9718.63981	49.53215	14675.171
1060.0	0.99697	0.00303153	8.04544	7.37389	-8.11441	17.27632	24.98587	1.30723	0.76498	145.9337	159.06851	54.26101	0.34474	20.10872	1030658.33	0.32358	6.31322E-6	1993.85398	9474.27017	48.87393	14690.331
1055.0	0.99781	0.00218755	8.04748	7.36991	-8.16398	17.17622	24.85988	1.30892	0.76399	147.14739	159.11081	54.73142	0.34427	20.55172	1139705.985	0.31542	5.68776E-6	1995.87824	9232.949	48.26423	14704.149
1050.0	0.99859	0.00140587	8.04946	7.366	-8.21269	17.07839	24.73719	1.31046	0.76309	148.27838	159.15559	55.17069	0.34381	21.00682	1260598.932	0.30742	5.12294E-6	1997.87983	8994.46531	47.69674	14716.783
1045.0	0.99932	6.78874E-4	8.0514	7.36216	-8.26057	16.98268	24.61681	1.3119	0.76226	149.24338	159.20287	55.54781	0.34338	21.47438	1394704.482	0.29959	4.61285E-6	1999.86262	8758.62975	47.16711	14728.365
1040.0	1.0	0.0	8.0533	7.35838	-8.30769	16.88887	24.49918	1.31319	0.7615	150.05934	159.25287	55.86909	0.34295	 	1543574.065	 	4.15216E-6	 	8525.27826	46.6703	14739.01
1035.0	1.0	0.0	8.05675	7.35523	-8.3469	16.8241	24.38131	1.31452	0.76074	150.39805	159.2776	56.00896	0.34262	 	1716704.859	 	3.71919E-6	 	8627.85332	-20.51501	 
1030.0	1.0	0.0	8.06017	7.35211	-8.38575	16.76006	24.26545	1.31575	0.76002	150.73452	159.30607	56.14781	0.3423	 	1910841.898	 	3.32856E-6	 	8428.43097	39.88447	 
1025.0	1.0	0.0	8.06355	7.34902	-8.42424	16.69672	24.15151	1.31688	0.75937	151.06893	159.33819	56.28571	0.34198	 	2128721.746	 	2.97641E-6	 	8230.24306	39.63758	 
1020.0	1.0	0.0	8.06692	7.34596	-8.4624	16.63406	24.03942	1.31793	0.75877	151.40142	159.37386	56.42273	0.34167	 	2373461.477	 	2.65921E-6	 	8033.25126	39.39836	 
1015.0	1.0	0.0	8.07025	7.34293	-8.50022	16.57204	23.9291	1.31888	0.75822	151.73214	159.413	56.55891	0.34136	 	2648614.914	 	2.37375E-6	 	7837.41885	39.16648	 
1010.0	1.0	0.0	8.07356	7.33992	-8.53772	16.51063	23.82048	1.31975	0.75772	152.06121	159.45553	56.69432	0.34106	 	2958237.537	 	2.11705E-6	 	7642.71073	38.94162	 
1005.0	1.0	0.0	8.07684	7.33693	-8.57491	16.44982	23.71351	1.32054	0.75727	152.38877	159.50135	56.82902	0.34077	 	3306961.582	 	1.88642E-6	 	7449.09326	38.7235	 
1000.0	1.0	0.0	8.0801	7.33397	-8.6118	16.38957	23.60811	1.32125	0.75686	152.71492	159.55039	56.96304	0.34047	 	3700083.45	 	1.6794E-6	 	7256.53419	38.51181	 
995.0	1.0	0.0	8.08334	7.33104	-8.64839	16.32987	23.50424	1.32188	0.7565	153.03979	159.60258	57.09645	0.34019	 	4143664.396	 	1.49373E-6	 	7065.00267	38.30631	 
990.0	1.0	0.0	8.08655	7.32812	-8.68469	16.27068	23.40183	1.32243	0.75619	153.36348	159.65783	57.22928	0.3399	 	4644648.039	 	1.32736E-6	 	6874.46904	38.10673	 
985.0	1.0	0.0	8.08974	7.32523	-8.72071	16.212	23.30084	1.3229	0.75592	153.68609	159.71607	57.36158	0.33963	 	5210996.641	 	1.17842E-6	 	6684.90489	37.91283	 
980.26	1.0	0.0	8.09275	7.32251	-8.75459	16.15684	23.20642	1.32328	0.7557	153.9908	159.77395	57.48645	0.33937	 	5816050.512	 	1.05185E-6	 	6506.20186	 	 
980.0	1.0	0.0	8.09292	7.32236	-8.75648	16.15372	23.20126	1.3233	0.75569	154.008	159.77699	57.49351	0.33935	 	5851843.482	 	1.04519E-6	 	6496.23591	37.7338	 
975.0	1.0	0.0	8.09609	7.31949	-8.79226	16.09477	23.10401	1.32357	0.75553	154.3341	159.83626	57.62732	0.33907	 	6577551.165	 	9.26167E-7	 	6307.65827	37.71553	 
970.0	1.0	0.0	8.09924	7.31664	-8.82777	16.03632	23.008	1.32376	0.75542	154.65938	159.8987	57.76069	0.33879	 	7400268.859	 	8.19903E-7	 	6120.02921	37.52581	 
965.0	1.0	0.0	8.10237	7.31381	-8.863	15.97836	22.91326	1.32389	0.75535	154.9839	159.96421	57.89366	0.33852	 	8333883.221	 	7.25124E-7	 	5933.32038	37.34177	 
960.0	1.0	0.0	8.10548	7.31101	-8.89797	15.92084	22.81976	1.32395	0.75532	155.30776	160.03272	58.02626	0.33825	 	9394398.91	 	6.40669E-7	 	5747.50473	37.16313	 
955.0	1.0	0.0	8.10857	7.30822	-8.93268	15.86377	22.72747	1.32393	0.75532	155.63103	160.10414	58.15853	0.33799	 	1.06002799E7	 	5.65485E-7	 	5562.55642	36.98966	 
950.0	1.0	0.0	8.11164	7.30545	-8.96715	15.8071	22.63634	1.32385	0.75537	155.95378	160.17841	58.29049	0.33773	 	1.197285007E7	 	4.98619E-7	 	5378.45076	36.82113	 
945.0	1.0	0.0	8.11469	7.30271	-9.00137	15.75083	22.54634	1.3237	0.75546	156.27608	160.25545	58.42219	0.33747	 	1.35367639E7	 	4.3921E-7	 	5195.16409	36.65733	 
940.0	1.0	0.0	8.11773	7.29998	-9.03536	15.69493	22.45742	1.32349	0.75558	156.59799	160.33519	58.55365	0.33722	 	1.532055622E7	 	3.8648E-7	 	5012.67377	36.49806	 
935.0	1.0	0.0	8.12074	7.29727	-9.06911	15.63938	22.36954	1.32321	0.75574	156.91958	160.41758	58.68489	0.33697	 	1.735729077E7	 	3.39724E-7	 	4830.95809	36.34314	 
930.0	1.0	0.0	8.12373	7.29458	-9.10264	15.58417	22.28267	1.32287	0.75593	157.24091	160.50254	58.81594	0.33672	 	1.968532159E7	 	2.98307E-7	 	4649.99617	36.19238	 
925.0	1.0	0.0	8.12671	7.29191	-9.13595	15.52928	22.19678	1.32247	0.75616	157.56203	160.59002	58.94683	0.33648	 	2.234918847E7	 	2.61659E-7	 	4469.76803	36.04563	 
920.0	1.0	0.0	8.12967	7.28925	-9.16905	15.4747	22.11182	1.32202	0.75642	157.88299	160.67996	59.07758	0.33623	 	2.540067437E7	 	2.29264E-7	 	4290.25443	35.90272	 
918.82	1.0	0.0	8.13037	7.28863	-9.17681	15.46188	22.09194	1.3219	0.75649	157.95859	160.7015	59.10836	0.33618	 	2.618229993E7	 	2.222E-7	 	4248.06624	 	 
915.0	1.0	0.0	8.13261	7.28662	-9.20181	15.42094	22.02684	1.32155	0.75668	158.20052	160.77442	59.20671	0.336	 	2.890116773E7	 	2.00652E-7	 	4111.8043	35.69003	 
910.0	1.0	0.0	8.13552	7.28401	-9.23433	15.3676	21.94242	1.32106	0.75697	158.51693	160.87172	59.33528	0.33577	 	3.292056918E7	 	1.75412E-7	 	3934.12514	35.53583	 
905.0	1.0	0.0	8.13842	7.28142	-9.26666	15.31447	21.85885	1.3205	0.75729	158.8333	160.97112	59.46377	0.33555	 	3.754064929E7	 	1.53174E-7	 	3757.08305	35.40842	 
900.0	1.0	0.0	8.1413	7.27884	-9.29881	15.26155	21.77608	1.3199	0.75764	159.14968	161.07258	59.5922	0.33532	 	4.285728133E7	 	1.33603E-7	 	3580.66299	35.28401	 
895.0	1.0	0.0	8.14417	7.27627	-9.33077	15.20884	21.6941	1.31924	0.75801	159.46609	161.17607	59.72059	0.3351	 	4.898259823E7	 	1.16397E-7	 	3404.84995	35.16261	 
890.0	1.0	0.0	8.14703	7.27372	-9.36256	15.1563	21.61289	1.31853	0.75842	159.78259	161.28154	59.84894	0.33488	 	5.604791055E7	 	1.01289E-7	 	3229.62985	35.04402	 
885.0	1.0	0.0	8.14987	7.27119	-9.39417	15.10393	21.53243	1.31776	0.75886	160.0992	161.38896	59.97729	0.33467	 	6.420717821E7	 	8.80375E-8	 	3054.98891	34.92819	 
880.0	1.0	0.0	8.1527	7.26866	-9.4256	15.05173	21.4527	1.31695	0.75933	160.41596	161.4983	60.10563	0.33445	 	7.364114263E7	 	7.64279E-8	 	2880.91371	34.81504	 
875.0	1.0	0.0	8.15552	7.26615	-9.45687	14.99967	21.37367	1.31609	0.75983	160.73291	161.60951	60.234	0.33424	 	8.456225254E7	 	6.62688E-8	 	2707.39134	34.70447	 
870.0	1.0	0.0	8.15832	7.26366	-9.48797	14.94775	21.29533	1.31518	0.76035	161.05006	161.72257	60.3624	0.33403	 	9.722054742E7	 	5.73894E-8	 	2534.40946	34.59638	 
865.0	1.0	0.0	8.16111	7.26118	-9.5189	14.89594	21.21767	1.31422	0.76091	161.36746	161.83745	60.49084	0.33382	 	1.119106867E8	 	4.9638E-8	 	2361.95597	34.4907	 
860.0	1.0	0.0	8.16388	7.25871	-9.54968	14.84426	21.14066	1.31321	0.76149	161.68513	161.9541	60.61934	0.33361	 	1.28980371E8	 	4.28796E-8	 	2190.01912	34.38737	 
855.0	1.0	0.0	8.16665	7.25625	-9.5803	14.79267	21.06429	1.31216	0.7621	162.0031	162.0725	60.74791	0.3334	 	1.488404284E8	 	3.69941E-8	 	2018.58754	34.28632	 
850.0	1.0	0.0	8.1694	7.2538	-9.61077	14.74118	20.98855	1.31106	0.76274	162.32139	162.19263	60.87656	0.3332	 	1.719769253E8	 	3.18753E-8	 	1847.65018	34.18747	 
845.0	1.0	0.0	8.17159	7.25186	-9.63493	14.71844	20.92764	1.30902	0.76393	162.64868	162.38163	61.0058	0.33306	 	1.952565122E8	 	2.795E-8	 	1701.93232	29.14357	 
840.0	1.0	0.0	8.17377	7.24993	-9.65903	14.69569	20.86672	1.30697	0.76513	162.9754	162.56981	61.13484	0.33292	 	2.219403077E8	 	2.44796E-8	 	1553.42061	29.70234	 
835.0	1.0	0.0	8.17594	7.248	-9.68308	14.67294	20.80579	1.30491	0.76634	163.30156	162.75717	61.2637	0.33278	 	2.52562492E8	 	2.14149E-8	 	1405.09003	29.66612	 
830.0	1.0	0.0	8.17811	7.24608	-9.70706	14.65019	20.74485	1.30284	0.76756	163.62716	162.94372	61.39237	0.33263	 	2.877467084E8	 	1.87116E-8	 	1256.93989	29.63003	 
825.0	1.0	0.0	8.18028	7.24416	-9.73099	14.62742	20.68389	1.30075	0.76878	163.95219	163.12945	61.52085	0.33249	 	3.282219828E8	 	1.63298E-8	 	1108.96947	29.59408	 
820.0	1.0	0.0	8.18245	7.24224	-9.75486	14.60466	20.62292	1.29866	0.77002	164.27665	163.31438	61.64915	0.33235	 	3.748416432E8	 	1.42337E-8	 	961.17803	29.55829	 
815.0	1.0	0.0	8.18461	7.24033	-9.77867	14.58188	20.56194	1.29655	0.77127	164.60055	163.49849	61.77726	0.33221	 	4.286058327E8	 	1.23913E-8	 	813.56477	29.52265	 
810.0	1.0	0.0	8.18676	7.23842	-9.80242	14.55911	20.50094	1.29444	0.77254	164.92388	163.6818	61.90518	0.33207	 	4.906883386E8	 	1.07738E-8	 	666.1289	29.48717	 
805.0	1.0	0.0	8.18891	7.23652	-9.82612	14.53632	20.43993	1.29231	0.77381	165.24665	163.8643	62.03291	0.33193	 	5.624686096E8	 	9.35551E-9	 	518.86955	29.45187	 
800.0	1.0	0.0	8.19106	7.23462	-9.84975	14.51353	20.3789	1.29017	0.77509	165.56885	164.046	62.16045	0.33179	 	6.45570019E8	 	8.11342E-9	 	371.78587	29.41674	 
795.0	1.0	0.0	8.1932	7.23273	-9.87333	14.49074	20.31786	1.28801	0.77639	165.89049	164.2269	62.2878	0.33165	 	7.419056597E8	 	7.02701E-9	 	224.8769	29.38179	 
790.0	1.0	0.0	8.19534	7.23085	-9.89685	14.46794	20.25681	1.28585	0.7777	166.21156	164.40701	62.41497	0.3315	 	8.537332351E8	 	6.07798E-9	 	78.14169	29.34704	 
785.0	1.0	0.0	8.19747	7.22896	-9.92031	14.44514	20.19574	1.28367	0.77902	166.53207	164.58632	62.54195	0.33136	 	9.837209491E8	 	5.25003E-9	 	-68.42077	29.31249	 
780.0	1.0	0.0	8.1996	7.22708	-9.94371	14.42233	20.13465	1.28148	0.78035	166.85201	164.76484	62.66874	0.33122	 	1.135026723E9	 	4.52867E-9	 	-214.81154	29.27815	 
775.0	1.0	0.0	8.20173	7.22521	-9.96705	14.39951	20.07355	1.27928	0.78169	167.17139	164.94257	62.79534	0.33108	 	1.311393574E9	 	3.90101E-9	 	-361.03173	29.24404	 
770.0	1.0	0.0	8.20385	7.22334	-9.99034	14.37669	20.01244	1.27706	0.78305	167.4902	165.11951	62.92175	0.33094	 	1.517264647E9	 	3.35562E-9	 	-507.0825	29.21016	 
765.0	1.0	0.0	8.20597	7.22148	-10.01356	14.35386	19.95131	1.27484	0.78441	167.80845	165.29566	63.04797	0.3308	 	1.757922144E9	 	2.88235E-9	 	-652.96507	29.17651	 
760.0	1.0	0.0	8.20808	7.21962	-10.03673	14.33103	19.89016	1.2726	0.78579	168.12613	165.47103	63.17401	0.33066	 	2.039655414E9	 	2.47226E-9	 	-798.68072	29.14313	 
755.0	1.0	0.0	8.21019	7.21777	-10.05984	14.30819	19.829	1.27035	0.78719	168.44325	165.64562	63.29985	0.33052	 	2.369964631E9	 	2.11739E-9	 	-944.2308	29.11002	 
750.0	1.0	0.0	8.2123	7.21592	-10.08289	14.28535	19.76782	1.26808	0.78859	168.7598	165.81943	63.42551	0.33038	 	2.75780801E9	 	1.81076E-9	 	-1089.61672	29.07718	 
745.0	1.0	0.0	8.2144	7.21407	-10.10588	14.2625	19.70663	1.2658	0.79001	169.07579	165.99246	63.55098	0.33024	 	3.213902374E9	 	1.5462E-9	 	-1234.83996	29.04465	 
740.0	1.0	0.0	8.21649	7.21223	-10.12881	14.23965	19.64542	1.26351	0.79145	169.39121	166.16471	63.67626	0.3301	 	3.751089199E9	 	1.31827E-9	 	-1379.90211	29.01243	 
735.0	1.0	0.0	8.21858	7.21039	-10.15168	14.21679	19.58419	1.2612	0.79289	169.70607	166.3362	63.80135	0.32996	 	4.384781163E9	 	1.12218E-9	 	-1524.8048	28.98054	 
730.0	1.0	0.0	8.22067	7.20856	-10.1745	14.19392	19.52295	1.25889	0.79435	170.02037	166.50691	63.92625	0.32982	 	5.133507865E9	 	9.53758E-10	 	-1669.54976	28.94899	 
725.0	1.0	0.0	8.22276	7.20674	-10.19725	14.17105	19.46168	1.25655	0.79583	170.3341	166.67686	64.05096	0.32968	 	6.019583904E9	 	8.09312E-10	 	-1814.13886	28.91782	 
720.0	1.0	0.0	8.22483	7.20492	-10.21995	14.14818	19.4004	1.25421	0.79731	170.64727	166.84603	64.17549	0.32954	 	7.069928223E9	 	6.85625E-10	 	-1958.574	28.88703	 
715.0	1.0	0.0	8.22691	7.2031	-10.24259	14.1253	19.3391	1.25185	0.79882	170.95987	167.01445	64.29982	0.3294	 	8.317070806E9	 	5.79881E-10	 	-2102.85725	28.85665	 
710.0	1.0	0.0	8.22898	7.20129	-10.26517	14.10241	19.27779	1.24948	0.80033	171.27191	167.1821	64.42397	0.32926	 	9.800391821E9	 	4.89624E-10	 	-2246.99076	28.8267	 
705.0	1.0	0.0	8.23104	7.19948	-10.28769	14.07952	19.21645	1.24709	0.80187	171.58338	167.34899	64.54792	0.32912	 	1.15676E10	 	4.12712E-10	 	-2390.97681	28.79721	 
700.0	1.0	0.0	8.23311	7.19768	-10.31015	14.05662	19.1551	1.24469	0.80341	171.89429	167.51513	64.67169	0.32898	 	1.3676899999999998E10	 	3.4728E-10	 	-2534.81783	28.7682	 
695.0	1.0	0.0	8.23516	7.19588	-10.33255	14.03372	19.09373	1.24228	0.80497	172.20463	167.6805	64.79526	0.32884	 	1.6198699999999998E10	 	2.91709E-10	 	-2678.51636	28.73971	 
690.0	1.0	0.0	8.23721	7.19409	-10.35489	14.01081	19.03234	1.23985	0.80655	172.51441	167.84513	64.91865	0.3287	 	1.92192E10	 	2.44594E-10	 	-2822.07512	28.71175	 
685.0	1.0	0.0	8.23926	7.1923	-10.37718	13.9879	18.97092	1.2374	0.80814	172.82363	168.009	65.04185	0.32856	 	2.28437E10	 	2.04717E-10	 	-2965.49698	28.68437	 
680.0	1.0	0.0	8.24131	7.19051	-10.3994	13.96498	18.90949	1.23494	0.80975	173.13228	168.17212	65.16486	0.32842	 	2.7200999999999996E10	 	1.71026E-10	 	-3108.78499	28.6576	 
675.0	1.0	0.0	8.24335	7.18874	-10.42157	13.94206	18.84804	1.23247	0.81138	173.44037	168.3345	65.28768	0.32828	 	3.2449099999999996E10	 	1.42614E-10	 	-3251.94236	28.63148	 
670.0	1.0	0.0	8.24538	7.18696	-10.44368	13.91913	18.78657	1.22998	0.81302	173.7479	168.49613	65.4103	0.32814	 	3.87822E10	 	1.18696E-10	 	-3394.97253	28.60603	 
665.0	1.0	0.0	8.24741	7.18519	-10.46572	13.89619	18.72508	1.22748	0.81468	174.05486	168.65701	65.53274	0.328	 	4.64396E10	 	9.85986E-11	 	-3537.87914	28.58132	 
660.0	1.0	0.0	8.24944	7.18343	-10.48771	13.87325	18.66356	1.22496	0.81635	174.36125	168.81716	65.65499	0.32786	 	5.571629999999999E10	 	8.1744E-11	 	-3680.65564	28.5553	 
655.0	1.0	0.0	8.25146	7.18167	-10.50964	13.85031	18.60203	1.22243	0.81804	174.66708	168.97656	65.77705	0.32772	 	6.697739999999999E10	 	6.76357E-11	 	-3823.24408	28.51769	 
650.0	1.0	0.0	8.25348	7.17991	-10.53151	13.82735	18.54047	1.21988	0.81975	174.97235	169.13523	65.89892	0.32758	 	8.06754E10	 	5.58493E-11	 	-3965.56757	28.4647	 
645.0	1.0	0.0	8.25549	7.17816	-10.55333	13.8044	18.47889	1.21732	0.82148	175.27706	169.29316	66.0206	0.32744	 	9.737179999999998E10	 	4.60222E-11	 	-4107.62727	28.41194	 
640.0	1.0	0.0	8.2575	7.17642	-10.57508	13.78144	18.41729	1.21474	0.82322	175.5812	169.45036	66.14208	0.3273	 	1.17766E11	 	3.7845E-11	 	-4249.42433	28.35941	 
635.0	1.0	0.0	8.2595	7.17468	-10.59677	13.75847	18.35566	1.21214	0.82499	175.88478	169.60683	66.26338	0.32716	 	1.42731E11	 	3.10547E-11	 	-4390.95988	28.30711	 
630.0	1.0	0.0	8.2615	7.17294	-10.6184	13.7355	18.29402	1.20953	0.82677	176.18779	169.76256	66.38449	0.32703	 	1.73356E11	 	2.54278E-11	 	-4532.23509	28.25504	 
625.0	1.0	0.0	8.26349	7.17121	-10.63998	13.71252	18.23234	1.2069	0.82857	176.49024	169.91757	66.50541	0.32689	 	2.11008E11	 	2.07748E-11	 	-4673.25122	28.20322	 
620.0	1.0	0.0	8.26548	7.16948	-10.66149	13.68953	18.17065	1.20426	0.83039	176.79212	170.07185	66.62613	0.32675	 	2.57404E11	 	1.69354E-11	 	-4814.0097	28.1517	 
615.0	1.0	0.0	8.26747	7.16776	-10.68295	13.66655	18.10893	1.2016	0.83222	177.09345	170.22541	66.74667	0.32661	 	3.14705E11	 	1.37743E-11	 	-4954.51153	28.10036	 
610.0	1.0	0.0	8.26945	7.16604	-10.70435	13.64355	18.04718	1.19892	0.83408	177.3942	170.37825	66.86701	0.32647	 	3.85639E11	 	1.11774E-11	 	-5094.75784	28.04926	 
605.0	1.0	0.0	8.27143	7.16433	-10.72568	13.62055	17.98541	1.19623	0.83596	177.6944	170.53037	66.98717	0.32633	 	4.73656E11	 	9.04883E-12	 	-5234.74975	27.99838	 
600.0	1.0	0.0	8.2734	7.16262	-10.74696	13.59755	17.92362	1.19352	0.83786	177.99403	170.68177	67.10713	0.32619	 	5.83133E11	 	7.30815E-12	 	-5374.4884	27.94773	 
595.0	1.0	0.0	8.27537	7.16092	-10.76818	13.57453	17.8618	1.19079	0.83978	178.2931	170.83245	67.2269	0.32605	 	7.19636E11	 	5.88801E-12	 	-5513.97493	27.8973	 
590.0	1.0	0.0	8.27733	7.15922	-10.78934	13.55152	17.79995	1.18805	0.84172	178.5916	170.98242	67.34649	0.32592	 	8.90258E11	 	4.73213E-12	 	-5653.21044	27.8471	 
585.0	1.0	0.0	8.27929	7.15753	-10.81044	13.5285	17.73808	1.18529	0.84368	178.88954	171.13168	67.46588	0.32578	 	1.10407E12	 	3.79362E-12	 	-5792.19607	27.79713	 
580.0	1.0	0.0	8.28124	7.15584	-10.83148	13.50547	17.67617	1.18251	0.84566	179.18692	171.28023	67.58508	0.32564	 	1.37269E12	 	3.03348E-12	 	-5930.93294	27.74738	 
575.0	1.0	0.0	8.28319	7.15416	-10.85246	13.48244	17.61424	1.17971	0.84767	179.48373	171.42807	67.70409	0.3255	 	1.71105E12	 	2.41934E-12	 	-6069.42217	27.69785	 
570.0	1.0	0.0	8.28513	7.15248	-10.87338	13.4594	17.55229	1.17689	0.84969	179.77998	171.5752	67.82291	0.32536	 	2.1384E12	 	1.92444E-12	 	-6207.66488	27.64854	 
565.0	1.0	0.0	8.28707	7.1508	-10.89424	13.43636	17.4903	1.17406	0.85174	180.07566	171.72162	67.94153	0.32523	 	2.67959E12	 	1.52665E-12	 	-6345.66218	27.59946	 
560.0	1.0	0.0	8.28901	7.14913	-10.91505	13.41331	17.42828	1.17121	0.85382	180.37079	171.86735	68.05997	0.32509	 	3.36687E12	 	1.20777E-12	 	-6483.41519	27.5506	 
555.0	1.0	0.0	8.29094	7.14747	-10.93579	13.39025	17.36624	1.16834	0.85591	180.66535	172.01237	68.17821	0.32495	 	4.24209E12	 	9.52831E-13	 	-6620.92502	27.50197	 
550.0	1.0	0.0	8.29287	7.14581	-10.95647	13.36719	17.30416	1.16545	0.85804	180.95934	172.15669	68.29626	0.32481	 	5.35986E12	 	7.4957E-13	 	-6758.19277	27.45355	 
545.0	1.0	0.0	8.29479	7.14415	-10.9771	13.34413	17.24205	1.16255	0.86018	181.25277	172.30032	68.41413	0.32467	 	6.79154E12	 	5.87965E-13	 	-6895.21955	27.40536	 
540.0	1.0	0.0	8.2967	7.1425	-10.99766	13.32106	17.17991	1.15962	0.86235	181.54564	172.44325	68.5318	0.32454	 	8.63073E12	 	4.59843E-13	 	-7032.00647	27.35738	 
535.0	1.0	0.0	8.29861	7.14086	-11.01816	13.29798	17.11774	1.15668	0.86455	181.83795	172.58548	68.64927	0.3244	 	1.10006E13	 	3.58562E-13	 	-7168.55464	27.30963	 
530.0	1.0	0.0	8.30052	7.13922	-11.03861	13.2749	17.05554	1.15371	0.86677	182.12969	172.72703	68.76656	0.32426	 	1.40635E13	 	2.78734E-13	 	-7304.86512	27.2621	 
525.0	1.0	0.0	8.30242	7.13758	-11.05899	13.25182	16.9933	1.15073	0.86901	182.42087	172.86788	68.88365	0.32412	 	1.80347E13	 	2.16004E-13	 	-7440.93904	27.21478	 
520.0	1.0	0.0	8.30432	7.13595	-11.07932	13.22872	16.93103	1.14773	0.87129	182.71148	173.00805	69.00056	0.32399	 	2.31999E13	 	1.66861E-13	 	-7576.77749	27.16769	 
515.0	1.0	0.0	8.30622	7.13432	-11.09959	13.20563	16.86873	1.1447	0.87359	183.00153	173.14753	69.11727	0.32385	 	2.994E13	 	1.28482E-13	 	-7712.38155	27.12081	 
510.0	1.0	0.0	8.3081	7.1327	-11.11979	13.18252	16.80639	1.14166	0.87592	183.29102	173.28632	69.23379	0.32371	 	3.87643E13	 	9.86052E-14	 	-7847.75232	27.07415	 
505.0	1.0	0.0	8.30999	7.13109	-11.13994	13.15942	16.74401	1.1386	0.87827	183.57995	173.42443	69.35011	0.32357	 	5.03562E13	 	7.54218E-14	 	-7982.89089	27.02771	 
500.0	1.0	0.0	8.31187	7.12947	-11.16002	13.1363	16.6816	1.13551	0.88066	183.86831	173.56186	69.46625	0.32344	 	6.56363E13	 	5.74919E-14	 	-8117.79834	26.98149	 
495.0	1.0	0.0	8.31374	7.12787	-11.18005	13.11318	16.61915	1.13241	0.88307	184.1561	173.69861	69.58219	0.3233	 	8.58486E13	 	4.36716E-14	 	-8252.47574	26.93548	 
490.0	1.0	0.0	8.31561	7.12626	-11.20002	13.09006	16.55667	1.12928	0.88552	184.44334	173.83468	69.69794	0.32316	 	1.12681E14	 	3.30557E-14	 	-8386.92415	26.88968	 
485.0	1.0	0.0	8.31747	7.12467	-11.21992	13.06693	16.49414	1.12614	0.88799	184.73001	173.97007	69.81349	0.32303	 	1.48431E14	 	2.49297E-14	 	-8521.14466	26.8441	 
480.0	1.0	0.0	8.31933	7.12307	-11.23977	13.04379	16.43158	1.12297	0.8905	185.01612	174.10479	69.92886	0.32289	 	1.96241E14	 	1.87318E-14	 	-8655.13832	26.79873	 
475.0	1.0	0.0	8.32119	7.12149	-11.25956	13.02065	16.36898	1.11978	0.89303	185.30166	174.23884	70.04403	0.32275	 	2.6041999999999997E14	 	1.40217E-14	 	-8788.9062	26.75358	 
470.0	1.0	0.0	8.32304	7.1199	-11.27929	12.99751	16.30633	1.11657	0.8956	185.58665	174.37222	70.15901	0.32261	 	3.46906E14	 	1.04557E-14	 	-8922.44936	26.70863	 
465.0	1.0	0.0	8.32488	7.11833	-11.29895	12.97436	16.24364	1.11334	0.8982	185.87106	174.50492	70.2738	0.32248	 	4.63914E14	 	7.76594E-15	 	-9055.76884	26.6639	 
460.0	1.0	0.0	8.32673	7.11675	-11.31856	12.9512	16.18092	1.11008	0.90083	186.15492	174.63696	70.38839	0.32234	 	6.22851E14	 	5.74507E-15	 	-9188.86571	26.61937	 
455.0	1.0	0.0	8.32856	7.11518	-11.33811	12.92804	16.11814	1.10681	0.9035	186.43821	174.76834	70.50279	0.3222	 	8.39631E14	 	4.23271E-15	 	-9321.741	26.57506	 
450.0	1.0	0.0	8.33039	7.11362	-11.35759	12.90487	16.05533	1.10351	0.9062	186.72094	174.89905	70.617	0.32207	 	1.13654E15	 	3.10548E-15	 	-9454.39576	26.53095	 
445.0	1.0	0.0	8.33222	7.11206	-11.37702	12.8817	15.99247	1.10019	0.90894	187.0031	175.02909	70.73102	0.32193	 	1.54495E15	 	2.26875E-15	 	-9586.83102	26.48705	 
440.0	1.0	0.0	8.33404	7.11051	-11.39639	12.85852	15.92956	1.09684	0.91171	187.28471	175.15848	70.84484	0.32179	 	2.10918E15	 	1.65027E-15	 	-9719.04781	26.44336	 
435.0	1.0	0.0	8.33586	7.10896	-11.4157	12.83533	15.86661	1.09347	0.91452	187.56574	175.28721	70.95847	0.32166	 	2.89216E15	 	1.19506E-15	 	-9851.04718	26.39987	 
430.0	1.0	0.0	8.33767	7.10741	-11.43494	12.81214	15.80361	1.09008	0.91736	187.84622	175.41527	71.0719	0.32152	 	3.98363E15	 	8.615E-16	 	-9982.83012	26.35659	 
425.0	1.0	0.0	8.33947	7.10587	-11.45413	12.78895	15.74056	1.08666	0.92025	188.12613	175.54269	71.18515	0.32139	 	5.51225E15	 	6.18169E-16	 	-10114.39751	26.31348	 
420.0	1.0	0.0	8.34128	7.10434	-11.47326	12.76575	15.67746	1.08322	0.92317	188.40548	175.66945	71.2982	0.32125	 	7.66325E15	 	4.4147E-16	 	-10245.75061	26.27062	 
415.0	1.0	0.0	8.34307	7.10281	-11.49232	12.74254	15.6143	1.07976	0.92613	188.68427	175.79555	71.41105	0.32111	 	1.07047E16	 	3.13757E-16	 	-10376.88981	26.22784	 
410.0	1.0	0.0	8.34486	7.10128	-11.51133	12.71933	15.5511	1.07627	0.92914	188.96249	175.921	71.52371	0.32098	 	1.50267E16	 	2.2189E-16	 	-10507.81523	26.18509	 
405.0	1.0	0.0	8.34665	7.09976	-11.53028	12.69611	15.48785	1.07276	0.93218	189.24015	176.04581	71.63618	0.32084	 	2.11995E16	 	1.5613E-16	 	-10638.52704	26.14236	 
400.0	1.0	0.0	8.34843	7.09825	-11.54916	12.67289	15.42454	1.06922	0.93526	189.51724	176.16997	71.74846	0.32071	 	3.00612E16	 	1.09293E-16	 	-10769.02536	26.09966	 
395.0	1.0	0.0	8.35021	7.09673	-11.56799	12.64967	15.36117	1.06565	0.93839	189.79378	176.29348	71.86054	0.32057	 	4.28506E16	 	7.61034E-17	 	-10899.31031	26.05699	 
390.0	1.0	0.0	8.35198	7.09523	-11.58676	12.62643	15.29775	1.06206	0.94156	190.06974	176.41634	71.97243	0.32043	 	6.14086E16	 	5.27071E-17	 	-11029.38201	26.01434	 
385.0	1.0	0.0	8.35375	7.09373	-11.60546	12.60319	15.23427	1.05845	0.94478	190.34515	176.53857	72.08412	0.3203	 	8.84863E16	 	3.63024E-17	 	-11159.2406	25.97172	 
380.0	1.0	0.0	8.35551	7.09223	-11.62411	12.57995	15.17073	1.05481	0.94804	190.61999	176.66015	72.19562	0.32016	 	1.28219E17	 	2.48627E-17	 	-11288.88616	25.92911	 
375.0	1.0	0.0	8.35727	7.09074	-11.64269	12.5567	15.10713	1.05114	0.95135	190.89427	176.78109	72.30692	0.32003	 	1.86858E17	 	1.69297E-17	 	-11418.3188	25.88653	 
370.0	1.0	0.0	8.35902	7.08925	-11.66122	12.53345	15.04346	1.04744	0.95471	191.16799	176.90139	72.41803	0.31989	 	2.73916E17	 	1.14599E-17	 	-11547.53863	25.84396	 
365.0	1.0	0.0	8.36077	7.08777	-11.67968	12.51019	14.97974	1.04372	0.95811	191.44114	177.02106	72.52895	0.31976	 	4.03946E17	 	7.71056E-18	 	-11676.54571	25.80142	 
360.0	1.0	0.0	8.36251	7.08629	-11.69808	12.48692	14.91595	1.03997	0.96156	191.71373	177.14009	72.63967	0.31962	 	5.9937E17	 	5.15583E-18	 	-11805.34013	25.75888	 
355.0	1.0	0.0	8.36425	7.08482	-11.71643	12.46365	14.85209	1.0362	0.96507	191.98576	177.25848	72.7502	0.31949	 	8.94942E17	 	3.42575E-18	 	-11933.92196	25.71637	 
350.0	1.0	0.0	8.36598	7.08336	-11.73471	12.44038	14.78816	1.03239	0.96862	192.25722	177.37625	72.86054	0.31935	 	1.34489E18	 	2.26147E-18	 	-12062.29125	25.67386	 
345.0	1.0	0.0	8.36771	7.08189	-11.75293	12.41709	14.72417	1.02856	0.97223	192.52812	177.49338	72.97067	0.31922	 	2.03443E18	 	1.48299E-18	 	-12190.44807	25.63136	 
340.0	1.0	0.0	8.36943	7.08044	-11.77109	12.39381	14.6601	1.0247	0.9759	192.79845	177.60989	73.08062	0.31908	 	3.09835E18	 	9.6588E-19	 	-12318.39247	25.58888	 
335.0	1.0	0.0	8.37115	7.07898	-11.7892	12.37052	14.59596	1.02081	0.97962	193.06823	177.72577	73.19037	0.31895	 	4.7514E18	 	6.24707E-19	 	-12446.12445	25.5464	 
330.0	1.0	0.0	8.37286	7.07754	-11.80724	12.34722	14.53175	1.01689	0.98339	193.33744	177.84102	73.29992	0.31881	 	7.33822E18	 	4.01163E-19	 	-12573.64407	25.50392	 
325.0	1.0	0.0	8.37457	7.07609	-11.82522	12.32391	14.46746	1.01294	0.98722	193.60608	177.95564	73.40928	0.31868	 	1.14161E19	 	2.55729E-19	 	-12700.95134	25.46145	 
320.0	1.0	0.0	8.37627	7.07465	-11.84314	12.30061	14.40309	1.00896	0.99112	193.87416	178.06965	73.51845	0.31854	 	1.78928E19	 	1.61798E-19	 	-12828.04625	25.41898	 
315.0	1.0	0.0	8.37797	7.07322	-11.861	12.27729	14.33864	1.00495	0.99507	194.14168	178.18303	73.62742	0.31841	 	2.8259E19	 	1.01582E-19	 	-12954.9288	25.37651	 
310.0	1.0	0.0	8.37966	7.07179	-11.8788	12.25397	14.27411	1.00092	0.99909	194.40864	178.29579	73.7362	0.31827	 	4.49821E19	 	6.32743E-20	 	-13081.59898	25.33404	 
305.0	1.0	0.0	8.38135	7.07037	-11.89653	12.23065	14.20949	0.99685	1.00316	194.67503	178.40794	73.84478	0.31814	 	7.21796E19	 	3.90943E-20	 	-13208.05675	25.29155	 
300.0	1.0	0.0	8.38303	7.06895	-11.91421	12.20732	14.14478	0.99275	1.00731	194.94086	178.51946	73.95316	0.318	 	1.1678099999999998E20	 	2.39543E-20	 	-13334.30209	25.24907	 
295.0	1.0	0.0	8.38471	7.06754	-11.93183	12.18398	14.07999	0.98861	1.01152	195.20612	178.63037	74.06135	0.31787	 	1.9055E20	 	1.45526E-20	 	-13460.33491	25.20657	 
290.0	1.0	0.0	8.38638	7.06613	-11.94938	12.16064	14.0151	0.98445	1.0158	195.47083	178.74067	74.16934	0.31773	 	3.13632E20	 	8.76377E-21	 	-13586.15519	25.16406	 
285.0	1.0	0.0	8.38805	7.06472	-11.96688	12.13729	13.95012	0.98025	1.02014	195.73496	178.85035	74.27714	0.3176	 	5.2084599999999993E20	 	5.23032E-21	 	-13711.76281	25.12152	 
280.0	1.0	0.0	8.38971	7.06332	-11.98431	12.11394	13.88505	0.97603	1.02456	195.99854	178.95943	74.38474	0.31746	 	8.729319999999999E20	 	3.09278E-21	 	-13837.1577	25.07898	 
275.0	1.0	0.0	8.39137	7.06193	-12.00169	12.09059	13.81987	0.97177	1.02905	196.26155	179.06789	74.49215	0.31733	 	1.47687E21	 	1.81152E-21	 	-13962.33975	25.03641	 
270.0	1.0	0.0	8.39302	7.06054	-12.019	12.06722	13.75459	0.96747	1.03362	196.524	179.17574	74.59936	0.3172	 	2.52296E21	 	1.05074E-21	 	-14087.30883	24.99382	 
265.0	1.0	0.0	8.39466	7.05916	-12.03625	12.04385	13.68921	0.96314	1.03827	196.78588	179.28299	74.70638	0.31706	 	4.35311E21	 	6.03379E-22	 	-14212.06481	24.9512	 
260.0	1.0	0.0	8.3963	7.05778	-12.05345	12.02048	13.62372	0.95878	1.04299	197.0472	179.38963	74.8132	0.31693	 	7.588080000000001E21	 	3.42929E-22	 	-14336.60753	24.90854	 
255.0	1.0	0.0	8.39794	7.0564	-12.07058	11.9971	13.55812	0.95439	1.04779	197.30796	179.49567	74.91982	0.31679	 	1.3366999999999998E22	 	1.92846E-22	 	-14460.93682	24.86586	 
250.0	1.0	0.0	8.39957	7.05503	-12.08765	11.97372	13.4924	0.94996	1.05268	197.56815	179.60111	75.02625	0.31666	 	2.3803199999999998E22	 	1.0727E-22	 	-14585.0525	24.82314	 
245.0	1.0	0.0	8.4012	7.05367	-12.10466	11.95033	13.42657	0.94549	1.05765	197.82778	179.70594	75.13248	0.31653	 	4.28621E22	 	5.90022E-23	 	-14708.95435	24.78037	 
240.0	1.0	0.0	8.40282	7.05231	-12.12161	11.92693	13.36061	0.94099	1.06271	198.08685	179.81017	75.23851	0.31639	 	7.80711E22	 	3.20805E-23	 	-14832.64215	24.73756	 
235.0	1.0	0.0	8.40443	7.05095	-12.13849	11.90353	13.29453	0.93645	1.06786	198.34535	179.91381	75.34435	0.31626	 	1.4388999999999998E23	 	1.72364E-23	 	-14956.11567	24.6947	 
230.0	1.0	0.0	8.40604	7.0496	-12.15532	11.88013	13.22833	0.93188	1.0731	198.60329	180.01685	75.45	0.31613	 	2.68442E23	 	9.14817E-24	 	-15079.37462	24.65179	 
225.0	1.0	0.0	8.40765	7.04826	-12.17208	11.85672	13.16199	0.92727	1.07844	198.86067	180.11929	75.55544	0.31599	 	5.0711299999999997E23	 	4.79448E-24	 	-15202.41872	24.60882	 
220.0	1.0	0.0	8.40925	7.04692	-12.18879	11.8333	13.09551	0.92262	1.08387	199.11748	180.22114	75.66069	0.31586	 	9.704249999999999E23	 	2.4803E-24	 	-15325.24767	24.56579	 
215.0	1.0	0.0	8.41084	7.04558	-12.20543	11.80988	13.0289	0.91793	1.0894	199.37373	180.3224	75.76574	0.31572	 	1.88188E24	 	1.26604E-24	 	-15447.86115	24.52269	 
210.0	1.0	0.0	8.41243	7.04425	-12.22202	11.78645	12.96213	0.91321	1.09504	199.62941	180.42306	75.8706	0.31559	 	3.69979E24	 	6.3737E-25	 	-15570.25878	24.47953	 
205.0	1.0	0.0	8.41401	7.04292	-12.23854	11.76302	12.89522	0.90845	1.10078	199.88453	180.52314	75.97526	0.31546	 	7.37736E24	 	3.16337E-25	 	-15692.44019	24.43628	 
200.0	1.0	0.0	8.41559	7.0416	-12.255	11.73958	12.82816	0.90365	1.10662	200.13909	180.62262	76.07972	0.31532	 	1.49266E25	 	1.54713E-25	 	-15814.40499	24.39296	 
195.0	1.0	0.0	8.41716	7.04029	-12.2714	11.71613	12.76093	0.89881	1.11258	200.39308	180.72152	76.18398	0.31519	 	3.06589E25	 	7.45273E-26	 	-15936.15273	24.34955	 
190.0	1.0	0.0	8.41873	7.03897	-12.28774	11.69268	12.69354	0.89393	1.11865	200.64651	180.81983	76.28805	0.31506	 	6.3959100000000004E25	 	3.53432E-26	 	-16057.68296	24.30605	 
185.0	1.0	0.0	8.42029	7.03767	-12.30401	11.66923	12.62598	0.88901	1.12484	200.89937	180.91756	76.39192	0.31493	 	1.3558700000000001E26	 	1.64921E-26	 	-16178.99521	24.26245	 
180.0	1.0	0.0	8.42185	7.03637	-12.32023	11.64577	12.55825	0.88405	1.13115	201.15167	181.0147	76.4956	0.31479	 	2.9223700000000002E26	 	7.5682E-27	 	-16300.08893	24.21874	 
175.0	1.0	0.0	8.4234	7.03507	-12.33638	11.6223	12.49033	0.87905	1.13759	201.40341	181.11126	76.59907	0.31466	 	6.4076E26	 	3.41362E-27	 	-16420.9636	24.17493	 
170.0	1.0	0.0	8.42495	7.03378	-12.35248	11.59883	12.42222	0.87401	1.14415	201.65458	181.20725	76.70235	0.31453	 	1.43004E27	 	1.51248E-27	 	-16541.61863	24.13101	 
165.0	1.0	0.0	8.42649	7.03249	-12.36851	11.57536	12.35392	0.86893	1.15084	201.90519	181.30265	76.80543	0.31439	 	3.2505699999999996E27	 	6.57886E-28	 	-16662.0534	24.08696	 
160.0	1.0	0.0	8.42803	7.03121	-12.38448	11.55187	12.28541	0.8638	1.15767	202.15524	181.39747	76.90832	0.31426	 	7.53014E27	 	2.80752E-28	 	-16782.26729	24.04278	 
155.0	1.0	0.0	8.42956	7.02993	-12.40039	11.52839	12.2167	0.85863	1.16464	202.40472	181.49172	77.011	0.31413	 	1.77897E28	 	1.17467E-28	 	-16902.25961	23.99846	 
150.0	1.0	0.0	8.43108	7.02866	-12.41624	11.50489	12.14777	0.85342	1.17175	202.65364	181.58539	77.11349	0.314	 	4.289E28	 	4.81531E-29	 	-17022.02963	23.954	 
145.0	1.0	0.0	8.4326	7.0274	-12.43203	11.4814	12.07861	0.84817	1.17901	202.90199	181.67849	77.21578	0.31386	 	1.0560500000000001E29	 	1.93256E-29	 	-17141.57662	23.9094	 
140.0	1.0	0.0	8.43412	7.02613	-12.44775	11.45789	12.00922	0.84287	1.18643	203.14978	181.77101	77.31787	0.31373	 	2.65757E29	 	7.58768E-30	 	-17260.89978	23.86463	 
135.0	1.0	0.0	8.43563	7.02488	-12.46342	11.43438	11.93959	0.83752	1.194	203.397	181.86296	77.41977	0.3136	 	6.840780000000001E29	 	2.91206E-30	 	-17379.99827	23.8197	 
130.0	1.0	0.0	8.43713	7.02362	-12.47902	11.41087	11.8697	0.83213	1.20173	203.64366	181.95435	77.52146	0.31347	 	1.80265E30	 	1.09155E-30	 	-17498.87122	23.77459	 
125.0	1.0	0.0	8.43863	7.02238	-12.49456	11.38735	11.79956	0.8267	1.20963	203.88976	182.04516	77.62296	0.31333	 	4.86727E30	 	3.99253E-31	 	-17617.51773	23.7293	 
120.0	1.0	0.0	8.44012	7.02113	-12.51004	11.36382	11.72914	0.82122	1.2177	204.13529	182.13541	77.72426	0.3132	 	1.34782E31	 	1.42368E-31	 	-17735.93683	23.68382	 
115.0	1.0	0.0	8.44161	7.0199	-12.52546	11.34029	11.65843	0.81569	1.22595	204.38026	182.22508	77.82536	0.31307	 	3.8315599999999997E31	 	4.94437E-32	 	-17854.12753	23.63814	 
110.0	1.0	0.0	8.44309	7.01866	-12.54082	11.31676	11.58743	0.81012	1.23439	204.62467	182.3142	77.92627	0.31294	 	1.1193399999999999E32	 	1.67068E-32	 	-17972.08879	23.59225	 
105.0	1.0	0.0	8.44457	7.01744	-12.55612	11.29322	11.51612	0.8045	1.24301	204.86851	182.40275	78.02697	0.31281	 	3.36402E32	 	5.48645E-33	 	-18089.81954	23.54615	 
100.0	1.0	0.0	8.44604	7.01621	-12.57135	11.26967	11.4445	0.79883	1.25184	205.11178	182.49074	78.12748	0.31267	 	1.04127E33	 	1.74907E-33	 	-18207.31863	23.49982	 
95.0	1.0	0.0	8.44751	7.015	-12.58652	11.24612	11.37253	0.79311	1.26086	205.35449	182.57816	78.22778	0.31254	 	3.32352E33	 	5.40647E-34	 	-18324.5849	23.45325	 
90.0	1.0	0.0	8.44897	7.01378	-12.60164	11.22256	11.30022	0.78735	1.27009	205.59664	182.66503	78.32789	0.31241	 	1.09524E34	 	1.61831E-34	 	-18441.61713	23.40645	 
85.0	1.0	0.0	8.45042	7.01258	-12.61669	11.199	11.22754	0.78153	1.27954	205.83822	182.75134	78.4278	0.31228	 	3.73152E34	 	4.68453E-35	 	-18558.41408	23.35939	 
80.0	1.0	0.0	8.45187	7.01137	-12.63168	11.17543	11.15448	0.77567	1.28921	206.07924	182.83709	78.52751	0.31215	 	1.3162399999999999E35	 	1.30952E-35	 	-18674.97445	23.31207	 
75.0	1.0	0.0	8.45332	7.01018	-12.6466	11.15185	11.08102	0.76976	1.29911	206.31969	182.92228	78.62702	0.31202	 	4.81402E35	 	3.52976E-36	 	-18791.29691	23.26449	 
70.0	1.0	0.0	8.45476	7.00898	-12.66147	11.12827	11.00714	0.76379	1.30926	206.55958	183.00692	78.72634	0.31188	 	1.8284899999999999E36	 	9.15961E-37	 	-18907.38009	23.21664	 
65.0	1.0	0.0	8.45619	7.00779	-12.67627	11.10469	10.93282	0.75778	1.31964	206.79891	183.091	78.82545	0.31175	 	7.22469E36	 	2.28443E-37	 	-19023.22261	23.1685	 
60.0	1.0	0.0	8.45762	7.00661	-12.69101	11.0811	10.85805	0.75172	1.33029	207.03767	183.17453	78.92436	0.31162	 	2.97479E37	 	5.46601E-38	 	-19138.82305	23.12009	 
55.0	1.0	0.0	8.45904	7.00543	-12.70569	11.05751	10.78279	0.7456	1.3412	207.27586	183.25751	79.02308	0.31149	 	1.2788599999999998E38	 	1.25238E-38	 	-19254.17998	23.07139	 
50.0	1.0	0.0	8.46046	7.00426	-12.72031	11.0339	10.70702	0.73944	1.35238	207.51349	183.33994	79.12159	0.31136	 	5.751629999999999E38	 	2.74221E-39	 	-19369.29199	23.0224	 
45.0	1.0	0.0	8.46187	7.00309	-12.73487	11.0103	10.63072	0.73322	1.36384	207.75056	183.42182	79.21991	0.31123	 	2.71195E39	 	5.72581E-40	 	-19484.15763	22.97313	 
40.0	1.0	0.0	8.46327	7.00193	-12.74937	10.98669	10.55386	0.72695	1.3756	207.98706	183.50315	79.31802	0.3111	 	1.34363E40	 	1.13752E-40	 	-19598.77553	22.92358	 
35.0	1.0	0.0	8.46467	7.00077	-12.7638	10.96307	10.4764	0.72064	1.38766	208.223	183.58394	79.41594	0.31096	 	7.01184E40	 	2.14495E-41	 	-19713.14432	22.87376	 
30.0	1.0	0.0	8.46607	6.99962	-12.77817	10.93944	10.39833	0.71427	1.40004	208.45837	183.66418	79.51366	0.31083	 	3.86415E41	 	3.82905E-42	 	-19827.26273	22.82368	 
25.0	1.0	0.0	8.46746	6.99847	-12.79248	 	10.31959	0.70785	1.41274	208.69318	183.74387	79.61117	0.3107	 	2.2549499999999997E42	 	6.45335E-43	 	-19941.1296	 	 
