T (C)	Fraction solid (wt)-TOTAL	Fraction liquid (wt)-LIQUID	Density (g/(cm)^3)-TOTAL	Molar volume (cm^3)-TOTAL	Volume change (%)-  	Average expansion coeff. (10e-6 1/K)-  	Thermal conductivity (W/(m*K))-TOTAL	Electrical resistivity (10e-6 Ohm*m)-TOTAL	Electrical conductivity (10e6 1/(Ohm*m))-TOTAL	Young's modulus (GPa)-TOTAL	Bulk modulus (GPa)-TOTAL	Shear modulus(GPa)-TOTAL	Poisson's ratio-TOTAL	Liquid viscosity (mPa s)-  	Total viscosity (mPa s)-  	Liquid diffusivity (10e-9 (m^2)/s)-  	Total diffusivity (10e-9 (m^2)/s)-  	Surface Tension (mN/m)-  	Enthalpy (J/mole)-TOTAL	Specific heat (J/(mole K))-TOTAL	Latent heat (J/mole)-TOTAL
1400.0	2.0E-5	0.99998	6.98994	7.96736	0.0	32.98964	28.42917	1.44191	0.69353	3.24497E-16	120.02463	1.08166E-16	0.49999	6.6413	6.6413	1.22961	1.22961	1716.73589	45070.431	 	0.0
1395.0	2.0E-4	0.9998	6.99409	7.96265	-0.0591206	32.94662	28.34802	1.44171	0.69362	2.71789E-12	120.2364	9.06008E-13	0.49993	6.71644	6.71644	1.21222	1.21222	1718.94897	44854.937	43.0988	14.759
1390.0	3.8E-4	0.99962	6.99822	7.95789	-0.11892	32.90139	28.26684	1.44152	0.69371	3.44402E-11	120.44645	1.14811E-11	0.49986	6.79283	6.79283	1.195	1.195	1721.18517	44640.067	42.974	29.338
1385.0	5.5E-4	0.99945	7.00236	7.95324	-0.17727	32.85988	28.18589	1.44131	0.69381	1.58794E-10	120.65767	5.29385E-11	0.4998	6.87052	6.87052	1.17793	1.17793	1723.4429	44425.817	42.85	43.736
1380.0	7.2E-4	0.99928	7.00647	7.94855	-0.23604	32.81689	28.10486	1.44111	0.69391	4.73929E-10	120.86715	1.58004E-10	0.49973	6.94951	6.94951	1.16103	1.16103	1725.72376	44212.185	42.7264	57.951
1375.0	8.9E-4	0.99911	7.01057	7.9439	-0.29449	32.77449	28.02392	1.4409	0.69401	1.10924E-9	121.07622	3.69828E-10	0.49967	7.02982	7.02982	1.1443	1.1443	1728.02725	43999.166	42.6038	71.988
1370.0	0.00106	0.99894	7.01467	7.93926	-0.35264	32.7326	27.94308	1.44068	0.69411	2.22076E-9	121.28496	7.40445E-10	0.49961	7.11151	7.11151	1.12772	1.12772	1730.35345	43786.757	42.4818	85.846
1365.0	0.00123	0.99877	7.01876	7.93469	-0.41008	32.69239	27.86232	1.44046	0.69422	3.98972E-9	121.49368	1.33031E-9	0.49955	7.19462	7.19462	1.1113	1.1113	1732.70207	43574.955	42.3604	99.525
1360.0	0.00139	0.99861	7.02284	7.93005	-0.46831	32.64965	27.7817	1.44024	0.69433	6.61611E-9	121.70063	2.20612E-9	0.49949	7.27911	7.27911	1.09505	1.09505	1735.07437	43363.756	42.2398	113.031
1355.0	0.00156	0.99844	7.02689	7.92545	-0.52598	32.60819	27.70096	1.44001	0.69444	1.03221E-8	121.90714	3.44201E-9	0.49943	7.36509	7.36509	1.07895	1.07895	1737.46922	43153.157	42.1198	126.36
1350.0	0.00172	0.99828	7.03094	7.92089	-0.58331	32.5674	27.62029	1.43978	0.69455	1.53381E-8	122.11325	5.11487E-9	0.49937	7.45258	7.45258	1.06301	1.06301	1739.8868	42943.155	42.0004	139.515
1345.0	0.00188	0.99812	7.03499	7.91635	-0.64026	32.52738	27.53992	1.43954	0.69467	2.19154E-8	122.31931	7.30848E-9	0.49931	7.54154	7.54154	1.04724	1.04724	1742.32703	42733.745	41.882	152.497
1340.0	0.00203	0.99797	7.03903	7.91185	-0.69672	32.48847	27.45942	1.43929	0.69479	3.03061E-8	122.52491	1.01071E-8	0.49925	7.63212	7.63212	1.03161	1.03161	1744.78974	42524.925	41.764	165.307
1335.0	0.00219	0.99781	7.04304	7.90724	-0.75457	32.44523	27.37891	1.43905	0.6949	4.07738E-8	122.72757	1.35986E-8	0.49919	7.72426	7.72426	1.01615	1.01615	1747.27646	42316.692	41.6466	177.947
1330.0	0.00234	0.99766	7.04706	7.9028	-0.81031	32.40779	27.29859	1.4388	0.69502	5.35929E-8	122.9325	1.78746E-8	0.49914	7.81807	7.81807	1.00083	1.00083	1749.78406	42109.042	41.53	190.417
1325.0	0.0025	0.9975	7.05106	7.89832	-0.86656	32.36856	27.21838	1.43854	0.69515	6.90326E-8	123.13587	2.30249E-8	0.49908	7.91351	7.91351	0.98568	0.98568	1752.31466	41901.972	41.414	202.719
1320.0	0.00265	0.99735	7.05505	7.89386	-0.92249	32.33	27.13806	1.43828	0.69527	8.73622E-8	123.33863	2.91396E-8	0.49903	8.0107	8.0107	0.97067	0.97067	1754.86753	41695.478	41.2988	214.854
1315.0	0.0028	0.9972	7.05903	7.88939	-0.97862	32.29052	27.05789	1.43802	0.6954	1.08862E-7	123.54015	3.63121E-8	0.49897	8.1096	8.1096	0.95583	0.95583	1757.44262	41489.558	41.184	226.825
1310.0	0.00294	0.99706	7.063	7.88493	-1.03455	32.25135	26.97779	1.43774	0.69553	1.3379E-7	123.74123	4.46289E-8	0.49892	8.2103	8.2103	0.94113	0.94113	1760.03954	41284.208	41.07	238.629
1305.0	0.00309	0.99691	7.06696	7.88051	-1.09005	32.21314	26.89776	1.43747	0.69567	1.62425E-7	123.94207	5.41829E-8	0.49886	8.31284	8.31284	0.92659	0.92659	1762.65783	41079.425	40.9566	250.269
1300.36	0.00322	0.99678	7.07063	7.87645	-1.14108	32.17879	26.82355	1.43721	0.69579	1.92518E-7	124.12824	6.42234E-8	0.49881	8.40967	8.40967	0.91322	0.91322	1765.10609	40889.935	40.84452	260.909
1300.0	0.01463	0.98537	7.07406	7.87261	-1.18919	32.045	26.85717	1.43508	0.69683	1.75428E-6	123.9669	5.85815E-7	0.4973	8.42281	8.61777	0.91159	0.89097	1765.114	40714.681	485.87192	422.271
1295.0	0.15956	0.84044	7.1179	7.82414	-1.79765	30.35683	27.30236	1.40719	0.71063	0.0565334	125.12018	0.0191262	0.47791	8.60679	29.97125	0.88927	0.25537	1765.1571	38484.375	446.0612	2460.233
1290.0	0.27413	0.72587	7.1532	7.7855	-2.28257	29.02513	27.65676	1.38473	0.72216	0.52692	126.08263	0.18016	0.46235	8.79497	186.78674	0.86747	0.0408452	1765.20114	36693.996	358.0758	4058.667
1285.0	0.36639	0.63361	7.18215	7.75413	-2.67627	27.95704	27.94401	1.36611	0.732	1.7482	126.92076	0.60297	0.44965	8.98781	598.99379	0.84614	0.0126962	1765.26536	35226.594	293.4804	5334.518
1280.0	0.44189	0.55811	7.20628	7.72807	-3.00334	27.0815	28.17897	1.35038	0.74054	3.80575	127.66606	1.32223	0.43914	9.18575	1323.26833	0.82525	0.00572865	1767.78773	34000.78305	245.16219	6368.63
1275.0	0.50453	0.49547	7.22683	7.70682	-3.27004	26.38186	28.36723	1.33709	0.74789	6.61763	128.31969	2.31339	0.43029	9.38928	2373.76512	0.80476	0.00318319	1770.32068	32959.20135	208.31634	7218.215
1270.0	0.57481	0.42519	7.24929	7.68371	-3.56015	25.60538	28.54874	1.3243	0.75511	11.38219	129.1371	4.00719	0.42022	9.60633	4235.90468	0.78404	0.00177807	1772.77863	31770.32077	237.77612	8215.515
1265.0	0.64707	0.35293	7.27188	7.6604	-3.8527	24.81517	28.72274	1.31202	0.76219	18.64289	130.02674	6.61223	0.40973	9.83299	7230.28993	0.76348	0.00103832	1775.16231	30534.99273	247.06561	9259.678
1260.0	0.70279	0.29721	7.28965	7.64204	-4.08311	24.20911	28.8471	1.30211	0.76798	26.36688	130.78094	9.40644	0.40153	10.06147	10722.36956	0.74372	6.9788E-4	1777.54873	29551.51177	196.69619	10052.406
1255.0	0.74671	0.25329	7.30399	7.62715	-4.27009	23.73186	28.93431	1.29395	0.77282	34.05339	131.44412	12.20551	0.395	10.29202	14581.97088	0.72469	5.11489E-4	1779.93757	28745.70841	161.16067	10667.867
1250.0	0.78198	0.21802	7.31581	7.61472	-4.42601	23.3467	28.99296	1.28711	0.77693	41.41574	132.04283	14.90102	0.38969	10.52493	18730.49726	0.70633	3.96899E-4	1782.32862	28068.7982	135.38204	11154.843
1245.0	0.81074	0.18926	7.3258	7.60426	-4.5574	23.03455	29.02861	1.28131	0.78045	48.31316	132.59195	17.4376	0.38532	10.76032	23133.10505	0.68861	3.20308E-4	1784.72088	27487.20714	116.31821	11546.468
1240.0	0.83452	0.16548	7.33434	7.59518	-4.67137	22.77411	29.0464	1.27631	0.78351	54.69262	133.10561	19.79252	0.38165	10.99838	27775.07607	0.67149	2.65897E-4	1787.11599	26977.97421	101.84659	11865.861
1235.0	0.85442	0.14558	7.34176	7.58708	-4.77298	22.55023	29.05054	1.27191	0.78622	60.55183	133.59516	21.96225	0.37854	11.23932	32656.72885	0.65492	2.25402E-4	1789.51287	26524.86824	90.62119	12129.562
1230.0	0.87124	0.12876	7.34827	7.57976	-4.86485	22.35508	29.04364	1.26799	0.78865	65.91244	134.06631	23.95272	0.37589	11.48319	37791.39619	0.63889	1.94132E-4	1791.91057	26115.81349	81.81095	12349.642
1225.0	0.88559	0.11441	7.35406	7.57304	-4.94914	22.18222	29.02765	1.26447	0.79084	70.80943	134.52301	25.77532	0.37359	11.73024	43200.78166	0.62335	1.69258E-4	1794.3092	25741.82704	74.79729	12535.081
1220.0	0.89795	0.10205	7.35927	7.56679	-5.02759	22.02641	29.0042	1.26127	0.79285	75.28585	134.96786	27.44483	0.37159	11.98044	48913.76914	0.6083	1.48991E-4	1796.71058	25396.11562	69.14228	12692.668
1215.0	0.9113	0.0887014	7.36487	7.56	-5.11285	21.84764	28.98241	1.25799	0.79492	80.34694	135.48321	29.33582	0.36943	12.18119	55553.75788	0.59627	1.30743E-4	1799.10909	25028.62338	73.49845	12872.456
1210.0	0.92821	0.0717869	7.37187	7.55172	-5.21685	21.60748	28.97167	1.25423	0.7973	87.06353	136.1525	31.85041	0.36676	12.25261	63934.93843	0.5908	1.13223E-4	1801.50161	24596.08569	86.50754	13117.704
1205.0	0.94106	0.0589355	7.37784	7.54467	-5.30533	21.41508	28.94943	1.25096	0.79938	92.54506	136.75095	33.90736	0.36468	12.33245	72317.01892	0.585	9.97619E-5	1803.90049	24225.6561	74.08592	13301.258
1200.0	0.95114	0.0488588	7.38309	7.53848	-5.38301	21.25585	28.91802	1.24809	0.80123	97.11481	137.30094	35.62538	0.363	12.42085	80868.74173	0.57887	8.89105E-5	1806.30335	23897.47307	65.63661	13442.975
1195.0	0.95924	0.0407608	7.38782	7.5329	-5.45298	21.1202	28.87929	1.24552	0.80288	100.99602	137.81624	37.08686	0.36161	12.51793	89723.31925	0.57243	7.98641E-5	1808.70934	23599.3411	59.62639	13555.047
1190.0	0.96587	0.0341255	7.39216	7.52778	-5.51722	21.00205	28.83479	1.24319	0.80438	104.34517	138.30535	38.34973	0.36044	12.62359	98992.11906	0.56571	7.21398E-5	1811.1191	23323.35677	55.19687	13645.374
1185.0	0.9714	0.0285985	7.3962	7.52302	-5.57703	20.89732	28.78561	1.24106	0.80576	107.27424	138.77424	39.45555	0.35943	12.73772	108773.5571	0.55872	6.54283E-5	1813.5311	23064.16969	51.83742	13719.302
1180.0	0.98068	0.0193233	7.40181	7.51627	-5.66174	20.71002	28.7237	1.23947	0.8068	112.20602	139.46199	41.3187	0.35781	12.8983	121334.4773	0.54988	5.84538E-5	1815.83094	22712.3875	70.35644	13886.223
1175.0	0.99005	0.00995467	7.40741	7.50918	-5.75069	20.50716	28.65194	1.2383	0.80756	117.42385	140.2044	43.29295	0.35615	13.103	135413.8384	0.53942	5.2196E-5	1818.01579	22344.85989	73.50552	14069.282
1170.0	0.99598	0.00401527	7.41165	7.50358	-5.82098	20.36423	28.5774	1.23724	0.80825	121.00426	140.80619	44.65007	0.35503	13.31429	149169.7694	0.52903	4.72191E-5	1820.20628	22046.34657	59.70266	14183.716
1165.0	1.0	0.0	7.41512	7.49883	-5.88066	20.25531	28.5027	1.23619	0.80894	123.63302	141.32864	45.64794	0.3542	 	163178.3461	 	4.30158E-5	 	21786.49629	51.97006	14259.875
1160.0	1.0	0.0	7.41757	7.49636	-5.91166	20.24111	28.42564	1.23523	0.80957	124.10285	141.67807	45.82795	0.35401	 	175872.7879	 	3.97722E-5	 	21627.83227	31.7328	 
1155.0	1.0	0.0	7.42001	7.49389	-5.9426	20.22697	28.34858	1.23427	0.8102	124.57174	142.02568	46.00765	0.35382	 	189653.2386	 	3.67536E-5	 	21459.50525	33.66541	 
1150.0	1.0	0.0	7.42244	7.49143	-5.97349	20.21291	28.27151	1.2333	0.81083	125.03969	142.37149	46.18705	0.35362	 	204620.811	 	3.39459E-5	 	21291.45878	33.60929	 
1145.0	1.0	0.0	7.42488	7.48898	-6.00431	20.19892	28.19443	1.23232	0.81147	125.50671	142.71549	46.36616	0.35343	 	220886.7898	 	3.13357E-5	 	21123.6914	33.55348	 
1140.0	1.0	0.0	7.42731	7.48652	-6.03508	20.185	28.11734	1.23135	0.81212	125.97279	143.05771	46.54496	0.35324	 	238573.7211	 	2.89103E-5	 	20956.20163	33.49795	 
1136.22	1.0	0.0	7.42915	7.48467	-6.0583	20.17453	28.05905	1.2306	0.81261	126.32455	143.31527	46.67994	0.35309	 	252971.1115	 	2.7192E-5	 	20829.7542	 	 
1135.0	1.0	0.0	7.43046	7.48335	-6.07491	20.14002	27.99924	1.23216	0.81158	126.64093	143.49977	46.80303	0.35291	 	258419.6359	 	2.65956E-5	 	20744.60441	42.31944	 
1130.0	1.0	0.0	7.43578	7.478	-6.14208	20.00098	27.76147	1.23831	0.80756	127.88005	144.20017	47.28606	0.3522	 	282159.1449	 	2.42715E-5	 	20400.62795	68.79529	 
1125.0	1.0	0.0	7.44098	7.47277	-6.20766	19.8661	27.53533	1.24403	0.80384	129.06351	144.85602	47.74812	0.3515	 	308343.7712	 	2.21312E-5	 	20064.57002	67.21159	 
1120.0	1.0	0.0	7.44606	7.46767	-6.27171	19.73532	27.31941	1.24937	0.8004	130.20265	145.48051	48.19336	0.35084	 	337247.5421	 	2.01621E-5	 	19736.09821	65.69436	 
1115.0	1.0	0.0	7.45104	7.46269	-6.33428	19.60845	27.11302	1.25437	0.79722	131.3016	146.07794	48.6233	0.35019	 	369177.1962	 	1.83522E-5	 	19414.8921	64.24122	 
1110.0	1.0	0.0	7.4559	7.45781	-6.39544	19.48535	26.91556	1.25902	0.79427	132.36316	146.65098	49.03897	0.34957	 	404476.3421	 	1.66903E-5	 	19100.64203	62.85001	 
1105.0	1.0	0.0	7.46067	7.45305	-6.45525	19.36585	26.72647	1.26334	0.79155	133.38963	147.20164	49.44122	0.34897	 	443530.1565	 	1.51656E-5	 	18793.04856	61.51869	 
1100.0	1.0	0.0	7.46534	7.44839	-6.51376	19.24979	26.54522	1.26735	0.78905	134.38304	147.73167	49.83082	0.34839	 	486770.7565	 	1.37683E-5	 	18491.82175	60.24536	 
1095.0	1.0	0.0	7.46992	7.44382	-6.57104	19.13702	26.37132	1.27107	0.78674	135.34527	148.24254	50.20845	0.34783	 	534683.2731	 	1.24889E-5	 	18196.68085	59.02818	 
1090.0	1.0	0.0	7.47441	7.43935	-6.62714	19.02739	26.2043	1.27449	0.78463	136.27805	148.7356	50.57477	0.34729	 	587812.8123	 	1.13186E-5	 	17907.35388	57.86539	 
1085.0	1.0	0.0	7.47881	7.43497	-6.68211	18.92075	26.04373	1.27765	0.78269	137.18298	149.21205	50.93038	0.34677	 	646772.3077	 	1.0249E-5	 	17623.57777	56.75522	 
1081.93	1.0	0.0	7.48147	7.43232	-6.71535	18.85665	25.94809	1.27945	0.78158	137.72581	149.49702	51.14381	0.34646	 	686182.0819	 	9.63855E-6	 	17451.87321	 	 
1080.19	1.0	0.0	7.48381	7.43	-6.7445	18.78316	25.88661	1.28084	0.78073	138.14339	149.63059	51.31137	0.34613	 	710362.685	 	9.29848E-6	 	17319.33466	 	 
1080.0	1.0	0.0	7.48397	7.42984	-6.74649	18.77934	25.88099	1.28095	0.78067	138.17561	149.64741	51.32405	0.34611	 	712930.355	 	9.26372E-6	 	17309.0507	62.90541	 
1075.0	1.0	0.0	7.48822	7.42563	-6.79938	18.67799	25.73277	1.28356	0.77908	139.02951	150.09258	51.66009	0.34562	 	785928.089	 	8.37225E-6	 	17035.06752	54.79664	 
1070.0	1.0	0.0	7.49239	7.42149	-6.85128	18.57929	25.5898	1.28595	0.77764	139.85965	150.52422	51.98696	0.34514	 	867130.5424	 	7.56009E-6	 	16765.99732	53.81404	 
1065.0	1.0	0.0	7.49649	7.41744	-6.90223	18.4831	25.45172	1.28811	0.77633	140.66737	150.9432	52.30516	0.34468	 	957530.5811	 	6.82086E-6	 	16501.59784	52.8799	 
1060.0	1.0	0.0	7.50052	7.41345	-6.95227	18.38928	25.31823	1.29007	0.77515	141.45393	151.3503	52.61518	0.34423	 	1058249.583	 	6.14862E-6	 	16241.63728	51.99211	 
1055.0	1.0	0.0	7.50449	7.40953	-7.00146	18.29772	25.189	1.29182	0.7741	142.22049	151.74628	52.91745	0.3438	 	1170555.103	 	5.53786E-6	 	15985.89406	51.14864	 
1050.0	1.0	0.0	7.50839	7.40568	-7.04983	18.20827	25.06376	1.29339	0.77316	142.96818	152.13182	53.21241	0.34337	 	1295881.242	 	4.98346E-6	 	15734.15818	50.34718	 
1045.0	1.0	0.0	7.51224	7.40188	-7.09742	18.12084	24.94224	1.29478	0.77233	143.69804	152.50754	53.50046	0.34296	 	1435852.048	 	4.48066E-6	 	15486.22842	49.58595	 
1040.0	1.0	0.0	7.51603	7.39815	-7.14427	18.0353	24.8242	1.296	0.7716	144.41105	152.87405	53.78198	0.34256	 	1592308.292	 	4.02507E-6	 	15241.91383	48.86292	 
1035.0	1.0	0.0	7.51977	7.39447	-7.19042	17.95156	24.70941	1.29706	0.77097	145.10816	153.23187	54.05732	0.34217	 	1767338.459	 	3.61264E-6	 	15001.03292	48.17618	 
1030.0	1.0	0.0	7.52345	7.39085	-7.23589	17.86951	24.59767	1.29798	0.77043	145.79023	153.58154	54.32683	0.34179	 	1963314.169	 	3.2396E-6	 	14763.41348	47.52389	 
1025.0	1.0	0.0	7.52709	7.38728	-7.28073	17.78905	24.48876	1.29875	0.76997	146.45808	153.92351	54.59082	0.34142	 	2182931.138	 	2.9025E-6	 	14528.89214	46.90427	 
1020.0	1.0	0.0	7.53069	7.38375	-7.32497	17.71009	24.38251	1.29938	0.7696	147.1125	154.25823	54.84959	0.34105	 	2429256.581	 	2.59814E-6	 	14297.31417	46.31559	 
1015.0	1.0	0.0	7.53423	7.38028	-7.36862	17.63256	24.27876	1.29989	0.7693	147.75421	154.5861	55.10342	0.3407	 	2705783.503	 	2.32359E-6	 	14068.5333	45.75617	 
1010.0	1.0	0.0	7.53774	7.37684	-7.41172	17.55635	24.17733	1.30027	0.76907	148.3839	154.90751	55.35258	0.34035	 	3016494.184	 	2.07616E-6	 	13842.41034	45.22459	 
1005.0	1.0	0.0	7.54121	7.37345	-7.4543	17.4814	24.0781	1.30055	0.76891	149.0022	155.22282	55.59731	0.34001	 	3365932.765	 	1.85337E-6	 	13618.81446	44.71918	 
1001.91	1.0	0.0	7.54334	7.37137	-7.48037	17.43565	24.01777	1.30066	0.76884	149.37915	155.4149	55.74656	0.33981	 	3603662.412	 	1.72692E-6	 	13481.73576	 	 
1000.0	1.0	0.0	7.54464	7.37009	-7.49642	17.40747	23.98088	1.30071	0.76881	149.61041	155.5377	55.83792	0.33968	 	3759503.824	 	1.65286E-6	 	13397.39975	44.28294	 
995.0	1.0	0.0	7.54805	7.36677	-7.53813	17.33435	23.88552	1.30077	0.76877	150.20973	155.85624	56.07471	0.33937	 	4203379.753	 	1.47251E-6	 	13177.86497	43.90696	 
990.0	1.0	0.0	7.55142	7.36348	-7.57939	17.26222	23.79196	1.30074	0.76879	150.79966	156.17027	56.30783	0.33906	 	4704075.865	 	1.31059E-6	 	12960.44323	43.48435	 
985.0	1.0	0.0	7.55476	7.36023	-7.62024	17.19101	23.70009	1.30061	0.76887	151.3807	156.48001	56.53746	0.33876	 	5269410.036	 	1.16535E-6	 	12745.03112	43.08242	 
980.0	1.0	0.0	7.55806	7.35701	-7.66068	17.12066	23.60981	1.3004	0.76899	151.9533	156.78572	56.76379	0.33847	 	5908350.781	 	1.0352E-6	 	12531.53122	42.69998	 
975.0	1.0	0.0	7.56134	7.35382	-7.70073	17.05111	23.52104	1.3001	0.76917	152.51791	157.0876	56.987	0.33818	 	6631196.715	 	9.18674E-7	 	12319.85177	42.33589	 
970.83	1.0	0.0	7.56406	7.35118	-7.73383	16.99372	23.44812	1.29979	0.76936	152.98276	157.33648	57.17079	0.33795	 	7306408.569	 	8.30992E-7	 	12144.71215	 	 
970.0	1.0	0.0	7.56459	7.35066	-7.74038	16.98242	23.43372	1.29972	0.7694	153.07448	157.38309	57.20716	0.3379	 	7449588.588	 	8.14475E-7	 	12110.03355	41.96365	 
965.0	1.0	0.0	7.56781	7.34754	-7.77955	16.91495	23.34789	1.29925	0.76968	153.62145	157.66091	57.42413	0.3376	 	8376170.841	 	7.21464E-7	 	11902.54249	41.49821	 
960.0	1.0	0.0	7.57099	7.34444	-7.81837	16.84818	23.26336	1.2987	0.77	154.16127	157.93487	57.63833	0.33732	 	9427457.075	 	6.38422E-7	 	11696.68851	41.1708	 
955.0	1.0	0.0	7.57416	7.34138	-7.85685	16.78207	23.18004	1.29809	0.77037	154.6943	158.20516	57.84989	0.33703	 	1.06214807E7	 	5.64356E-7	 	11492.39755	40.85819	 
950.0	1.0	0.0	7.57729	7.33834	-7.89501	16.71658	23.09787	1.2974	0.77077	155.22086	158.47195	58.05893	0.33675	 	1.197906302E7	 	4.9836E-7	 	11289.59966	40.55958	 
945.0	1.0	0.0	7.58041	7.33532	-7.93285	16.65166	23.0168	1.29665	0.77122	155.74123	158.73539	58.26558	0.33648	 	1.352427179E7	 	4.39616E-7	 	11088.22868	40.27419	 
940.0	1.0	0.0	7.5835	7.33233	-7.97039	16.58726	22.93678	1.29583	0.77171	156.25572	158.99564	58.46995	0.33621	 	1.528495901E7	 	3.8738E-7	 	10888.22215	40.00131	 
935.0	1.0	0.0	7.58657	7.32936	-8.00765	16.52337	22.85775	1.29495	0.77223	156.76458	159.25284	58.67213	0.33594	 	1.729339453E7	 	3.40979E-7	 	10689.521	39.74023	 
930.0	1.0	0.0	7.58962	7.32642	-8.04463	16.45992	22.77967	1.29401	0.77279	157.26808	159.50713	58.87223	0.33567	 	1.958701077E7	 	2.99805E-7	 	10492.06936	39.49033	 
925.0	1.0	0.0	7.59265	7.32349	-8.08134	16.3969	22.7025	1.29301	0.77339	157.76643	159.75863	59.07034	0.33541	 	2.220928121E7	 	2.63308E-7	 	10295.81441	39.25099	 
920.0	1.0	0.0	7.59567	7.32059	-8.11779	16.33426	22.6262	1.29196	0.77402	158.25988	160.00745	59.26654	0.33515	 	2.521075612E7	 	2.30991E-7	 	10100.70605	39.02167	 
915.0	1.0	0.0	7.59866	7.3177	-8.15399	16.27199	22.55073	1.29085	0.77468	158.74863	160.25373	59.46093	0.3349	 	2.865028695E7	 	2.02409E-7	 	9906.69718	38.80177	 
910.0	1.0	0.0	7.60164	7.31484	-8.18996	16.21004	22.47605	1.28969	0.77538	159.23288	160.49755	59.65357	0.33465	 	3.259647423E7	 	1.77156E-7	 	9713.74294	38.59085	 
905.0	1.0	0.0	7.6046	7.31199	-8.22569	16.14838	22.40214	1.28848	0.77611	159.71282	160.73903	59.84455	0.3344	 	3.712938288E7	 	1.54871E-7	 	9521.80089	38.38841	 
900.0	1.0	0.0	7.60754	7.30916	-8.26119	16.087	22.32897	1.28721	0.77687	160.18862	160.97827	60.03392	0.33415	 	4.23425814E7	 	1.35227E-7	 	9330.83088	38.194	 
895.0	1.0	0.0	7.61047	7.30635	-8.29648	16.02586	22.2565	1.2859	0.77766	160.66046	161.21534	60.22176	0.33391	 	4.834554958E7	 	1.17931E-7	 	9140.79486	38.0072	 
890.0	1.0	0.0	7.61338	7.30356	-8.33155	15.96494	22.18472	1.28454	0.77849	161.12849	161.45035	60.40813	0.33367	 	5.526656318E7	 	1.02721E-7	 	8951.65678	37.82762	 
885.0	1.0	0.0	7.61627	7.30078	-8.36642	15.90422	22.1136	1.28313	0.77934	161.59287	161.68338	60.59309	0.33343	 	6.325610845E7	 	8.93612E-8	 	8763.38243	37.65487	 
880.0	1.0	0.0	7.61916	7.29802	-8.40109	15.84367	22.04312	1.28168	0.78023	162.05375	161.91451	60.77669	0.33319	 	7.249096667E7	 	7.76406E-8	 	8575.93922	37.48864	 
875.0	1.0	0.0	7.62203	7.29527	-8.43556	15.78327	21.97325	1.28018	0.78114	162.51124	162.14382	60.95898	0.33296	 	8.317909134E7	 	6.73707E-8	 	8389.29631	37.32858	 
870.0	1.0	0.0	7.62488	7.29254	-8.46985	15.72301	21.90399	1.27863	0.78208	162.9655	162.37137	61.14002	0.33272	 	9.556543117E7	 	5.83834E-8	 	8203.42506	37.17425	 
865.0	1.0	0.0	7.62772	7.28982	-8.50395	15.66285	21.8353	1.27705	0.78306	163.41663	162.59725	61.31986	0.33249	 	1.099389046E8	 	5.05283E-8	 	8018.29787	37.02544	 
860.0	1.0	0.0	7.63055	7.28712	-8.53788	15.60279	21.76718	1.27541	0.78406	163.86475	162.82153	61.49854	0.33227	 	1.266407761E8	 	4.36717E-8	 	7833.88858	36.88186	 
855.0	1.0	0.0	7.63337	7.28443	-8.57162	15.5428	21.69961	1.27374	0.78509	164.30998	163.04426	61.67609	0.33204	 	1.460746961E8	 	3.76945E-8	 	7650.17239	36.74324	 
850.0	1.0	0.0	7.63617	7.28175	-8.6052	15.48287	21.63257	1.27203	0.78615	164.75243	163.26551	61.85258	0.33182	 	1.687187856E8	 	3.24908E-8	 	7467.1258	36.60932	 
845.0	1.0	0.0	7.63835	7.27968	-8.63124	15.45702	21.5696	1.27006	0.78736	165.12567	163.50325	61.99903	0.33168	 	1.915396508E8	 	2.84923E-8	 	7317.24191	29.97678	 
840.0	1.0	0.0	7.64052	7.27761	-8.65721	15.43118	21.50662	1.26808	0.78859	165.49832	163.74007	62.14528	0.33154	 	2.176952188E8	 	2.49569E-8	 	7164.51288	30.54581	 
835.0	1.0	0.0	7.64269	7.27555	-8.68311	15.40533	21.44362	1.2661	0.78983	165.87035	163.97597	62.29134	0.33141	 	2.477084028E8	 	2.18346E-8	 	7011.99897	30.50278	 
830.0	1.0	0.0	7.64485	7.27349	-8.70895	15.3795	21.3806	1.2641	0.79108	166.24179	164.21096	62.43719	0.33127	 	2.821896346E8	 	1.90801E-8	 	6859.69941	30.45991	 
825.0	1.0	0.0	7.64701	7.27143	-8.73471	15.35367	21.31758	1.26209	0.79234	166.61262	164.44503	62.58285	0.33114	 	3.218524285E8	 	1.6653E-8	 	6707.61341	30.4172	 
820.0	1.0	0.0	7.64916	7.26939	-8.7604	15.32784	21.25454	1.26007	0.79361	166.98285	164.6782	62.7283	0.331	 	3.675318759E8	 	1.45168E-8	 	6555.74016	30.37465	 
815.0	1.0	0.0	7.65131	7.26735	-8.78603	15.30202	21.19148	1.25804	0.79489	167.35248	164.91047	62.87356	0.33087	 	4.20206651E8	 	1.2639E-8	 	6404.07882	30.33227	 
810.0	1.0	0.0	7.65346	7.26531	-8.81158	15.2762	21.12841	1.25599	0.79618	167.72151	165.14183	63.01862	0.33073	 	4.810252327E8	 	1.09902E-8	 	6252.62853	30.29006	 
805.0	1.0	0.0	7.6556	7.26328	-8.83707	15.25039	21.06533	1.25394	0.79749	168.08994	165.3723	63.16348	0.33059	 	5.51337194E8	 	9.5444E-9	 	6101.38842	30.24802	 
800.0	1.0	0.0	7.65773	7.26125	-8.86249	15.22458	21.00223	1.25188	0.7988	168.45777	165.60186	63.30814	0.33046	 	6.327305917E8	 	8.27805E-9	 	5950.35755	30.20617	 
795.0	1.0	0.0	7.65986	7.25923	-8.88783	15.19878	20.93912	1.2498	0.80013	168.825	165.83054	63.4526	0.33032	 	7.270767115E8	 	7.17032E-9	 	5799.53499	30.16451	 
790.0	1.0	0.0	7.66199	7.25722	-8.91311	15.17298	20.87599	1.24771	0.80147	169.19163	166.05832	63.59686	0.33019	 	8.365836952E8	 	6.20257E-9	 	5648.91977	30.12305	 
785.0	1.0	0.0	7.66411	7.25521	-8.93832	15.14718	20.81284	1.24561	0.80282	169.55766	166.28522	63.74092	0.33005	 	9.63860907E8	 	5.35821E-9	 	5498.51086	30.08178	 
780.0	1.0	0.0	7.66622	7.25321	-8.96346	15.12139	20.74968	1.2435	0.80418	169.9231	166.51123	63.88479	0.32992	 	1.111996309E9	 	4.62246E-9	 	5348.30724	30.04072	 
775.0	1.0	0.0	7.66834	7.25121	-8.98854	15.09561	20.6865	1.24137	0.80556	170.28793	166.73636	64.02845	0.32978	 	1.28464962E9	 	3.98222E-9	 	5198.3078	29.99989	 
770.0	1.0	0.0	7.67044	7.24922	-9.01354	15.06983	20.62331	1.23924	0.80695	170.65217	166.96061	64.17192	0.32965	 	1.486164644E9	 	3.42584E-9	 	5048.51144	29.95927	 
765.0	1.0	0.0	7.67255	7.24723	-9.03847	15.04406	20.5601	1.23709	0.80835	171.01581	167.18398	64.31519	0.32951	 	1.721704937E9	 	2.94299E-9	 	4898.91698	29.91889	 
760.0	1.0	0.0	7.67464	7.24525	-9.06334	15.01829	20.49687	1.23493	0.80976	171.37886	167.40648	64.45826	0.32938	 	1.99741792E9	 	2.52453E-9	 	4749.5232	29.87876	 
755.0	1.0	0.0	7.67674	7.24328	-9.08813	14.99252	20.43363	1.23276	0.81119	171.74131	167.62811	64.60113	0.32924	 	2.320633721E9	 	2.1624E-9	 	4600.32886	29.83887	 
750.0	1.0	0.0	7.67883	7.24131	-9.11286	14.96676	20.37037	1.23057	0.81263	172.10316	167.84887	64.74381	0.32911	 	2.700106498E9	 	1.84946E-9	 	4451.33261	29.79925	 
745.0	1.0	0.0	7.68091	7.23934	-9.13752	14.941	20.30709	1.22837	0.81409	172.46442	168.06876	64.88628	0.32897	 	3.1463078E9	 	1.57942E-9	 	4302.53312	29.7599	 
740.0	1.0	0.0	7.68299	7.23738	-9.16211	14.91525	20.2438	1.22616	0.81555	172.82508	168.2878	65.02856	0.32884	 	3.671783806E9	 	1.34674E-9	 	4153.92893	29.72084	 
735.0	1.0	0.0	7.68506	7.23543	-9.18663	14.8895	20.18049	1.22394	0.81703	173.18515	168.50597	65.17064	0.32871	 	4.291591078E9	 	1.14655E-9	 	4005.51856	29.68207	 
730.0	1.0	0.0	7.68713	7.23348	-9.21108	14.86376	20.11715	1.2217	0.81853	173.54462	168.72328	65.31253	0.32857	 	5.023829023E9	 	9.74581E-10	 	3857.30043	29.64362	 
725.0	1.0	0.0	7.6892	7.23154	-9.23546	14.83802	20.05381	1.21945	0.82004	173.9035	168.93974	65.45421	0.32844	 	5.890291673E9	 	8.27077E-10	 	3709.27293	29.6055	 
720.0	1.0	0.0	7.69126	7.2296	-9.25977	14.81229	19.99044	1.21719	0.82156	174.26179	169.15534	65.5957	0.3283	 	6.917266949E9	 	7.00756E-10	 	3561.43433	29.56772	 
715.0	1.0	0.0	7.69331	7.22767	-9.28402	14.78656	19.92705	1.21492	0.8231	174.61949	169.3701	65.73699	0.32817	 	8.136518559E9	 	5.92749E-10	 	3413.78285	29.5303	 
710.0	1.0	0.0	7.69536	7.22574	-9.30819	14.76084	19.86364	1.21263	0.82466	174.97659	169.584	65.87808	0.32803	 	9.58649449E9	 	5.00549E-10	 	3266.31661	29.49325	 
705.0	1.0	0.0	7.69741	7.22382	-9.3323	14.73512	19.80022	1.21032	0.82623	175.3331	169.79707	66.01897	0.3279	 	1.13138E10	 	4.21971E-10	 	3119.03361	29.4566	 
700.0	1.0	0.0	7.69945	7.22191	-9.35634	14.70941	19.73677	1.20801	0.82781	175.68902	170.00929	66.15967	0.32777	 	1.3375099999999998E10	 	3.55115E-10	 	2971.9318	29.42036	 
695.0	1.0	0.0	7.70149	7.22	-9.38031	14.6837	19.67331	1.20568	0.82941	176.04434	170.22067	66.30017	0.32763	 	1.5839299999999998E10	 	2.98327E-10	 	2825.00899	29.38456	 
690.0	1.0	0.0	7.70352	7.21809	-9.40421	14.658	19.60982	1.20333	0.83102	176.39908	170.43121	66.44047	0.3275	 	1.87905E10	 	2.50174E-10	 	2678.26287	29.34922	 
685.0	1.0	0.0	7.70555	7.21619	-9.42804	14.6323	19.54631	1.20098	0.83266	176.75322	170.64092	66.58057	0.32736	 	2.23314E10	 	2.09413E-10	 	2531.69103	29.31437	 
680.0	1.0	0.0	7.70757	7.2143	-9.45181	14.6066	19.48279	1.19861	0.8343	177.10678	170.8498	66.72048	0.32723	 	2.6587599999999996E10	 	1.74972E-10	 	2385.2909	29.28003	 
675.0	1.0	0.0	7.70959	7.21241	-9.4755	14.58091	19.41924	1.19622	0.83597	177.45974	171.05784	66.86019	0.3271	 	3.1713299999999996E10	 	1.45923E-10	 	2239.0598	29.24622	 
670.0	1.0	0.0	7.7116	7.21053	-9.49913	14.55523	19.35567	1.19382	0.83765	177.81212	171.26506	66.9997	0.32696	 	3.78979E10	 	1.21465E-10	 	2092.99489	29.21298	 
665.0	1.0	0.0	7.71361	7.20865	-9.52269	14.52954	19.29207	1.19141	0.83935	178.1639	171.47146	67.13901	0.32683	 	4.53746E10	 	1.00913E-10	 	1947.09315	29.18035	 
660.0	1.0	0.0	7.71561	7.20678	-9.54618	14.50387	19.22846	1.18898	0.84106	178.5151	171.67703	67.27813	0.32669	 	5.443139999999999E10	 	8.36736E-11	 	1801.35937	29.14676	 
655.0	1.0	0.0	7.71761	7.20492	-9.5696	14.4782	19.16482	1.18653	0.84279	178.86571	171.88178	67.41705	0.32656	 	6.542409999999999E10	 	6.92416E-11	 	1655.83776	29.10432	 
650.0	1.0	0.0	7.7196	7.20306	-9.59295	14.45253	19.10116	1.18407	0.84454	179.21573	172.08572	67.55578	0.32643	 	7.87937E10	 	5.71831E-11	 	1510.58702	29.05015	 
645.0	1.0	0.0	7.72159	7.2012	-9.61623	14.42687	19.03748	1.1816	0.84631	179.56516	172.28884	67.6943	0.32629	 	9.508769999999998E10	 	4.71277E-11	 	1365.60607	28.99619	 
640.0	1.0	0.0	7.72358	7.19935	-9.63945	14.40121	18.97377	1.17911	0.8481	179.914	172.49115	67.83263	0.32616	 	1.14988E11	 	3.87594E-11	 	1220.89378	28.94246	 
635.0	1.0	0.0	7.72555	7.19751	-9.66259	14.37556	18.91004	1.17661	0.8499	180.26226	172.69264	67.97077	0.32603	 	1.39344E11	 	3.18095E-11	 	1076.44909	28.88894	 
630.0	1.0	0.0	7.72753	7.19567	-9.68567	14.34991	18.84628	1.17409	0.85173	180.60993	172.89333	68.1087	0.32589	 	1.69218E11	 	2.60495E-11	 	932.2709	28.83564	 
625.0	1.0	0.0	7.7295	7.19383	-9.70868	14.32427	18.7825	1.17155	0.85357	180.95701	173.09322	68.24644	0.32576	 	2.05942E11	 	2.12858E-11	 	788.35781	28.78262	 
620.0	1.0	0.0	7.73146	7.19201	-9.73162	14.29863	18.71869	1.169	0.85543	181.30351	173.2923	68.38398	0.32563	 	2.51188E11	 	1.73545E-11	 	644.70801	28.72996	 
615.0	1.0	0.0	7.73342	7.19018	-9.75449	14.273	18.65486	1.16643	0.85731	181.64942	173.49058	68.52133	0.3255	 	3.07061E11	 	1.41172E-11	 	501.32079	28.67744	 
610.0	1.0	0.0	7.73538	7.18837	-9.7773	14.24737	18.591	1.16385	0.85922	181.99474	173.68806	68.65848	0.32536	 	3.76216E11	 	1.14573E-11	 	358.19507	28.62514	 
605.0	1.0	0.0	7.73733	7.18656	-9.80003	14.22174	18.52712	1.16125	0.86114	182.33948	173.88475	68.79543	0.32523	 	4.62014E11	 	9.27685E-12	 	215.3298	28.57305	 
600.0	1.0	0.0	7.73927	7.18475	-9.8227	14.19612	18.46321	1.15864	0.86308	182.68363	174.08064	68.93219	0.3251	 	5.68714E11	 	7.49345E-12	 	72.72392	28.52118	 
595.0	1.0	0.0	7.74121	7.18295	-9.8453	14.17051	18.39927	1.15601	0.86505	183.0272	174.27574	69.06875	0.32496	 	7.01734E11	 	6.03822E-12	 	-69.62364	28.46951	 
590.0	1.0	0.0	7.74315	7.18115	-9.86783	14.1449	18.3353	1.15336	0.86703	183.37019	174.47006	69.20511	0.32483	 	8.67977E11	 	4.85361E-12	 	-211.71393	28.41806	 
585.0	1.0	0.0	7.74508	7.17937	-9.89029	14.11929	18.27131	1.15069	0.86904	183.71259	174.66358	69.34128	0.3247	 	1.07627E12	 	3.89161E-12	 	-353.54803	28.36682	 
580.0	1.0	0.0	7.747	7.17758	-9.91269	14.09369	18.20728	1.14801	0.87107	184.0544	174.85632	69.47725	0.32457	 	1.33791E12	 	3.11233E-12	 	-495.12695	28.31579	 
575.0	1.0	0.0	7.74892	7.1758	-9.93501	14.0681	18.14323	1.14531	0.87312	184.39563	175.04828	69.61302	0.32443	 	1.66743E12	 	2.48263E-12	 	-636.45177	28.26496	 
570.0	1.0	0.0	7.75084	7.17403	-9.95727	14.04251	18.07915	1.1426	0.8752	184.73628	175.23946	69.7486	0.3243	 	2.08355E12	 	1.9751E-12	 	-777.52354	28.21435	 
565.0	1.0	0.0	7.75275	7.17226	-9.97946	14.01692	18.01504	1.13986	0.8773	185.07635	175.42986	69.88398	0.32417	 	2.61044E12	 	1.5671E-12	 	-918.34328	28.16395	 
560.0	1.0	0.0	7.75465	7.1705	-10.00158	13.99134	17.95089	1.13711	0.87942	185.41583	175.61948	70.01916	0.32404	 	3.27943E12	 	1.23997E-12	 	-1058.91205	28.11375	 
555.0	1.0	0.0	7.75655	7.16874	-10.02363	13.96576	17.88672	1.13434	0.88157	185.75473	175.80833	70.15415	0.3239	 	4.13123E12	 	9.784E-13	 	-1199.23088	28.06377	 
550.0	1.0	0.0	7.75845	7.16699	-10.04562	13.94019	17.82251	1.13156	0.88374	186.09305	175.99641	70.28894	0.32377	 	5.2189E12	 	7.69816E-13	 	-1339.3008	28.01398	 
545.0	1.0	0.0	7.76034	7.16524	-10.06753	13.91462	17.75827	1.12875	0.88593	186.43078	176.18372	70.42353	0.32364	 	6.61179E12	 	6.0395E-13	 	-1479.12284	27.96441	 
540.0	1.0	0.0	7.76223	7.1635	-10.08938	13.88906	17.694	1.12593	0.88816	186.76794	176.37026	70.55793	0.32351	 	8.40083E12	 	4.72427E-13	 	-1618.69804	27.91504	 
535.0	1.0	0.0	7.76411	7.16177	-10.11116	13.8635	17.6297	1.12309	0.8904	187.10451	176.55604	70.69213	0.32338	 	1.07056E13	 	3.68439E-13	 	-1758.02739	27.86587	 
530.0	1.0	0.0	7.76598	7.16004	-10.13287	13.83795	17.56536	1.12023	0.89268	187.4405	176.74106	70.82614	0.32324	 	1.3684E13	 	2.86463E-13	 	-1897.11195	27.81691	 
525.0	1.0	0.0	7.76785	7.15831	-10.15452	13.8124	17.50099	1.11735	0.89498	187.77591	176.92531	70.95995	0.32311	 	1.75449E13	 	2.22034E-13	 	-2035.9527	27.76815	 
520.0	1.0	0.0	7.76972	7.15659	-10.17609	13.78685	17.43658	1.11445	0.8973	188.11074	177.10881	71.09356	0.32298	 	2.25657E13	 	1.71551E-13	 	-2174.55068	27.71959	 
515.0	1.0	0.0	7.77158	7.15488	-10.1976	13.76131	17.37213	1.11153	0.89966	188.44498	177.29155	71.22698	0.32285	 	2.91162E13	 	1.32118E-13	 	-2312.90687	27.67124	 
510.0	1.0	0.0	7.77344	7.15317	-10.21904	13.73578	17.30765	1.10859	0.90204	188.77865	177.47354	71.3602	0.32272	 	3.76905E13	 	1.01414E-13	 	-2451.02228	27.62308	 
505.0	1.0	0.0	7.77529	7.15147	-10.24041	13.71025	17.24313	1.10564	0.90445	189.11174	177.65477	71.49323	0.32258	 	4.89521E13	 	7.75852E-14	 	-2588.89792	27.57513	 
500.0	1.0	0.0	7.77713	7.14977	-10.26172	13.68472	17.17858	1.10266	0.9069	189.44425	177.83526	71.62606	0.32245	 	6.37938E13	 	5.91524E-14	 	-2726.53477	27.52737	 
495.0	1.0	0.0	7.77897	7.14808	-10.28295	13.6592	17.11398	1.09967	0.90937	189.77618	178.01499	71.75869	0.32232	 	8.34224E13	 	4.49418E-14	 	-2863.93383	27.47981	 
490.0	1.0	0.0	7.78081	7.14639	-10.30412	13.63369	17.04935	1.09665	0.91187	190.10753	178.19399	71.89113	0.32219	 	1.09475E14	 	3.40238E-14	 	-3001.09607	27.43245	 
485.0	1.0	0.0	7.78264	7.14471	-10.32522	13.60818	16.98467	1.09361	0.9144	190.4383	178.37223	72.02337	0.32206	 	1.44179E14	 	2.5665E-14	 	-3138.02247	27.38528	 
480.0	1.0	0.0	7.78447	7.14304	-10.34625	13.58267	16.91996	1.09056	0.91696	190.76849	178.54974	72.15541	0.32193	 	1.9058E14	 	1.92882E-14	 	-3274.71401	27.33831	 
475.0	1.0	0.0	7.78629	7.14137	-10.36722	13.55717	16.8552	1.08748	0.91956	191.0981	178.7265	72.28726	0.3218	 	2.5285499999999997E14	 	1.44412E-14	 	-3411.17166	27.29153	 
470.0	1.0	0.0	7.7881	7.1397	-10.38811	13.53167	16.79041	1.08438	0.92219	191.42713	178.90253	72.41891	0.32167	 	3.3676E14	 	1.07707E-14	 	-3547.39638	27.24494	 
465.0	1.0	0.0	7.78991	7.13804	-10.40894	13.50618	16.72556	1.08126	0.92485	191.75559	179.07783	72.55037	0.32153	 	4.5025E14	 	8.00162E-15	 	-3683.38912	27.19855	 
460.0	1.0	0.0	7.79172	7.13639	-10.4297	13.48069	16.66068	1.07812	0.92754	192.08347	179.25239	72.68163	0.3214	 	6.04377E14	 	5.92068E-15	 	-3819.15083	27.15234	 
455.0	1.0	0.0	7.79352	7.13474	-10.45039	13.45521	16.59575	1.07495	0.93027	192.41077	179.42621	72.81269	0.32127	 	8.1455E14	 	4.36305E-15	 	-3954.68247	27.10633	 
450.0	1.0	0.0	7.79531	7.1331	-10.47102	13.42973	16.53077	1.07177	0.93304	192.73749	179.59931	72.94356	0.32114	 	1.10235E15	 	3.20181E-15	 	-4089.98497	27.0605	 
445.0	1.0	0.0	7.7971	7.13146	-10.49157	13.40426	16.46575	1.06856	0.93584	193.06364	179.77168	73.07424	0.32101	 	1.49814E15	 	2.33965E-15	 	-4225.05926	27.01486	 
440.0	1.0	0.0	7.79889	7.12983	-10.51206	13.37879	16.40068	1.06533	0.93867	193.38921	179.94333	73.20471	0.32088	 	2.04481E15	 	1.70222E-15	 	-4359.90626	26.9694	 
435.0	1.0	0.0	7.80067	7.1282	-10.53248	13.35333	16.33556	1.06208	0.94155	193.7142	180.11425	73.33499	0.32075	 	2.80324E15	 	1.23297E-15	 	-4494.5269	26.92413	 
430.0	1.0	0.0	7.80244	7.12658	-10.55284	13.32787	16.27039	1.05881	0.94446	194.03862	180.28445	73.46508	0.32062	 	3.86026E15	 	8.89034E-16	 	-4628.92209	26.87904	 
425.0	1.0	0.0	7.80421	7.12496	-10.57312	13.30241	16.20517	1.05551	0.94741	194.36246	180.45393	73.59496	0.32049	 	5.34027E15	 	6.38076E-16	 	-4763.09261	26.8341	 
420.0	1.0	0.0	7.80598	7.12335	-10.59334	13.27696	16.1399	1.05219	0.9504	194.68572	180.62269	73.72466	0.32036	 	7.42239E15	 	4.55796E-16	 	-4897.03955	26.78939	 
415.0	1.0	0.0	7.80774	7.12175	-10.61349	13.25152	16.07458	1.04884	0.95343	195.00841	180.79074	73.85415	0.32023	 	1.03658E16	 	3.24017E-16	 	-5030.76331	26.74475	 
410.0	1.0	0.0	7.80949	7.12015	-10.63357	13.22608	16.0092	1.04547	0.95651	195.33052	180.95807	73.98345	0.3201	 	1.45473E16	 	2.29203E-16	 	-5164.26413	26.70016	 
405.0	1.0	0.0	7.81124	7.11855	-10.65359	13.20064	15.94377	1.04208	0.95962	195.65205	181.12469	74.11256	0.31997	 	2.0518E16	 	1.61316E-16	 	-5297.54222	26.65562	 
400.0	1.0	0.0	7.81299	7.11696	-10.67354	13.17521	15.87828	1.03866	0.96278	195.97301	181.2906	74.24147	0.31984	 	2.90874E16	 	1.12952E-16	 	-5430.59778	26.61111	 
395.0	1.0	0.0	7.81473	7.11538	-10.69342	13.14979	15.81274	1.03522	0.96598	196.2934	181.45581	74.37018	0.31971	 	4.14518E16	 	7.86714E-17	 	-5563.43101	26.56665	 
390.0	1.0	0.0	7.81646	7.1138	-10.71323	13.12436	15.74713	1.03175	0.96922	196.61321	181.6203	74.49869	0.31957	 	5.93885E16	 	5.44999E-17	 	-5696.04211	26.52222	 
385.0	1.0	0.0	7.81819	7.11223	-10.73297	13.09895	15.68147	1.02826	0.97251	196.93245	181.78409	74.62702	0.31944	 	8.55527E16	 	3.75472E-17	 	-5828.43125	26.47783	 
380.0	1.0	0.0	7.81991	7.11066	-10.75265	13.07353	15.61575	1.02475	0.97585	197.25111	181.94718	74.75514	0.31931	 	1.23935E17	 	2.57221E-17	 	-5960.59859	26.43347	 
375.0	1.0	0.0	7.82163	7.1091	-10.77226	13.04813	15.54996	1.0212	0.97924	197.56919	182.10957	74.88307	0.31918	 	1.80565E17	 	1.75197E-17	 	-6092.5443	26.38914	 
370.0	1.0	0.0	7.82335	7.10754	-10.7918	13.02273	15.48411	1.01764	0.98267	197.88671	182.27126	75.0108	0.31905	 	2.64617E17	 	1.18626E-17	 	-6224.26852	26.34484	 
365.0	1.0	0.0	7.82505	7.10599	-10.81128	12.99733	15.41819	1.01404	0.98615	198.20364	182.43225	75.13834	0.31892	 	3.90123E17	 	7.98376E-18	 	-6355.77139	26.30057	 
360.0	1.0	0.0	7.82676	7.10444	-10.83068	12.97193	15.35221	1.01042	0.98969	198.52001	182.59255	75.26568	0.3188	 	5.78694E17	 	5.34004E-18	 	-6487.05303	26.25633	 
355.0	1.0	0.0	7.82845	7.1029	-10.85002	12.94655	15.28616	1.00677	0.99327	198.8358	182.75216	75.39282	0.31867	 	8.63817E17	 	3.54918E-18	 	-6618.11355	26.21211	 
350.0	1.0	0.0	7.83015	7.10136	-10.8693	12.92116	15.22004	1.0031	0.99691	199.15102	182.91107	75.51977	0.31854	 	1.29774E18	 	2.34365E-18	 	-6748.95306	26.1679	 
345.0	1.0	0.0	7.83183	7.09983	-10.8885	12.89578	15.15384	0.99939	1.00061	199.46566	183.06929	75.64652	0.31841	 	1.96251E18	 	1.53734E-18	 	-6879.57163	26.12371	 
340.0	1.0	0.0	7.83352	7.09831	-10.90764	12.87041	15.08758	0.99567	1.00435	199.77974	183.22683	75.77308	0.31828	 	2.98789E18	 	1.00159E-18	 	-7009.96935	26.07954	 
335.0	1.0	0.0	7.83519	7.09679	-10.92671	12.84504	15.02124	0.99191	1.00816	200.09323	183.38367	75.89944	0.31815	 	4.58059E18	 	6.48002E-19	 	-7140.14625	26.03538	 
330.0	1.0	0.0	7.83687	7.09528	-10.94571	12.81967	14.95482	0.98812	1.01202	200.40616	183.53984	76.0256	0.31802	 	7.07218E18	 	4.16254E-19	 	-7270.10241	25.99123	 
325.0	1.0	0.0	7.83853	7.09377	-10.96465	12.79431	14.88832	0.98431	1.01594	200.71851	183.69532	76.15157	0.31789	 	1.09986E19	 	2.65435E-19	 	-7399.83781	25.94708	 
320.0	1.0	0.0	7.84019	7.09226	-10.98351	12.76896	14.82175	0.98046	1.01993	201.0303	183.85012	76.27734	0.31776	 	1.72329E19	 	1.67994E-19	 	-7529.3525	25.90294	 
315.0	1.0	0.0	7.84185	7.09077	-11.00231	12.74361	14.75509	0.97659	1.02397	201.34151	184.00424	76.40292	0.31763	 	2.72078E19	 	1.05507E-19	 	-7658.64646	25.85879	 
310.0	1.0	0.0	7.8435	7.08927	-11.02105	12.71826	14.68834	0.97269	1.02808	201.65214	184.15769	76.5283	0.3175	 	4.32942E19	 	6.57412E-20	 	-7787.71967	25.81464	 
305.0	1.0	0.0	7.84515	7.08779	-11.03971	12.69292	14.62151	0.96876	1.03225	201.96221	184.31046	76.65348	0.31737	 	6.94472E19	 	4.06324E-20	 	-7916.57207	25.77048	 
300.0	1.0	0.0	7.84679	7.0863	-11.05831	12.66758	14.55459	0.96479	1.03649	202.2717	184.46255	76.77847	0.31724	 	1.1232099999999998E20	 	2.49054E-20	 	-8045.20362	25.72631	 
295.0	1.0	0.0	7.84842	7.08483	-11.07684	12.64225	14.48758	0.9608	1.0408	202.58062	184.61398	76.90326	0.31711	 	1.83207E20	 	1.51359E-20	 	-8173.61424	25.68212	 
290.0	1.0	0.0	7.85005	7.08336	-11.09531	12.61692	14.42047	0.95678	1.04518	202.88898	184.76473	77.02786	0.31698	 	3.0143699999999997E20	 	9.11831E-21	 	-8301.80381	25.63791	 
285.0	1.0	0.0	7.85168	7.08189	-11.1137	12.5916	14.35327	0.95272	1.04962	203.19676	184.91481	77.15226	0.31686	 	5.0040899999999997E20	 	5.44393E-21	 	-8429.77221	25.59368	 
280.0	1.0	0.0	7.8533	7.08043	-11.13203	12.56628	14.28597	0.94864	1.05415	203.50396	185.06423	77.27646	0.31673	 	8.383659999999999E20	 	3.2203E-21	 	-8557.51932	25.54942	 
275.0	1.0	0.0	7.85491	7.07898	-11.1503	12.54097	14.21857	0.94452	1.05874	203.8106	185.21298	77.40047	0.3166	 	1.41785E21	 	1.88693E-21	 	-8685.04493	25.50512	 
270.0	1.0	0.0	7.85652	7.07753	-11.16849	12.51566	14.15106	0.94037	1.06342	204.11667	185.36107	77.52428	0.31647	 	2.42119E21	 	1.09491E-21	 	-8812.34888	25.46079	 
265.0	1.0	0.0	7.85812	7.07608	-11.18662	12.49036	14.08345	0.93618	1.06817	204.42217	185.5085	77.64789	0.31634	 	4.17586E21	 	6.28991E-22	 	-8939.43093	25.41641	 
260.0	1.0	0.0	7.85972	7.07464	-11.20468	12.46506	14.01573	0.93197	1.073	204.72709	185.65527	77.77131	0.31621	 	7.27616E21	 	3.5763E-22	 	-9066.29084	25.37198	 
255.0	1.0	0.0	7.86132	7.07321	-11.22268	12.43977	13.94789	0.92772	1.07792	205.03145	185.80138	77.89454	0.31608	 	1.28122E22	 	2.01196E-22	 	-9192.92832	25.3275	 
250.0	1.0	0.0	7.8629	7.07178	-11.2406	12.41448	13.87994	0.92343	1.08292	205.33524	185.94683	78.01756	0.31596	 	2.28058E22	 	1.11961E-22	 	-9319.34308	25.28295	 
245.0	1.0	0.0	7.86449	7.07036	-11.25846	12.38919	13.81186	0.91911	1.088	205.63845	186.09162	78.14039	0.31583	 	4.10485E22	 	6.16091E-23	 	-9445.53479	25.23834	 
240.0	1.0	0.0	7.86606	7.06894	-11.27626	12.36391	13.74367	0.91476	1.09318	205.9411	186.23577	78.26302	0.3157	 	7.473499999999999E22	 	3.35125E-23	 	-9571.50306	25.19365	 
235.0	1.0	0.0	7.86763	7.06753	-11.29398	12.33864	13.67534	0.91037	1.09845	206.24318	186.37926	78.38546	0.31557	 	1.3768E23	 	1.80138E-23	 	-9697.24751	25.14889	 
230.0	1.0	0.0	7.8692	7.06612	-11.31164	12.31337	13.60689	0.90595	1.10381	206.54469	186.5221	78.5077	0.31544	 	2.5673999999999998E23	 	9.56512E-24	 	-9822.76766	25.10403	 
225.0	1.0	0.0	7.87076	7.06472	-11.32923	12.2881	13.5383	0.90149	1.10927	206.84562	186.66429	78.62975	0.31531	 	4.84784E23	 	5.01532E-24	 	-9948.06308	25.05908	 
220.0	1.0	0.0	7.87232	7.06332	-11.34676	12.26284	13.46957	0.897	1.11483	207.14599	186.80584	78.7516	0.31519	 	9.27257E23	 	2.59577E-24	 	-10073.13322	25.01403	 
215.0	1.0	0.0	7.87387	7.06193	-11.36422	12.23758	13.4007	0.89247	1.12049	207.44579	186.94674	78.87325	0.31506	 	1.79731E24	 	1.32562E-24	 	-10197.97755	24.96886	 
210.0	1.0	0.0	7.87541	7.06055	-11.38161	12.21233	13.33168	0.8879	1.12626	207.74503	187.08699	78.9947	0.31493	 	3.53177E24	 	6.67692E-25	 	-10322.59543	24.92358	 
205.0	1.0	0.0	7.87695	7.05917	-11.39893	12.18708	13.26251	0.88329	1.13213	208.04369	187.22661	79.11596	0.3148	 	7.0388E24	 	3.31552E-25	 	-10446.98624	24.87816	 
200.0	1.0	0.0	7.87849	7.05779	-11.41619	12.16184	13.19319	0.87865	1.13811	208.34178	187.36558	79.23703	0.31467	 	1.42343E25	 	1.62237E-25	 	-10571.14927	24.83261	 
195.0	1.0	0.0	7.88002	7.05642	-11.43338	12.1366	13.1237	0.87397	1.14421	208.63931	187.50392	79.35789	0.31455	 	2.92216E25	 	7.8193E-26	 	-10695.08379	24.7869	 
190.0	1.0	0.0	7.88154	7.05506	-11.4505	12.11137	13.05404	0.86925	1.15042	208.93627	187.64161	79.47856	0.31442	 	6.09281E25	 	3.71014E-26	 	-10818.78898	24.74104	 
185.0	1.0	0.0	7.88306	7.0537	-11.46756	12.08614	12.98421	0.86449	1.15676	209.23266	187.77867	79.59903	0.31429	 	1.2909100000000002E26	 	1.7322E-26	 	-10942.26398	24.695	 
180.0	1.0	0.0	7.88457	7.05234	-11.48455	12.06092	12.9142	0.85969	1.16321	209.52848	187.9151	79.71931	0.31416	 	2.7808100000000003E26	 	7.95348E-27	 	-11065.50789	24.64878	 
175.0	1.0	0.0	7.88608	7.051	-11.50147	12.0357	12.84401	0.85485	1.1698	209.82373	188.0509	79.83939	0.31404	 	6.0937200000000005E26	 	3.58945E-27	 	-11188.51971	24.60237	 
170.0	1.0	0.0	7.88758	7.04965	-11.51833	12.01049	12.77363	0.84997	1.17651	210.11842	188.18606	79.95928	0.31391	 	1.3592E27	 	1.59131E-27	 	-11311.29841	24.55574	 
165.0	1.0	0.0	7.88908	7.04832	-11.53512	11.98528	12.70304	0.84505	1.18337	210.41254	188.32059	80.07896	0.31378	 	3.0876899999999997E27	 	6.92589E-28	 	-11433.84286	24.50889	 
160.0	1.0	0.0	7.89057	7.04698	-11.55184	11.96007	12.63226	0.84009	1.19036	210.70609	188.4545	80.19845	0.31365	 	7.14845E27	 	2.95742E-28	 	-11556.15188	24.4618	 
155.0	1.0	0.0	7.89206	7.04566	-11.5685	11.93487	12.56126	0.83508	1.19749	210.99907	188.58778	80.31775	0.31353	 	1.68774E28	 	1.23816E-28	 	-11678.22418	24.41446	 
150.0	1.0	0.0	7.89354	7.04433	-11.58509	11.90968	12.49004	0.83004	1.20477	211.29149	188.72043	80.43684	0.3134	 	4.06646E28	 	5.07884E-29	 	-11800.05842	24.36685	 
145.0	1.0	0.0	7.89501	7.04302	-11.60161	11.88449	12.41859	0.82495	1.2122	211.58334	188.85246	80.55574	0.31327	 	1.0006E29	 	2.03966E-29	 	-11921.65315	24.31895	 
140.0	1.0	0.0	7.89648	7.04171	-11.61807	11.8593	12.3469	0.81981	1.21979	211.87462	188.98387	80.67445	0.31315	 	2.5163400000000003E29	 	8.01356E-30	 	-12043.00685	24.27074	 
135.0	1.0	0.0	7.89795	7.0404	-11.63446	11.83412	12.27497	0.81464	1.22754	212.16534	189.11466	80.79296	0.31302	 	6.472780000000001E29	 	3.07763E-30	 	-12164.11786	24.2222	 
130.0	1.0	0.0	7.89941	7.0391	-11.65078	11.80895	12.20279	0.80942	1.23545	212.45549	189.24483	80.91127	0.31289	 	1.70447E30	 	1.15442E-30	 	-12284.98444	24.17332	 
125.0	1.0	0.0	7.90086	7.03781	-11.66704	11.78377	12.13034	0.80416	1.24354	212.74507	189.37438	81.02938	0.31277	 	4.59887E30	 	4.22554E-31	 	-12405.60476	24.12406	 
120.0	1.0	0.0	7.90231	7.03652	-11.68323	11.75861	12.05761	0.79885	1.25181	213.03409	189.50332	81.1473	0.31264	 	1.27255E31	 	1.50789E-31	 	-12525.97682	24.07441	 
115.0	1.0	0.0	7.90375	7.03523	-11.69935	11.73344	11.9846	0.79349	1.26025	213.32254	189.63164	81.26502	0.31251	 	3.6148399999999997E31	 	5.24079E-32	 	-12646.09854	24.02434	 
110.0	1.0	0.0	7.90519	7.03395	-11.71541	11.70829	11.91129	0.78809	1.26889	213.61042	189.75935	81.38254	0.31238	 	1.0552E32	 	1.77223E-32	 	-12765.96769	23.97383	 
105.0	1.0	0.0	7.90662	7.03268	-11.7314	11.68313	11.83767	0.78264	1.27772	213.89774	189.88645	81.49987	0.31226	 	3.16874E32	 	5.82458E-33	 	-12885.58186	23.92284	 
100.0	1.0	0.0	7.90805	7.03141	-11.74732	11.65799	11.76373	0.77715	1.28675	214.18449	190.01293	81.617	0.31213	 	9.80019E32	 	1.85838E-33	 	-13004.93855	23.87134	 
95.0	1.0	0.0	7.90947	7.03015	-11.76318	11.63284	11.68945	0.77161	1.29599	214.47068	190.13881	81.73393	0.31201	 	3.12537E33	 	5.74923E-34	 	-13124.03505	23.8193	 
90.0	1.0	0.0	7.91089	7.02889	-11.77897	11.6077	11.61481	0.76602	1.30545	214.7563	190.26408	81.85067	0.31188	 	1.02905E34	 	1.7224E-34	 	-13242.86849	23.76669	 
85.0	1.0	0.0	7.9123	7.02763	-11.79469	11.58257	11.53981	0.76038	1.31513	215.04135	190.38875	81.9672	0.31175	 	3.50288E34	 	4.99029E-35	 	-13361.43581	23.71346	 
80.0	1.0	0.0	7.9137	7.02639	-11.81035	11.55744	11.46443	0.7547	1.32503	215.32584	190.51281	82.08355	0.31163	 	1.2344599999999998E35	 	1.39627E-35	 	-13479.73374	23.65959	 
75.0	1.0	0.0	7.9151	7.02515	-11.82594	11.53232	11.38864	0.74896	1.33518	215.60977	190.63627	82.19969	0.3115	 	4.510669999999999E35	 	3.76715E-36	 	-13597.75882	23.60502	 
70.0	1.0	0.0	7.91649	7.02391	-11.84147	11.5072	11.31244	0.74318	1.34557	215.89313	190.75913	82.31564	0.31137	 	1.71161E36	 	9.78512E-37	 	-13715.50734	23.5497	 
65.0	1.0	0.0	7.91788	7.02268	-11.85693	11.48208	11.23579	0.73735	1.35621	216.17592	190.88139	82.43139	0.31125	 	6.756099999999999E36	 	2.44287E-37	 	-13832.97534	23.4936	 
60.0	1.0	0.0	7.91927	7.02145	-11.87232	11.45697	11.15869	0.73146	1.36712	216.45815	191.00305	82.54694	0.31112	 	2.77899E37	 	5.85114E-38	 	-13950.1586	23.43665	 
55.0	1.0	0.0	7.92064	7.02023	-11.88764	11.43187	11.0811	0.72553	1.3783	216.73982	191.12411	82.6623	0.311	 	1.19342E38	 	1.34204E-38	 	-14067.05262	23.3788	 
50.0	1.0	0.0	7.92202	7.01901	-11.9029	11.40677	11.00301	0.71955	1.38976	217.02092	191.24458	82.77746	0.31087	 	5.3614899999999994E38	 	2.94175E-39	 	-14183.65256	23.31999	 
45.0	1.0	0.0	7.92338	7.0178	-11.9181	11.38167	10.92438	0.71351	1.40152	217.30145	191.36445	82.89242	0.31074	 	2.5251500000000002E39	 	6.14939E-40	 	-14299.9533	23.26015	 
40.0	1.0	0.0	7.92474	7.0166	-11.93322	11.35658	10.84519	0.70743	1.41357	217.58143	191.48373	83.00719	0.31062	 	1.24962E40	 	1.22309E-40	 	-14415.94932	23.1992	 
35.0	1.0	0.0	7.9261	7.0154	-11.94828	11.33149	10.76542	0.70129	1.42594	217.86083	191.60242	83.12175	0.31049	 	6.51343E40	 	2.30908E-41	 	-14531.63471	23.13708	 
30.0	1.0	0.0	7.92745	7.0142	-11.96328	11.30641	10.68503	0.6951	1.43864	218.13968	191.72052	83.23612	0.31037	 	3.58503E41	 	4.12717E-42	 	-14647.00316	23.07369	 
25.0	1.0	0.0	7.92879	7.01301	-11.97821	 	10.60398	0.68886	1.45167	218.41796	191.83803	83.3503	0.31024	 	2.0893799999999998E42	 	6.96472E-43	 	-14762.04789	 	 
