T (C)	Fraction solid (wt)-TOTAL	Fraction liquid (wt)-LIQUID	Density (g/(cm)^3)-TOTAL	Molar volume (cm^3)-TOTAL	Volume change (%)-  	Average expansion coeff. (10e-6 1/K)-  	Thermal conductivity (W/(m*K))-TOTAL	Electrical resistivity (10e-6 Ohm*m)-TOTAL	Electrical conductivity (10e6 1/(Ohm*m))-TOTAL	Young's modulus (GPa)-TOTAL	Bulk modulus (GPa)-TOTAL	Shear modulus(GPa)-TOTAL	Poisson's ratio-TOTAL	Liquid viscosity (mPa s)-  	Total viscosity (mPa s)-  	Liquid diffusivity (10e-9 (m^2)/s)-  	Total diffusivity (10e-9 (m^2)/s)-  	Surface Tension (mN/m)-  	Enthalpy (J/mole)-TOTAL	Specific heat (J/(mole K))-TOTAL	Latent heat (J/mole)-TOTAL
1400.0	0.0	1.0	7.45061	8.00277	0.0	33.90542	30.29566	1.35307	0.73906	0.0	123.06618	0.0	0.5	7.204	7.204	1.13357	1.13357	1842.1225	43545.698	 	0.0
1395.0	0.0	1.0	7.45487	7.9982	-0.0570715	33.87088	30.21139	1.35279	0.73921	0.0	123.2033	0.0	0.5	7.28209	7.28209	1.11806	1.11806	1846.42219	43346.352	39.8692	0.0
1390.0	0.0	1.0	7.45912	7.99365	-0.11398	33.83654	30.12711	1.35251	0.73937	0.0	123.34042	0.0	0.5	7.3615	7.3615	1.10269	1.10269	1850.75928	43147.443	39.7818	0.0
1385.0	0.0	1.0	7.46336	7.98911	-0.17073	33.80239	30.04284	1.35222	0.73952	0.0	123.47754	0.0	0.5	7.44227	7.44227	1.08744	1.08744	1855.13333	42948.968	39.695	0.0
1380.0	0.0	1.0	7.46759	7.98458	-0.22733	33.76843	29.95857	1.35194	0.73968	0.0	123.61466	0.0	0.5	7.52442	7.52442	1.07232	1.07232	1859.54383	42750.924	39.6088	0.0
1375.0	0.0	1.0	7.47182	7.98006	-0.28376	33.73467	29.87429	1.35165	0.73983	0.0	123.75178	0.0	0.5	7.60799	7.60799	1.05734	1.05734	1863.99026	42553.308	39.5232	0.0
1370.0	0.0	1.0	7.47604	7.97556	-0.34003	33.70112	29.79002	1.35136	0.73999	0.0	123.8889	0.0	0.5	7.693	7.693	1.04248	1.04248	1868.47207	42356.118	39.438	0.0
1365.0	0.0	1.0	7.48025	7.97107	-0.39614	33.66776	29.70574	1.35107	0.74015	0.0	124.02602	0.0	0.5	7.77948	7.77948	1.02776	1.02776	1872.98867	42159.351	39.3534	0.0
1360.0	0.0	1.0	7.48445	7.96659	-0.45209	33.63462	29.62147	1.35078	0.74031	0.0	124.16314	0.0	0.5	7.86748	7.86748	1.01316	1.01316	1877.53947	41963.004	39.2694	0.0
1355.7	0.0	1.0	7.48806	7.96275	-0.50004	33.6063	29.54907	1.35053	0.74045	0.0	124.28094	0.0	0.5	7.94432	7.94432	1.00072	1.00072	1881.47618	41794.649	39.1906	0.0
1355.0	0.02192	0.97808	7.49543	7.95492	-0.59794	33.3444	29.61616	1.34689	0.74245	2.25114E-5	124.98993	7.51715E-6	0.49734	7.95521	8.19081	0.99892	0.97018	1881.45152	41434.888	510.87901	332.186
1350.0	0.16787	0.83213	7.54474	7.90287	-1.2483	31.60528	30.07396	1.32231	0.75625	0.0799126	129.70807	0.0270084	0.4794	8.03338	20.88103	0.98616	0.3794	1881.14668	39037.214	479.5348	2534.346
1345.0	0.28662	0.71338	7.58583	7.86013	-1.78239	30.18765	30.45067	1.30193	0.76809	0.69695	133.59621	0.23794	0.46456	8.11353	108.69542	0.97341	0.0726598	1880.73442	37061.921	395.0586	4314.537
1340.0	0.38426	0.61574	7.62043	7.82442	-2.22861	29.01313	30.7635	1.28471	0.77839	2.30137	136.83132	0.79239	0.45217	8.19562	341.94366	0.96068	0.0230254	1880.22493	35414.97	329.3902	5766.797
1335.0	0.46531	0.53469	7.64984	7.79441	-2.60361	28.03623	31.02437	1.26996	0.78743	5.04231	139.55177	1.74869	0.44174	8.27967	756.82763	0.94798	0.0103709	1879.61754	34025.92	277.81	6961.564
1330.0	0.53314	0.46686	7.6751	7.76881	-2.92354	27.21217	31.2415	1.25721	0.79541	8.83534	141.86026	3.08306	0.43289	8.36589	1360.82703	0.9353	0.00574987	1878.92139	32841.401	236.9038	7952.204
1325.0	0.59035	0.40965	7.69692	7.74688	-3.19756	26.51594	31.42113	1.24613	0.80249	13.47857	143.83748	4.72823	0.42533	8.45418	2145.42719	0.92264	0.00363572	1878.13487	31820.549	204.1704	8779.579
1320.0	0.63895	0.36105	7.716	7.72777	-3.43638	25.91763	31.56855	1.23643	0.80878	18.73857	145.54417	6.60355	0.41882	8.54479	3095.43597	0.91	0.00251201	1877.2693	30931.764	177.757	9475.287
1315.0	0.68048	0.31952	7.73281	7.71106	-3.64519	25.40306	31.68819	1.22789	0.8144	24.39127	147.03069	8.62982	0.4132	8.63778	4194.50114	0.89738	0.00184798	1876.3246	30150.388	156.2752	10063.984
1310.0	0.7162	0.2838	7.74772	7.69631	-3.82941	24.9572	31.78367	1.22035	0.81944	30.2485	148.33421	10.73938	0.4083	8.73322	5428.45164	0.88478	0.00142342	1875.30439	29457.009	138.6758	10565.079
1305.0	0.74707	0.25293	7.76103	7.68323	-3.99286	24.56948	31.85821	1.21365	0.82396	36.15859	149.48618	12.87689	0.40401	8.83118	6785.89175	0.8722	0.00113508	1874.21124	28836.227	124.1564	10993.971
1300.0	0.77389	0.22611	7.773	7.6715	-4.1395	24.22886	31.91457	1.20767	0.82804	42.00881	150.51116	15.00061	0.40024	8.93184	8258.94107	0.85964	9.29678E-4	1873.05363	28275.724	112.1006	11362.972
1295.0	0.7973	0.2027	7.78383	7.66093	-4.27156	23.92917	31.95511	1.2023	0.83174	47.71738	151.42926	17.07976	0.3969	9.0352	9843.06698	0.8471	7.77578E-4	1871.83244	27765.585	102.0278	11682.0
1292.03	0.80966	0.19034	7.78974	7.65518	-4.34333	23.77008	31.97164	1.1994	0.83375	50.97539	151.92687	18.26922	0.39512	9.09786	10829.13711	0.83967	7.05434E-4	1871.09567	27485.073	 	11849.039
1290.0	0.82072	0.17928	7.79442	7.65062	-4.40039	23.63679	31.99573	1.19695	0.83546	54.02514	152.36721	19.38435	0.39352	9.14192	11697.527	0.83455	6.52219E-4	1872.31062	27252.951	102.5268	12003.907
1285.0	0.8456	0.1544	7.80527	7.64006	-4.53228	23.33288	32.04482	1.19129	0.83943	61.43276	153.36837	22.09959	0.38991	9.25155	13952.65127	0.82202	5.45054E-4	1875.25162	26716.858	107.2186	12349.656
1280.0	0.86652	0.13348	7.81488	7.63074	-4.64873	23.07327	32.07475	1.18636	0.84292	68.2882	154.23596	24.62046	0.38682	9.36275	16300.67214	0.80965	4.65045E-4	1878.11957	26239.595	95.4526	12636.957
1275.0	0.88424	0.11576	7.8235	7.62241	-4.75291	22.84888	32.08882	1.18202	0.84601	74.59041	154.99654	26.94436	0.38416	9.47573	18744.25391	0.79742	4.03117E-4	1880.92424	25809.298	86.0594	12877.671
1270.0	0.89937	0.10063	7.83132	7.61486	-4.84722	22.65284	32.08978	1.17817	0.84877	80.36468	155.67089	29.07885	0.38184	9.59053	21291.77195	0.78533	3.53739E-4	1883.67319	25416.903	78.479	13080.859
1265.0	0.91237	0.0876345	7.83847	7.60797	-4.93326	22.48053	32.07972	1.17472	0.85127	85.64351	156.27459	31.03449	0.37981	9.70711	23953.2074	0.77338	3.13416E-4	1886.36886	25055.398	72.301	13253.532
1261.02	0.92136	0.0786397	7.84373	7.60291	-4.99648	22.35864	32.06449	1.17223	0.85307	89.48408	156.71093	32.45988	0.37838	9.80125	26154.75315	0.76397	2.86292E-4	1888.48119	24786.949	 	13371.837
1260.0	0.92367	0.0763289	7.84516	7.60162	-5.01264	22.32735	32.06035	1.17161	0.85353	90.47084	156.82169	32.82646	0.37802	9.80985	26743.03348	0.7628	2.79808E-4	1888.3474	24717.105	67.6586	13403.365
1255.0	0.93438	0.0656184	7.852	7.59546	-5.08962	22.18031	32.03549	1.16869	0.85566	95.18256	157.33876	34.57873	0.37632	9.8561	29751.17658	0.75674	2.50697E-4	1887.73801	24383.732	66.6746	13548.648
1250.0	0.94355	0.056449	7.85835	7.58977	-5.16076	22.0502	32.0025	1.16607	0.85758	99.42424	157.80399	36.15898	0.37482	9.90772	32899.17438	0.75034	2.25967E-4	1887.16738	24073.074	62.1316	13671.584
1245.0	0.95146	0.0485429	7.86428	7.58447	-5.22695	21.93443	31.963	1.16368	0.85934	103.25345	158.22735	37.58788	0.37349	9.96446	36207.57568	0.74361	2.04645E-4	1886.62843	23780.998	58.4152	13776.304
1240.0	0.95832	0.0416824	7.86986	7.5795	-5.28911	21.8303	31.918	1.16148	0.86097	106.72178	158.61656	38.88407	0.37231	10.02621	39698.11012	0.7366	1.86037E-4	1886.11985	23504.275	55.3446	13866.034
1235.0	0.96431	0.0356944	7.87515	7.5748	-5.34774	21.73639	31.8683	1.15945	0.86248	109.87357	158.97745	40.06363	0.37124	10.09281	43392.64721	0.72932	1.69635E-4	1885.63505	23240.334	52.7882	13943.344
1231.06	0.96847	0.031526	7.87912	7.57128	-5.39177	21.66877	31.82599	1.15795	0.86359	112.14629	159.24481	40.91524	0.37047	10.1488	46461.87946	0.7234	1.58015E-4	1885.26339	23040.223	 	13996.463
1230.0	0.97034	0.0296619	7.88052	7.56996	-5.40827	21.63572	31.82388	1.15722	0.86414	112.99009	159.34705	41.23282	0.37015	10.18037	47468.24694	0.72065	1.54556E-4	1884.54671	22974.051	53.2566	14023.355
1225.0	0.97838	0.0216245	7.88675	7.56405	-5.48208	21.49218	31.80822	1.15394	0.8666	116.73243	159.79851	42.64264	0.36873	10.33439	52394.46382	0.70755	1.39559E-4	1881.36281	22673.187	60.1728	14138.304
1220.0	0.9847	0.0153005	7.8922	7.55889	-5.54658	21.37704	31.77679	1.15122	0.86864	119.86954	160.18901	43.82604	0.36756	10.49456	57473.75791	0.69443	1.268E-4	1878.44	22398.798	54.8778	14227.133
1215.0	0.98975	0.0102465	7.89706	7.55427	-5.60429	21.28257	31.73707	1.1488	0.87047	122.7009	160.53506	44.89347	0.36658	10.66057	62766.47706	0.68132	1.15719E-4	1875.75731	22143.971	50.9654	14296.754
1210.0	0.99385	0.00615027	7.90147	7.55007	-5.65684	21.20388	31.69092	1.14661	0.87213	125.72047	160.84745	46.0266	0.36574	10.83229	68326.54376	0.66827	1.05945E-4	1873.28647	21903.889	48.0164	14351.979
1205.0	0.99721	0.00278843	7.90554	7.54618	-5.70545	21.1372	31.63823	1.14465	0.87363	129.02419	161.13416	47.26144	0.365	11.01002	74204.49801	0.65527	9.72243E-5	1871.01103	21675.127	45.7524	14396.235
1200.0	1.0	0.0	7.90935	7.54253	-5.75103	21.07977	31.58317	1.14277	0.87507	131.35752	161.4011	48.13898	0.36436	 	80450.56554	 	8.93726E-5	 	21455.195	43.9864	14432.008
1195.22	1.0	0.0	7.91178	7.54023	-5.77974	21.07272	31.50208	1.14199	0.87567	131.7046	161.57555	48.27366	0.36415	 	86068.34901	 	8.32679E-5	 	21248.49263	 	 
1195.0	1.0	0.0	7.91207	7.53996	-5.7832	21.06537	31.48393	1.14248	0.87529	131.74006	161.56544	48.28826	0.3641	 	86380.64965	 	8.29546E-5	 	21232.68779	44.50144	 
1190.0	1.0	0.0	7.9187	7.53364	-5.86215	20.89829	31.09355	1.15288	0.86739	132.53599	161.32963	48.61638	0.36308	 	93975.13758	 	7.59911E-5	 	20870.93169	72.35122	 
1187.5	1.0	0.0	7.92196	7.53054	-5.90086	20.81678	30.90901	1.15778	0.86372	132.9169	161.21118	48.7738	0.36259	 	98047.83744	 	7.27099E-5	 	20692.9867	 	 
1185.0	1.0	0.0	7.92516	7.5275	-5.93883	20.73721	30.72936	1.16256	0.86017	133.28622	161.09387	48.92663	0.3621	 	102302.4469	 	6.95669E-5	 	20517.47589	70.69116	 
1180.0	1.0	0.0	7.93144	7.52154	-6.01335	20.58184	30.38146	1.17184	0.85336	133.99569	160.86083	49.22085	0.36117	 	111439.4049	 	6.36441E-5	 	20171.88977	69.11722	 
1175.0	1.0	0.0	7.93757	7.51573	-6.08592	20.43157	30.04862	1.18074	0.84692	134.65524	160.61629	49.49569	0.36027	 	121469.1793	 	5.81881E-5	 	19833.87438	67.60308	 
1170.0	1.0	0.0	7.94355	7.51007	-6.15664	20.28612	29.73	1.18928	0.84085	135.29406	160.39227	49.76193	0.35941	 	132486.1206	 	5.31652E-5	 	19503.03459	66.16796	 
1165.0	1.0	0.0	7.94939	7.50455	-6.2256	20.14525	29.42482	1.19745	0.83511	135.90331	160.17532	50.01634	0.35859	 	144595.2707	 	4.85441E-5	 	19178.99727	64.80746	 
1160.0	1.0	0.0	7.9551	7.49917	-6.2929	20.00871	29.13231	1.20527	0.82969	136.48575	159.96614	50.25999	0.3578	 	157913.6318	 	4.42954E-5	 	18861.4104	63.51737	 
1155.0	1.0	0.0	7.96069	7.49391	-6.35862	19.87626	28.85171	1.21274	0.82458	137.04388	159.76523	50.49382	0.35704	 	172571.64	 	4.03916E-5	 	18549.94205	62.29367	 
1150.0	1.0	0.0	7.96615	7.48877	-6.42284	19.74771	28.58235	1.21988	0.81975	137.57989	159.57294	50.71867	0.3563	 	188714.7876	 	3.68071E-5	 	18244.27944	61.13252	 
1145.0	1.0	0.0	7.9715	7.48374	-6.48564	19.62282	28.32356	1.22671	0.81519	138.09576	159.38948	50.93532	0.3556	 	206505.5024	 	3.35179E-5	 	17944.1279	60.03031	 
1140.0	1.0	0.0	7.97674	7.47882	-6.54708	19.50143	28.07472	1.23322	0.81089	138.59327	159.21494	51.14444	0.35492	 	226125.2237	 	3.05018E-5	 	17649.20993	58.98359	 
1135.0	1.0	0.0	7.98188	7.47401	-6.60725	19.38334	27.83523	1.23942	0.80683	139.074	159.04936	51.34666	0.35427	 	247776.783	 	2.7738E-5	 	17359.2642	57.98915	 
1130.0	1.0	0.0	7.98692	7.46929	-6.66619	19.26838	27.60456	1.24534	0.80299	139.5394	158.89271	51.54253	0.35363	 	271687.0832	 	2.5207E-5	 	17074.04465	57.04391	 
1125.0	1.0	0.0	7.99187	7.46467	-6.72396	19.1564	27.38219	1.25098	0.79937	139.99078	158.7449	51.73258	0.35302	 	298110.1528	 	2.28909E-5	 	16793.31955	56.14502	 
1120.0	1.0	0.0	7.99672	7.46013	-6.78063	19.04723	27.16763	1.25635	0.79595	140.4293	158.60583	51.91726	0.35243	 	327330.5758	 	2.07729E-5	 	16516.8707	55.28977	 
1115.0	1.0	0.0	8.0015	7.45568	-6.83625	18.94073	26.96043	1.26147	0.79273	140.85607	158.47535	52.09701	0.35186	 	359667.4294	 	1.88374E-5	 	16244.49254	54.47563	 
1110.0	1.0	0.0	8.00619	7.45131	-6.89086	18.83676	26.76017	1.26633	0.78968	141.27205	158.35331	52.2722	0.35131	 	395478.7268	 	1.707E-5	 	15975.99137	53.70023	 
1105.0	1.0	0.0	8.01081	7.44702	-6.94452	18.73521	26.56644	1.27095	0.78681	141.67814	158.23954	52.44321	0.35078	 	435166.4432	 	1.54571E-5	 	15711.18468	52.96134	 
1100.0	1.0	0.0	8.01535	7.4428	-6.99726	18.63594	26.37888	1.27535	0.7841	142.07517	158.13385	52.61036	0.35026	 	479182.2945	 	1.39863E-5	 	15449.90038	52.25686	 
1095.0	1.0	0.0	8.01982	7.43865	-7.04913	18.53883	26.19714	1.27952	0.78155	142.46389	158.03605	52.77394	0.34976	 	528034.2852	 	1.26461E-5	 	15191.97613	51.58485	 
1090.0	1.0	0.0	8.02423	7.43456	-7.10017	18.44379	26.02089	1.28348	0.77913	142.84498	157.94596	52.93425	0.34927	 	582294.1274	 	1.14258E-5	 	14937.25881	50.94347	 
1085.0	1.0	0.0	8.02857	7.43054	-7.15041	18.3507	25.84984	1.28723	0.77686	143.2191	157.86337	53.09153	0.34879	 	642605.8195	 	1.03155E-5	 	14685.60382	50.331	 
1080.0	1.0	0.0	8.03285	7.42658	-7.19989	18.25948	25.68368	1.29079	0.77472	143.58681	157.78811	53.24602	0.34833	 	709695.2431	 	9.30595E-6	 	14436.87462	49.74584	 
1075.0	1.0	0.0	8.03707	7.42268	-7.24864	18.17002	25.52217	1.29416	0.7727	143.94866	157.71996	53.39794	0.34789	 	784381.3784	 	8.38876E-6	 	14190.9422	49.18648	 
1070.0	1.0	0.0	8.04124	7.41883	-7.29669	18.08223	25.36505	1.29734	0.77081	144.30515	157.65875	53.5475	0.34745	 	867588.8661	 	7.55609E-6	 	13947.68458	48.65152	 
1065.0	1.0	0.0	8.04535	7.41504	-7.34408	17.99605	25.21208	1.30036	0.76902	144.65673	157.60428	53.69488	0.34703	 	960362.5816	 	6.80074E-6	 	13706.9864	48.13964	 
1060.0	1.0	0.0	8.04941	7.4113	-7.39082	17.91138	25.06306	1.3032	0.76734	145.00382	157.55637	53.84025	0.34661	 	1063884.231	 	6.11605E-6	 	13468.73846	47.64959	 
1055.0	1.0	0.0	8.05343	7.40761	-7.43696	17.82815	24.91776	1.30588	0.76577	145.34682	157.51484	53.98378	0.34621	 	1179491.422	 	5.4959E-6	 	13232.8374	47.18021	 
1050.0	1.0	0.0	8.05739	7.40396	-7.4825	17.74628	24.77601	1.30841	0.76429	145.68609	157.47951	54.12561	0.34581	 	1308699.458	 	4.93464E-6	 	12999.18525	46.73043	 
1045.0	1.0	0.0	8.06131	7.40036	-7.52748	17.66572	24.63763	1.31079	0.7629	146.02195	157.45021	54.26588	0.34543	 	1453226.474	 	4.42709E-6	 	12767.6892	46.29921	 
1040.0	1.0	0.0	8.06519	7.39681	-7.57192	17.5864	24.50244	1.31302	0.7616	146.35472	157.42677	54.40473	0.34506	 	1615022.334	 	3.96846E-6	 	12538.26117	45.88561	 
1035.0	1.0	0.0	8.06902	7.39329	-7.61584	17.50825	24.37028	1.31511	0.76039	146.68469	157.40902	54.54226	0.34469	 	1796301.683	 	3.55439E-6	 	12310.81763	45.48871	 
1030.0	1.0	0.0	8.07281	7.38982	-7.65925	17.43122	24.24102	1.31707	0.75926	147.01213	157.39681	54.6786	0.34433	 	1999582.357	 	3.18084E-6	 	12085.27926	45.10768	 
1025.0	1.0	0.0	8.07657	7.38638	-7.70219	17.35525	24.11451	1.3189	0.75821	147.33727	157.38999	54.81384	0.34398	 	2227729.244	 	2.84413E-6	 	11861.57068	44.74172	 
1020.0	1.0	0.0	8.08029	7.38298	-7.74466	17.28028	23.99061	1.32061	0.75723	147.66034	157.3884	54.94809	0.34363	 	2484005.264	 	2.54087E-6	 	11639.62031	44.39007	 
1015.0	1.0	0.0	8.08397	7.37962	-7.78668	17.20627	23.8652	1.32241	0.75619	147.98156	157.39189	55.08143	0.3433	 	2772130.112	 	2.26798E-6	 	11419.36002	44.05206	 
1010.0	1.0	0.0	8.08762	7.37629	-7.82827	17.13317	23.74612	1.32389	0.75535	148.30113	157.40034	55.21394	0.34297	 	3096347.961	 	2.02262E-6	 	11200.72504	43.727	 
1005.0	1.0	0.0	8.09123	7.373	-7.86945	17.06093	23.62933	1.32525	0.75458	148.61922	157.41359	55.3457	0.34264	 	3461506.258	 	1.8022E-6	 	10983.6537	43.41427	 
1000.0	1.0	0.0	8.09481	7.36973	-7.91023	16.9895	23.51471	1.3265	0.75387	148.93602	157.43153	55.47679	0.34233	 	3873146.46	 	1.60436E-6	 	10768.08727	43.11329	 
995.0	1.0	0.0	8.09837	7.3665	-7.95063	16.91884	23.40217	1.32764	0.75322	149.25166	157.45402	55.60728	0.34202	 	4337609.835	 	1.42694E-6	 	10553.9698	42.8235	 
990.0	1.0	0.0	8.10189	7.3633	-7.99065	16.84891	23.29162	1.32868	0.75263	149.56631	157.48093	55.73721	0.34171	 	4862159.483	 	1.26798E-6	 	10341.24793	42.54437	 
985.0	1.0	0.0	8.10538	7.36012	-8.03032	16.77968	23.18298	1.32963	0.75209	149.8801	157.51216	55.86667	0.34141	 	5455123.567	 	1.12568E-6	 	10129.87082	42.27542	 
980.0	1.0	0.0	8.10885	7.35698	-8.06964	16.7111	23.07615	1.33047	0.75161	150.19315	157.54758	55.99569	0.34111	 	6126059.458	 	9.98409E-7	 	9919.7899	42.01618	 
975.0	1.0	0.0	8.11229	7.35386	-8.10862	16.64313	22.97108	1.33122	0.75119	150.50559	157.58708	56.12434	0.34082	 	6885947.977	 	8.84687E-7	 	9710.95886	41.76621	 
970.0	1.0	0.0	8.11571	7.35076	-8.14728	16.57575	22.86768	1.33189	0.75081	150.81752	157.63057	56.25266	0.34054	 	7747416.839	 	7.83165E-7	 	9503.33344	41.52508	 
965.0	1.0	0.0	8.1191	7.34769	-8.18563	16.50891	22.76589	1.33246	0.75049	151.12905	157.67792	56.38069	0.34026	 	8725003.777	 	6.92619E-7	 	9296.87138	41.29241	 
960.0	1.0	0.0	8.12246	7.34465	-8.22368	16.44259	22.66564	1.33295	0.75022	151.44028	157.72904	56.50847	0.33998	 	9835461.607	 	6.11939E-7	 	9091.53225	41.06783	 
955.0	1.0	0.0	8.1258	7.34163	-8.26143	16.37676	22.56688	1.33336	0.74999	151.75128	157.78384	56.63606	0.33971	 	1.109811814E7	 	5.40118E-7	 	8887.27742	40.85097	 
950.0	1.0	0.0	8.12912	7.33863	-8.2989	16.31138	22.46954	1.33368	0.74981	152.06215	157.84223	56.76348	0.33944	 	1.253529361E7	 	4.76247E-7	 	8684.06991	40.6415	 
945.0	1.0	0.0	8.13242	7.33565	-8.33609	16.24642	22.37358	1.33392	0.74967	152.37296	157.9041	56.89076	0.33917	 	1.417279357E7	 	4.195E-7	 	8481.87435	40.43911	 
940.0	1.0	0.0	8.1357	7.3327	-8.37302	16.18186	22.27894	1.33409	0.74957	152.68379	157.96938	57.01795	0.33891	 	1.604048427E7	 	3.69134E-7	 	8280.65684	40.2435	 
935.0	1.0	0.0	8.13896	7.32976	-8.40969	16.11767	22.18557	1.33419	0.74952	152.9947	158.03798	57.14506	0.33865	 	1.817297048E7	 	3.24475E-7	 	8080.38496	40.05438	 
930.0	1.0	0.0	8.14219	7.32685	-8.4461	16.05382	22.09343	1.33421	0.74951	153.30576	158.10983	57.27214	0.3384	 	2.061039365E7	 	2.84918E-7	 	7881.02759	39.87147	 
925.0	1.0	0.0	8.14541	7.32395	-8.48228	15.99029	22.00248	1.33415	0.74954	153.61701	158.18483	57.39919	0.33815	 	2.339936808E7	 	2.49916E-7	 	7682.55493	39.69453	 
920.0	1.0	0.0	8.14861	7.32108	-8.51822	15.92705	21.91267	1.33403	0.74961	153.92853	158.26292	57.52626	0.3379	 	2.659408582E7	 	2.18976E-7	 	7484.93839	39.52331	 
915.0	1.0	0.0	8.15179	7.31822	-8.55393	15.86408	21.82397	1.33384	0.74972	154.24035	158.34402	57.65336	0.33765	 	3.025762528E7	 	1.91656E-7	 	7288.15055	39.35757	 
910.0	1.0	0.0	8.15496	7.31538	-8.58941	15.80135	21.73633	1.33358	0.74986	154.55252	158.42806	57.78051	0.33741	 	3.44634915E7	 	1.67559E-7	 	7092.16508	39.19709	 
905.0	1.0	0.0	8.15811	7.31256	-8.62468	15.73885	21.64973	1.33326	0.75004	154.8651	158.51498	57.90774	0.33717	 	3.929743956E7	 	1.46327E-7	 	6896.95671	39.04167	 
900.0	1.0	0.0	8.16124	7.30975	-8.65974	15.67655	21.56414	1.33287	0.75026	155.17811	158.6047	58.03506	0.33693	 	4.48596381E7	 	1.27639E-7	 	6702.50118	38.89111	 
895.0	1.0	0.0	8.16435	7.30696	-8.6946	15.61442	21.47951	1.33242	0.75052	155.4916	158.69717	58.16249	0.3367	 	5.126723187E7	 	1.1121E-7	 	6508.77516	38.7452	 
890.0	1.0	0.0	8.16745	7.30419	-8.72925	15.55246	21.39583	1.3319	0.75081	155.8056	158.79232	58.29005	0.33647	 	5.865738805E7	 	9.67831E-8	 	6315.75625	38.60378	 
885.0	1.0	0.0	8.17054	7.30143	-8.76371	15.49063	21.31306	1.33133	0.75113	156.12014	158.89009	58.41775	0.33624	 	6.719091111E7	 	8.41281E-8	 	6123.42293	38.46666	 
880.0	1.0	0.0	8.17361	7.29869	-8.79798	15.42892	21.23118	1.33069	0.75149	156.43526	158.99042	58.54561	0.33601	 	7.70565534E7	 	7.30404E-8	 	5931.75427	38.33373	 
875.0	1.0	0.0	8.17666	7.29596	-8.83207	15.36732	21.15016	1.33	0.75188	156.75097	159.09326	58.67364	0.33579	 	8.847616569E7	 	6.33372E-8	 	5740.7303	38.20479	 
870.0	1.0	0.0	8.17971	7.29325	-8.86598	15.30579	21.06998	1.32925	0.75231	157.06732	159.19856	58.80184	0.33556	 	1.017108001E8	 	5.48558E-8	 	5550.33221	38.07962	 
865.0	1.0	0.0	8.18274	7.29055	-8.89971	15.24432	20.99061	1.32844	0.75277	157.38431	159.30625	58.93024	0.33534	 	1.170680699E8	 	4.74513E-8	 	5360.54158	37.95813	 
860.0	1.0	0.0	8.18575	7.28786	-8.93327	15.1829	20.91204	1.32757	0.75326	157.70197	159.41629	59.05885	0.33513	 	1.349108962E8	 	4.09946E-8	 	5171.34071	37.84018	 
855.0	1.0	0.0	8.18875	7.28519	-8.96666	15.1215	20.83424	1.32665	0.75378	158.02031	159.52863	59.18767	0.33491	 	1.556680307E8	 	3.53716E-8	 	4982.7125	37.72564	 
850.0	1.0	0.0	8.19174	7.28253	-8.99988	15.06012	20.75719	1.32567	0.75434	158.33937	159.64323	59.31671	0.33469	 	1.798466619E8	 	3.04805E-8	 	4794.64053	37.61439	 
845.0	1.0	0.0	8.19399	7.28053	-9.02483	15.03634	20.69522	1.32372	0.75545	158.66295	159.83147	59.44428	0.33455	 	2.042411175E8	 	2.67204E-8	 	4636.41048	31.64601	 
840.0	1.0	0.0	8.19623	7.27854	-9.04972	15.01256	20.63325	1.32176	0.75657	158.98599	160.0189	59.57168	0.33441	 	2.322096325E8	 	2.3397E-8	 	4475.1582	32.25046	 
835.0	1.0	0.0	8.19847	7.27656	-9.07455	14.98878	20.57126	1.31979	0.7577	159.30849	160.20552	59.6989	0.33427	 	2.643140553E8	 	2.04628E-8	 	4314.11424	32.20879	 
830.0	1.0	0.0	8.2007	7.27457	-9.09931	14.96499	20.50927	1.3178	0.75884	159.63044	160.39133	59.82594	0.33412	 	3.012104938E8	 	1.78752E-8	 	4153.27783	32.16728	 
825.0	1.0	0.0	8.20293	7.2726	-9.12401	14.9412	20.44726	1.31581	0.75999	159.95185	160.57634	59.9528	0.33398	 	3.436661162E8	 	1.55959E-8	 	3992.6482	32.12593	 
820.0	1.0	0.0	8.20516	7.27063	-9.14866	14.91741	20.38524	1.3138	0.76115	160.27273	160.76055	60.07948	0.33384	 	3.925791223E8	 	1.35906E-8	 	3832.2245	32.08474	 
815.0	1.0	0.0	8.20738	7.26866	-9.17323	14.89361	20.32321	1.31178	0.76232	160.59305	160.94396	60.20599	0.3337	 	4.490025151E8	 	1.18284E-8	 	3672.0059	32.04372	 
810.0	1.0	0.0	8.20959	7.2667	-9.19775	14.86981	20.26116	1.30976	0.7635	160.91284	161.12658	60.33231	0.33355	 	5.141724369E8	 	1.02817E-8	 	3511.99152	32.00288	 
805.0	1.0	0.0	8.21181	7.26474	-9.2222	14.84601	20.19911	1.30771	0.76469	161.23208	161.3084	60.45846	0.33341	 	5.895419931E8	 	8.92588E-9	 	3352.18045	31.96221	 
800.0	1.0	0.0	8.21401	7.26279	-9.2466	14.8222	20.13704	1.30566	0.76589	161.55079	161.48942	60.58442	0.33327	 	6.768216852E8	 	7.73879E-9	 	3192.57172	31.92174	 
795.0	1.0	0.0	8.21622	7.26084	-9.27093	14.79839	20.07496	1.3036	0.76711	161.86895	161.66966	60.71021	0.33313	 	7.780278166E8	 	6.70076E-9	 	3033.16436	31.88147	 
790.0	1.0	0.0	8.21841	7.2589	-9.2952	14.77457	20.01287	1.30152	0.76833	162.18656	161.8491	60.83582	0.33299	 	8.955405261E8	 	5.79423E-9	 	2873.95732	31.84141	 
785.0	1.0	0.0	8.22061	7.25696	-9.3194	14.75076	19.95076	1.29943	0.76957	162.50364	162.02776	60.96124	0.33284	 	1.032173471E9	 	5.00358E-9	 	2714.94954	31.80156	 
780.0	1.0	0.0	8.2228	7.25503	-9.34355	14.72694	19.88864	1.29733	0.77081	162.82017	162.20564	61.08649	0.3327	 	1.191257626E9	 	4.31491E-9	 	2556.13991	31.76193	 
775.0	1.0	0.0	8.22498	7.2531	-9.36763	14.70311	19.82651	1.29522	0.77207	163.13616	162.38273	61.21156	0.33256	 	1.376742209E9	 	3.71584E-9	 	2397.52724	31.72253	 
770.0	1.0	0.0	8.22716	7.25118	-9.39165	14.67928	19.76436	1.29309	0.77334	163.45161	162.55905	61.33645	0.33242	 	1.593316426E9	 	3.19545E-9	 	2239.11033	31.68338	 
765.0	1.0	0.0	8.22934	7.24926	-9.41561	14.65545	19.7022	1.29096	0.77462	163.76651	162.73459	61.46116	0.33228	 	1.84655657E9	 	2.744E-9	 	2080.88788	31.64449	 
760.0	1.0	0.0	8.23151	7.24735	-9.43951	14.63162	19.64003	1.28881	0.77591	164.08087	162.90935	61.58569	0.33213	 	2.143104025E9	 	2.35292E-9	 	1922.85856	31.60586	 
755.0	1.0	0.0	8.23368	7.24544	-9.46334	14.60778	19.57784	1.28664	0.77722	164.39469	163.08334	61.71004	0.33199	 	2.490881023E9	 	2.01461E-9	 	1765.02097	31.56752	 
750.0	1.0	0.0	8.23584	7.24354	-9.48711	14.58394	19.51564	1.28447	0.77853	164.70797	163.25655	61.83421	0.33185	 	2.899352611E9	 	1.72236E-9	 	1607.37366	31.52946	 
745.0	1.0	0.0	8.238	7.24164	-9.51082	14.56009	19.45343	1.28228	0.77986	165.02071	163.429	61.95819	0.33171	 	3.379845225E9	 	1.47029E-9	 	1449.91509	31.49172	 
740.0	1.0	0.0	8.24015	7.23975	-9.53447	14.53625	19.3912	1.28007	0.7812	165.3329	163.60068	62.082	0.33157	 	3.945934787E9	 	1.25317E-9	 	1292.64361	31.45429	 
735.0	1.0	0.0	8.2423	7.23786	-9.55806	14.51239	19.32895	1.27786	0.78256	165.64455	163.7716	62.20563	0.33143	 	4.6139203E9	 	1.06645E-9	 	1135.55756	31.41721	 
730.0	1.0	0.0	8.24444	7.23598	-9.58158	14.48854	19.26669	1.27563	0.78393	165.95565	163.94175	62.32908	0.33129	 	5.403402784E9	 	9.06119E-10	 	978.65514	31.38048	 
725.0	1.0	0.0	8.24658	7.2341	-9.60504	14.46468	19.20441	1.27339	0.78531	166.26622	164.11115	62.45234	0.33114	 	6.337994238E9	 	7.68654E-10	 	821.93448	31.34413	 
720.0	1.0	0.0	8.24872	7.23223	-9.62844	14.44082	19.14212	1.27113	0.7867	166.57624	164.27978	62.57543	0.331	 	7.446187392E9	 	6.5098E-10	 	665.39361	31.30817	 
715.0	1.0	0.0	8.25085	7.23036	-9.65178	14.41695	19.07981	1.26886	0.78811	166.88571	164.44766	62.69834	0.33086	 	8.762424654E9	 	5.50409E-10	 	509.03043	31.27264	 
710.0	1.0	0.0	8.25298	7.2285	-9.67506	14.39309	19.01749	1.26658	0.78953	167.19465	164.61478	62.82106	0.33072	 	1.03284E10	 	4.64593E-10	 	352.84276	31.23753	 
705.0	1.0	0.0	8.2551	7.22664	-9.69827	14.36921	18.95514	1.26428	0.79096	167.50304	164.78115	62.9436	0.33058	 	1.2194799999999998E10	 	3.91489E-10	 	196.82829	31.20289	 
700.0	1.0	0.0	8.25721	7.22479	-9.72142	14.34534	18.89279	1.26197	0.79241	167.81089	164.94677	63.06597	0.33044	 	1.4422899999999998E10	 	3.29316E-10	 	40.98457	31.16874	 
695.0	1.0	0.0	8.25933	7.22294	-9.74451	14.32146	18.83041	1.25965	0.79387	168.1182	165.11164	63.18815	0.3303	 	1.7087799999999998E10	 	2.7653E-10	 	-114.69099	31.13511	 
690.0	1.0	0.0	8.26143	7.2211	-9.76753	14.29758	18.76802	1.25731	0.79535	168.42496	165.27576	63.31015	0.33016	 	2.02808E10	 	2.3179E-10	 	-270.2011	31.10202	 
685.0	1.0	0.0	8.26354	7.21926	-9.7905	14.27369	18.70561	1.25495	0.79684	168.73118	165.43914	63.43197	0.33002	 	2.4113499999999996E10	 	1.93937E-10	 	-425.54865	31.06951	 
680.0	1.0	0.0	8.26564	7.21743	-9.8134	14.2498	18.64318	1.25259	0.79835	169.03685	165.60178	63.55361	0.32988	 	2.8722499999999996E10	 	1.61966E-10	 	-580.7367	31.03761	 
675.0	1.0	0.0	8.26773	7.2156	-9.83624	14.22591	18.58073	1.2502	0.79987	169.34199	165.76367	63.67506	0.32974	 	3.4275799999999996E10	 	1.35013E-10	 	-735.76849	31.00636	 
670.0	1.0	0.0	8.26982	7.21378	-9.85902	14.20202	18.51827	1.2478	0.80141	169.64658	165.92483	63.79634	0.32959	 	4.09794E10	 	1.12332E-10	 	-890.64743	30.97579	 
665.0	1.0	0.0	8.2719	7.21196	-9.88173	14.17812	18.45579	1.24539	0.80296	169.95063	166.08525	63.91743	0.32945	 	4.908749999999999E10	 	9.328E-11	 	-1045.37717	30.94595	 
660.0	1.0	0.0	8.27398	7.21015	-9.90438	14.15422	18.39328	1.24296	0.80453	170.25413	166.24494	64.03834	0.32931	 	5.891369999999999E10	 	7.73076E-11	 	-1199.9514	30.91485	 
655.0	1.0	0.0	8.27606	7.20834	-9.92697	14.13031	18.33076	1.24052	0.80611	170.55709	166.40389	64.15907	0.32917	 	7.0846E10	 	6.39425E-11	 	-1354.31365	30.87245	 
650.0	1.0	0.0	8.27813	7.20654	-9.9495	14.1064	18.26822	1.23806	0.80771	170.85951	166.56211	64.27962	0.32903	 	8.53654E10	 	5.27809E-11	 	-1508.38897	30.81506	 
645.0	1.0	0.0	8.28019	7.20474	-9.97197	14.08249	18.20566	1.23559	0.80933	171.16138	166.71961	64.39999	0.32889	 	1.0307E11	 	4.3478E-11	 	-1662.17857	30.75792	 
640.0	1.0	0.0	8.28226	7.20295	-9.99437	14.05857	18.14308	1.2331	0.81097	171.46271	166.87637	64.52017	0.32875	 	1.24703E11	 	3.57399E-11	 	-1815.68364	30.70101	 
635.0	1.0	0.0	8.28431	7.20116	-10.01671	14.03465	18.08047	1.23059	0.81262	171.7635	167.03241	64.64017	0.32861	 	1.51193E11	 	2.93165E-11	 	-1968.9054	30.64435	 
630.0	1.0	0.0	8.28636	7.19937	-10.03899	14.01073	18.01785	1.22807	0.81429	172.06374	167.18773	64.75999	0.32847	 	1.83702E11	 	2.39956E-11	 	-2121.84503	30.58793	 
625.0	1.0	0.0	8.28841	7.1976	-10.0612	13.9868	17.9552	1.22553	0.81597	172.36344	167.34233	64.87963	0.32833	 	2.23686E11	 	1.95973E-11	 	-2274.50399	30.53179	 
620.0	1.0	0.0	8.29045	7.19582	-10.08336	13.96287	17.89253	1.22298	0.81768	172.6626	167.49621	64.99908	0.32819	 	2.72973E11	 	1.59695E-11	 	-2426.88407	30.47602	 
615.0	1.0	0.0	8.29249	7.19406	-10.10545	13.93894	17.82984	1.22041	0.8194	172.96121	167.64936	65.11836	0.32805	 	3.33869E11	 	1.29837E-11	 	-2578.98615	30.42042	 
610.0	1.0	0.0	8.29452	7.19229	-10.12748	13.91501	17.76713	1.21782	0.82114	173.25928	167.80181	65.23745	0.32791	 	4.09281E11	 	1.05317E-11	 	-2730.81143	30.36506	 
605.0	1.0	0.0	8.29655	7.19054	-10.14944	13.89107	17.7044	1.21522	0.8229	173.5568	167.95354	65.35635	0.32777	 	5.02892E11	 	8.52277E-12	 	-2882.36107	30.30993	 
600.0	1.0	0.0	8.29857	7.18878	-10.17135	13.86712	17.64164	1.2126	0.82468	173.85379	168.10456	65.47508	0.32763	 	6.19373E11	 	6.88056E-12	 	-3033.63624	30.25503	 
595.0	1.0	0.0	8.30059	7.18703	-10.19319	13.84318	17.57885	1.20996	0.82647	174.15022	168.25487	65.59362	0.32749	 	7.64666E11	 	5.54128E-12	 	-3184.63813	30.20038	 
590.0	1.0	0.0	8.3026	7.18529	-10.21496	13.81923	17.51605	1.2073	0.82829	174.44612	168.40447	65.71198	0.32735	 	9.46349E11	 	4.45166E-12	 	-3335.3679	30.14595	 
585.0	1.0	0.0	8.30461	7.18355	-10.23668	13.79527	17.45321	1.20463	0.83013	174.74147	168.55336	65.83015	0.32721	 	1.17411E12	 	3.5673E-12	 	-3485.82673	30.09177	 
580.0	1.0	0.0	8.30662	7.18182	-10.25833	13.77132	17.39036	1.20194	0.83199	175.03627	168.70155	65.94815	0.32708	 	1.46038E12	 	2.85132E-12	 	-3636.01579	30.03781	 
575.0	1.0	0.0	8.30862	7.18009	-10.27992	13.74736	17.32747	1.19923	0.83387	175.33054	168.84903	66.06596	0.32694	 	1.82113E12	 	2.2731E-12	 	-3785.93623	29.98409	 
570.0	1.0	0.0	8.31061	7.17837	-10.30145	13.72339	17.26456	1.19651	0.83577	175.62425	168.99582	66.18358	0.3268	 	2.27694E12	 	1.80734E-12	 	-3935.58923	29.9306	 
565.0	1.0	0.0	8.3126	7.17665	-10.32292	13.69943	17.20163	1.19376	0.83769	175.91743	169.1419	66.30102	0.32666	 	2.85443E12	 	1.43314E-12	 	-4084.97593	29.87734	 
560.0	1.0	0.0	8.31458	7.17494	-10.34432	13.67546	17.13867	1.191	0.83963	176.21006	169.28729	66.41828	0.32652	 	3.58811E12	 	1.1333E-12	 	-4234.09751	29.82431	 
555.0	1.0	0.0	8.31656	7.17323	-10.36566	13.65148	17.07568	1.18822	0.84159	176.50214	169.43199	66.53536	0.32638	 	4.52285E12	 	8.93683E-13	 	-4382.9551	29.77152	 
550.0	1.0	0.0	8.31854	7.17153	-10.38694	13.62751	17.01266	1.18542	0.84358	176.79369	169.57599	66.65225	0.32624	 	5.71716E12	 	7.02725E-13	 	-4531.54987	29.71895	 
545.0	1.0	0.0	8.32051	7.16983	-10.40815	13.60353	16.94961	1.1826	0.84559	177.08468	169.71929	66.76896	0.3261	 	7.24755E12	 	5.5097E-13	 	-4679.88295	29.66662	 
540.0	1.0	0.0	8.32247	7.16814	-10.42931	13.57954	16.88653	1.17977	0.84763	177.37514	169.86191	66.88548	0.32596	 	9.21446E12	 	4.30713E-13	 	-4827.95551	29.61451	 
535.0	1.0	0.0	8.32443	7.16645	-10.4504	13.55555	16.82343	1.17691	0.84968	177.66505	170.00384	67.00182	0.32582	 	1.175E13	 	3.35691E-13	 	-4975.76866	29.56263	 
530.0	1.0	0.0	8.32639	7.16477	-10.47142	13.53156	16.76029	1.17404	0.85176	177.95441	170.14508	67.11798	0.32568	 	1.50287E13	 	2.60832E-13	 	-5123.32356	29.51098	 
525.0	1.0	0.0	8.32834	7.16309	-10.49239	13.50757	16.69712	1.17114	0.85387	178.24323	170.28564	67.23395	0.32554	 	1.92816E13	 	2.02035E-13	 	-5270.62133	29.45955	 
520.0	1.0	0.0	8.33028	7.16142	-10.51329	13.48357	16.63393	1.16823	0.856	178.53151	170.42551	67.34974	0.32541	 	2.48159E13	 	1.55995E-13	 	-5417.66313	29.40836	 
515.0	1.0	0.0	8.33222	7.15975	-10.53413	13.45957	16.5707	1.16529	0.85816	178.81924	170.5647	67.46534	0.32527	 	3.20411E13	 	1.20057E-13	 	-5564.45005	29.35739	 
510.0	1.0	0.0	8.33416	7.15809	-10.5549	13.43557	16.50743	1.16234	0.86034	179.10643	170.70321	67.58076	0.32513	 	4.15052E13	 	9.20936E-14	 	-5710.98324	29.30664	 
505.0	1.0	0.0	8.33609	7.15643	-10.57562	13.41156	16.44414	1.15936	0.86254	179.39307	170.84105	67.69599	0.32499	 	5.39437E13	 	7.0406E-14	 	-5857.26381	29.25611	 
500.0	1.0	0.0	8.33801	7.15478	-10.59627	13.38755	16.38081	1.15636	0.86478	179.67917	170.97821	67.81104	0.32485	 	7.0348E13	 	5.36413E-14	 	-6003.29287	29.20581	 
495.0	1.0	0.0	8.33993	7.15313	-10.61686	13.36353	16.31744	1.15335	0.86704	179.96472	171.11469	67.92591	0.32471	 	9.20585E13	 	4.07257E-14	 	-6149.07155	29.15574	 
490.0	1.0	0.0	8.34185	7.15149	-10.63738	13.33952	16.25404	1.15031	0.86933	180.24973	171.2505	68.04059	0.32457	 	1.20894E14	 	3.08099E-14	 	-6294.60094	29.10588	 
485.0	1.0	0.0	8.34376	7.14985	-10.65784	13.3155	16.1906	1.14725	0.87165	180.53419	171.38564	68.15509	0.32444	 	1.59335E14	 	2.32237E-14	 	-6439.88216	29.05624	 
480.0	1.0	0.0	8.34567	7.14822	-10.67824	13.29147	16.12713	1.14417	0.874	180.81811	171.52011	68.2694	0.3243	 	2.10769E14	 	1.74406E-14	 	-6584.91629	29.00683	 
475.0	1.0	0.0	8.34757	7.14659	-10.69858	13.26744	16.06362	1.14107	0.87637	181.10148	171.65391	68.38352	0.32416	 	2.7984999999999997E14	 	1.30482E-14	 	-6729.70444	28.95763	 
470.0	1.0	0.0	8.34946	7.14497	-10.71885	13.24341	16.00007	1.13794	0.87878	181.38431	171.78704	68.49746	0.32402	 	3.72994E14	 	9.72436E-15	 	-6874.24768	28.90865	 
465.0	1.0	0.0	8.35135	7.14335	-10.73906	13.21938	15.93649	1.1348	0.88121	181.6666	171.91951	68.61122	0.32388	 	4.99079E14	 	7.21876E-15	 	-7018.54712	28.85989	 
460.0	1.0	0.0	8.35324	7.14174	-10.75921	13.19534	15.87286	1.13163	0.88368	181.94834	172.05132	68.72479	0.32375	 	6.70441E14	 	5.33726E-15	 	-7162.60382	28.81134	 
455.0	1.0	0.0	8.35512	7.14013	-10.7793	13.1713	15.80919	1.12844	0.88618	182.22953	172.18247	68.83817	0.32361	 	9.04301E14	 	3.93002E-15	 	-7306.41886	28.76301	 
450.0	1.0	0.0	8.35699	7.13853	-10.79932	13.14725	15.74548	1.12522	0.88871	182.51018	172.31295	68.95137	0.32347	 	1.22479E15	 	2.88173E-15	 	-7449.99332	28.71489	 
445.0	1.0	0.0	8.35886	7.13693	-10.81928	13.12321	15.68173	1.12199	0.89128	182.79028	172.44278	69.06439	0.32333	 	1.66589E15	 	2.10405E-15	 	-7593.32824	28.66698	 
440.0	1.0	0.0	8.36073	7.13534	-10.83918	13.09915	15.61793	1.11873	0.89387	183.06984	172.57195	69.17721	0.32319	 	2.27564E15	 	1.52955E-15	 	-7736.42468	28.61929	 
435.0	1.0	0.0	8.36259	7.13375	-10.85901	13.0751	15.5541	1.11544	0.89651	183.34885	172.70047	69.28986	0.32306	 	3.12229E15	 	1.10698E-15	 	-7879.28371	28.5718	 
430.0	1.0	0.0	8.36445	7.13217	-10.87878	13.05104	15.49021	1.11213	0.89917	183.62732	172.82833	69.40231	0.32292	 	4.30325E15	 	7.97513E-16	 	-8021.90637	28.52453	 
425.0	1.0	0.0	8.3663	7.13059	-10.89849	13.02698	15.42628	1.1088	0.90188	183.90525	172.95555	69.51458	0.32278	 	5.95821E15	 	5.71899E-16	 	-8164.29353	28.47743	 
420.0	1.0	0.0	8.36814	7.12902	-10.91813	13.00291	15.3623	1.10544	0.90461	184.18262	173.08211	69.62667	0.32264	 	8.28846E15	 	4.08169E-16	 	-8306.44647	28.43059	 
415.0	1.0	0.0	8.36998	7.12745	-10.93771	12.97885	15.29828	1.10206	0.90739	184.45946	173.20802	69.73856	0.32251	 	1.15855E16	 	2.89904E-16	 	-8448.36561	28.38383	 
410.0	1.0	0.0	8.37182	7.12589	-10.95723	12.95477	15.2342	1.09866	0.9102	184.73574	173.33329	69.85028	0.32237	 	1.62737E16	 	2.04888E-16	 	-8590.05113	28.3371	 
405.0	1.0	0.0	8.37364	7.12433	-10.97669	12.9307	15.17008	1.09523	0.91305	185.01148	173.45791	69.9618	0.32223	 	2.29737E16	 	1.44072E-16	 	-8731.5032	28.29041	 
400.0	1.0	0.0	8.37547	7.12278	-10.99608	12.90662	15.1059	1.09177	0.91594	185.28668	173.58189	70.07314	0.32209	 	3.25989E16	 	1.00785E-16	 	-8872.722	28.24376	 
395.0	1.0	0.0	8.37729	7.12123	-11.01541	12.88254	15.04167	1.08829	0.91887	185.56133	173.70523	70.18429	0.32196	 	4.64994E16	 	7.01315E-17	 	-9013.70766	28.19713	 
390.0	1.0	0.0	8.3791	7.11969	-11.03468	12.85845	14.97739	1.08478	0.92185	185.83543	173.82792	70.29526	0.32182	 	6.6683600000000008E16	 	4.85377E-17	 	-9154.46037	28.15054	 
385.0	1.0	0.0	8.38091	7.11815	-11.05388	12.83436	14.91306	1.08125	0.92486	186.10899	173.94998	70.40604	0.32168	 	9.61544E16	 	3.34074E-17	 	-9294.98024	28.10397	 
380.0	1.0	0.0	8.38272	7.11662	-11.07302	12.81027	14.84866	1.07768	0.92792	186.38201	174.0714	70.51663	0.32155	 	1.39429E17	 	2.28637E-17	 	-9435.2674	28.05743	 
375.0	1.0	0.0	8.38451	7.1151	-11.0921	12.78617	14.78421	1.0741	0.93101	186.65447	174.19218	70.62704	0.32141	 	2.03342E17	 	1.55573E-17	 	-9575.32199	28.01092	 
370.0	1.0	0.0	8.38631	7.11357	-11.11111	12.76208	14.7197	1.07048	0.93416	186.92639	174.31233	70.73726	0.32127	 	2.98297E17	 	1.05233E-17	 	-9715.14412	27.96443	 
365.0	1.0	0.0	8.3881	7.11206	-11.13006	12.73797	14.65513	1.06684	0.93735	187.19777	174.43185	70.84729	0.32114	 	4.40228E17	 	7.07508E-18	 	-9854.73389	27.91795	 
360.0	1.0	0.0	8.38988	7.11055	-11.14895	12.71387	14.5905	1.06317	0.94058	187.4686	174.55074	70.95713	0.321	 	6.53698E17	 	4.72733E-18	 	-9994.09138	27.8715	 
355.0	1.0	0.0	8.39166	7.10904	-11.16778	12.68976	14.52581	1.05947	0.94387	187.73888	174.66899	71.06679	0.32086	 	9.7681E17	 	3.13863E-18	 	-10133.2167	27.82506	 
350.0	1.0	0.0	8.39343	7.10754	-11.18654	12.66565	14.46105	1.05574	0.9472	188.00862	174.78662	71.17626	0.32073	 	1.46907E18	 	2.07032E-18	 	-10272.1099	27.77864	 
345.0	1.0	0.0	8.3952	7.10604	-11.20524	12.64153	14.39622	1.05199	0.95058	188.27781	174.90362	71.28554	0.32059	 	2.22403E18	 	1.35656E-18	 	-10410.77104	27.73223	 
340.0	1.0	0.0	8.39696	7.10455	-11.22387	12.61741	14.33133	1.04821	0.95401	188.54646	175.02	71.39464	0.32045	 	3.38982E18	 	8.82829E-19	 	-10549.20017	27.68583	 
335.0	1.0	0.0	8.39872	7.10306	-11.24244	12.59329	14.26636	1.04439	0.9575	188.81456	175.13575	71.50355	0.32032	 	5.20263E18	 	5.70525E-19	 	-10687.39732	27.63943	 
330.0	1.0	0.0	8.40047	7.10158	-11.26095	12.56916	14.20133	1.04055	0.96103	189.08211	175.25088	71.61227	0.32018	 	8.04181E18	 	3.66065E-19	 	-10825.36251	27.59304	 
325.0	1.0	0.0	8.40222	7.10011	-11.2794	12.54503	14.13622	1.03668	0.96462	189.34911	175.36539	71.7208	0.32004	 	1.25212E19	 	2.33158E-19	 	-10963.09576	27.54665	 
320.0	1.0	0.0	8.40396	7.09864	-11.29778	12.5209	14.07104	1.03277	0.96827	189.61557	175.47928	71.82914	0.31991	 	1.96418E19	 	1.47391E-19	 	-11100.59704	27.50026	 
315.0	1.0	0.0	8.40569	7.09717	-11.3161	12.49676	14.00578	1.02884	0.97197	189.88149	175.59255	71.9373	0.31977	 	3.10484E19	 	9.24561E-20	 	-11237.86634	27.45386	 
310.0	1.0	0.0	8.40742	7.09571	-11.33436	12.47262	13.94045	1.02487	0.97573	190.14686	175.70521	72.04527	0.31963	 	4.94662E19	 	5.75385E-20	 	-11374.90362	27.40746	 
305.0	1.0	0.0	8.40915	7.09425	-11.35255	12.44848	13.87503	1.02088	0.97955	190.41168	175.81725	72.15305	0.3195	 	7.94467E19	 	3.55182E-20	 	-11511.70882	27.36104	 
300.0	1.0	0.0	8.41087	7.0928	-11.37068	12.42433	13.80953	1.01685	0.98343	190.67595	175.92868	72.26064	0.31936	 	1.2865699999999998E20	 	2.17431E-20	 	-11648.28188	27.31461	 
295.0	1.0	0.0	8.41258	7.09136	-11.38874	12.40018	13.74394	1.01279	0.98738	190.93968	176.03949	72.36804	0.31923	 	2.10124E20	 	1.31969E-20	 	-11784.62269	27.26816	 
290.0	1.0	0.0	8.41429	7.08992	-11.40675	12.37603	13.67827	1.00869	0.99138	191.20286	176.1497	72.47526	0.31909	 	3.4618E20	 	7.93979E-21	 	-11920.73115	27.22169	 
285.0	1.0	0.0	8.416	7.08848	-11.42469	12.35187	13.6125	1.00457	0.99545	191.46549	176.25929	72.58229	0.31895	 	5.7545599999999993E20	 	4.73397E-21	 	-12056.60715	27.1752	 
280.0	1.0	0.0	8.4177	7.08705	-11.44256	12.32771	13.54665	1.00041	0.99959	191.72758	176.36828	72.68912	0.31882	 	9.654119999999999E20	 	2.79651E-21	 	-12192.25052	27.12868	 
275.0	1.0	0.0	8.41939	7.08562	-11.46037	12.30355	13.4807	0.99622	1.0038	191.98912	176.47666	72.79577	0.31868	 	1.6349800000000001E21	 	1.63634E-21	 	-12327.6611	27.08212	 
270.0	1.0	0.0	8.42108	7.0842	-11.47812	12.27938	13.41465	0.99199	1.00808	192.25012	176.58444	72.90223	0.31855	 	2.79592E21	 	9.48161E-22	 	-12462.83869	27.03552	 
265.0	1.0	0.0	8.42276	7.08279	-11.49581	12.25521	13.3485	0.98773	1.01243	192.51056	176.69162	73.0085	0.31841	 	4.8291E21	 	5.43905E-22	 	-12597.78309	26.98888	 
260.0	1.0	0.0	8.42444	7.08138	-11.51343	12.23104	13.28225	0.98343	1.01685	192.77046	176.79819	73.11459	0.31828	 	8.42675E21	 	3.08799E-22	 	-12732.49404	26.94219	 
255.0	1.0	0.0	8.42611	7.07997	-11.53099	12.20686	13.21589	0.9791	1.02135	193.02982	176.90416	73.22048	0.31814	 	1.48605E22	 	1.73465E-22	 	-12866.97129	26.89545	 
250.0	1.0	0.0	8.42778	7.07857	-11.54849	12.18268	13.14943	0.97473	1.02592	193.28862	177.00953	73.32618	0.31801	 	2.6491899999999998E22	 	9.63828E-23	 	-13001.21456	26.84865	 
245.0	1.0	0.0	8.42944	7.07718	-11.56592	12.1585	13.08285	0.97033	1.03058	193.54688	177.11431	73.4317	0.31787	 	4.77574E22	 	5.29544E-23	 	-13135.22351	26.80179	 
240.0	1.0	0.0	8.43109	7.07579	-11.58329	12.13431	13.01616	0.96589	1.03531	193.80459	177.21849	73.53702	0.31773	 	8.70873E22	 	2.87592E-23	 	-13268.9978	26.75486	 
235.0	1.0	0.0	8.43274	7.0744	-11.60059	12.11012	12.94935	0.96141	1.04014	194.06176	177.32207	73.64216	0.3176	 	1.60695E23	 	1.54339E-23	 	-13402.53705	26.70785	 
230.0	1.0	0.0	8.43439	7.07302	-11.61783	12.08593	12.88241	0.9569	1.04504	194.31837	177.42506	73.74711	0.31746	 	3.0015099999999998E23	 	8.18171E-24	 	-13535.84085	26.66076	 
225.0	1.0	0.0	8.43603	7.07165	-11.63501	12.06173	12.81535	0.95235	1.05004	194.57444	177.52746	73.85186	0.31733	 	5.6770599999999996E23	 	4.28275E-24	 	-13668.90875	26.61358	 
220.0	1.0	0.0	8.43766	7.07028	-11.65213	12.03753	12.74816	0.94776	1.05512	194.82996	177.62927	73.95643	0.31719	 	1.08773E24	 	2.21282E-24	 	-13801.74029	26.56631	 
215.0	1.0	0.0	8.43929	7.06891	-11.66918	12.01332	12.68084	0.94313	1.0603	195.08494	177.73048	74.06081	0.31706	 	2.1120300000000002E24	 	1.12808E-24	 	-13934.33492	26.51893	 
210.0	1.0	0.0	8.44092	7.06755	-11.68617	11.98912	12.61337	0.93846	1.06557	195.33937	177.83111	74.165	0.31692	 	4.15764E24	 	5.67182E-25	 	-14066.6921	26.47144	 
205.0	1.0	0.0	8.44253	7.0662	-11.70309	11.9649	12.54577	0.93376	1.07094	195.59325	177.93116	74.26899	0.31679	 	8.30126E24	 	2.8113E-25	 	-14198.81125	26.42383	 
200.0	1.0	0.0	8.44415	7.06485	-11.71995	11.94069	12.47801	0.92901	1.07642	195.84658	178.03061	74.3728	0.31665	 	1.68185E25	 	1.37309E-25	 	-14330.6917	26.37609	 
195.0	1.0	0.0	8.44575	7.06351	-11.73675	11.91647	12.41011	0.92422	1.08199	196.09936	178.12949	74.47642	0.31652	 	3.4592500000000004E25	 	6.60525E-26	 	-14462.33276	26.32821	 
190.0	1.0	0.0	8.44735	7.06217	-11.75348	11.89225	12.34205	0.91939	1.08768	196.3516	178.22778	74.57984	0.31639	 	7.22668E25	 	3.12802E-26	 	-14593.73372	26.28019	 
185.0	1.0	0.0	8.44895	7.06083	-11.77015	11.86803	12.27382	0.91452	1.09347	196.60329	178.32549	74.68308	0.31625	 	1.5341900000000001E26	 	1.45752E-26	 	-14724.89378	26.23201	 
180.0	1.0	0.0	8.45054	7.0595	-11.78676	11.8438	12.20543	0.90961	1.09937	196.85443	178.42261	74.78613	0.31612	 	3.31157E26	 	6.67874E-27	 	-14855.81209	26.18366	 
175.0	1.0	0.0	8.45213	7.05818	-11.8033	11.81957	12.13687	0.90465	1.10539	197.10502	178.51916	74.88898	0.31598	 	7.27186E26	 	3.00791E-27	 	-14986.48777	26.13513	 
170.0	1.0	0.0	8.45371	7.05686	-11.81978	11.79533	12.06812	0.89966	1.11153	197.35507	178.61514	74.99165	0.31585	 	1.62542E27	 	1.33067E-27	 	-15116.91985	26.08642	 
165.0	1.0	0.0	8.45528	7.05555	-11.83619	11.77109	11.99919	0.89462	1.1178	197.60457	178.71053	75.09412	0.31571	 	3.70048E27	 	5.77898E-28	 	-15247.10732	26.03749	 
160.0	1.0	0.0	8.45685	7.05424	-11.85254	11.74685	11.93007	0.88953	1.12419	197.85352	178.80536	75.1964	0.31558	 	8.58618E27	 	2.46221E-28	 	-15377.04908	25.98835	 
155.0	1.0	0.0	8.45841	7.05294	-11.86883	11.72261	11.86075	0.8844	1.13071	198.10192	178.8996	75.2985	0.31544	 	2.03179E28	 	1.0285E-28	 	-15506.74398	25.93898	 
150.0	1.0	0.0	8.45997	7.05164	-11.88506	11.69836	11.79122	0.87923	1.13736	198.34977	178.99328	75.4004	0.31531	 	4.906800000000001E28	 	4.20903E-29	 	-15636.1908	25.88936	 
145.0	1.0	0.0	8.46152	7.05034	-11.90122	11.67411	11.72148	0.87401	1.14415	198.59708	179.08638	75.50211	0.31518	 	1.2102500000000002E29	 	1.68633E-29	 	-15765.38819	25.83948	 
140.0	1.0	0.0	8.46307	7.04906	-11.91731	11.64985	11.65152	0.86874	1.15109	198.84383	179.17892	75.60363	0.31504	 	3.051E29	 	6.60925E-30	 	-15894.33479	25.78932	 
135.0	1.0	0.0	8.46461	7.04777	-11.93335	11.62559	11.58132	0.86343	1.15817	199.09004	179.27089	75.70495	0.31491	 	7.86771E29	 	2.53197E-30	 	-16023.0291	25.73886	 
130.0	1.0	0.0	8.46614	7.0465	-11.94932	11.60133	11.51089	0.85807	1.1654	199.3357	179.36229	75.80609	0.31477	 	2.07711E30	 	9.47316E-31	 	-16151.46955	25.68809	 
125.0	1.0	0.0	8.46767	7.04522	-11.96522	11.57707	11.44021	0.85267	1.17279	199.58082	179.45312	75.90703	0.31464	 	5.618989999999999E30	 	3.4584E-31	 	-16279.65443	25.63698	 
120.0	1.0	0.0	8.4692	7.04395	-11.98106	11.5528	11.36927	0.84721	1.18034	199.82538	179.54339	76.00779	0.31451	 	1.55902E31	 	1.23082E-31	 	-16407.58198	25.58551	 
115.0	1.0	0.0	8.47071	7.04269	-11.99684	11.52853	11.29806	0.84171	1.18806	200.06939	179.6331	76.10835	0.31437	 	4.44081E31	 	4.26603E-32	 	-16535.25028	25.53366	 
110.0	1.0	0.0	8.47223	7.04143	-12.01255	11.50425	11.22658	0.83616	1.19595	200.31286	179.72224	76.20872	0.31424	 	1.29998E32	 	1.43853E-32	 	-16662.65731	25.48141	 
105.0	1.0	0.0	8.47373	7.04018	-12.0282	11.47997	11.1548	0.83056	1.20401	200.55578	179.81082	76.3089	0.3141	 	3.91516E32	 	4.71412E-33	 	-16789.80092	25.42872	 
100.0	1.0	0.0	8.47524	7.03893	-12.04379	11.45569	11.08272	0.8249	1.21226	200.79815	179.89885	76.40888	0.31397	 	1.21449E33	 	1.49961E-33	 	-16916.6788	25.37558	 
95.0	1.0	0.0	8.47673	7.03769	-12.05931	11.4314	11.01032	0.8192	1.2207	201.03997	179.98631	76.50868	0.31384	 	3.885E33	 	4.62509E-34	 	-17043.28852	25.32194	 
90.0	1.0	0.0	8.47822	7.03646	-12.07477	11.40712	10.9376	0.81345	1.22933	201.28124	180.07322	76.60828	0.3137	 	1.2832E34	 	1.38127E-34	 	-17169.62749	25.26779	 
85.0	1.0	0.0	8.47971	7.03522	-12.09017	11.38282	10.86453	0.80764	1.23817	201.52197	180.15958	76.70769	0.31357	 	4.382150000000001E34	 	3.989E-35	 	-17295.69292	25.21309	 
80.0	1.0	0.0	8.48119	7.034	-12.1055	11.35853	10.7911	0.80179	1.24721	201.76214	180.24537	76.80691	0.31344	 	1.5494699999999999E35	 	1.1124E-35	 	-17421.48188	25.15779	 
75.0	1.0	0.0	8.48266	7.03277	-12.12076	11.33423	10.7173	0.79588	1.25647	202.00177	180.33062	76.90593	0.3133	 	5.68112E35	 	2.99102E-36	 	-17546.99122	25.10187	 
70.0	1.0	0.0	8.48413	7.03156	-12.13597	11.30993	10.6431	0.78992	1.26595	202.24085	180.41531	77.00476	0.31317	 	2.1633599999999998E36	 	7.74181E-37	 	-17672.21758	25.04527	 
65.0	1.0	0.0	8.48559	7.03035	-12.15111	11.28562	10.5685	0.7839	1.27567	202.47937	180.49945	77.1034	0.31304	 	8.57028E36	 	1.92576E-37	 	-17797.15741	24.98797	 
60.0	1.0	0.0	8.48705	7.02914	-12.16618	11.26131	10.49346	0.77783	1.28562	202.71735	180.58305	77.20185	0.3129	 	3.5383999999999996E37	 	4.59535E-38	 	-17921.80687	24.92989	 
55.0	1.0	0.0	8.4885	7.02794	-12.18119	11.237	10.41798	0.77171	1.29582	202.95478	180.66609	77.3001	0.31277	 	1.52541E38	 	1.04996E-38	 	-18046.1619	24.87101	 
50.0	1.0	0.0	8.48994	7.02674	-12.19614	11.21268	10.34202	0.76553	1.30628	203.19167	180.74859	77.39817	0.31264	 	6.880219999999999E38	 	2.29239E-39	 	-18170.21815	24.81125	 
45.0	1.0	0.0	8.49138	7.02555	-12.21102	11.18836	10.26556	0.7593	1.317	203.428	180.83054	77.49603	0.31251	 	3.2537300000000003E39	 	4.7724E-40	 	-18293.97097	24.75056	 
40.0	1.0	0.0	8.49281	7.02437	-12.22584	11.16404	10.18859	0.75302	1.32799	203.66378	180.91195	77.59371	0.31237	 	1.617E40	 	9.45214E-41	 	-18417.41538	24.68888	 
35.0	1.0	0.0	8.49424	7.02318	-12.2406	11.13971	10.11107	0.74667	1.33927	203.89902	180.99281	77.69119	0.31224	 	8.46512E40	 	1.77671E-41	 	-18540.54605	24.62613	 
30.0	1.0	0.0	8.49566	7.02201	-12.25529	11.11539	10.03296	0.74028	1.35085	204.1337	181.07313	77.78848	0.31211	 	4.68029E41	 	3.16134E-42	 	-18663.35729	24.56225	 
25.0	1.0	0.0	8.49708	7.02084	-12.26992	 	9.95425	0.73382	1.36272	204.36784	181.15291	77.88558	0.31197	 	2.7404399999999997E42	 	5.31008E-43	 	-18785.84298	 	 
