T (C)	Fraction solid (wt)-TOTAL	Fraction liquid (wt)-LIQUID	Density (g/(cm)^3)-TOTAL	Molar volume (cm^3)-TOTAL	Volume change (%)-  	Average expansion coeff. (10e-6 1/K)-  	Thermal conductivity (W/(m*K))-TOTAL	Electrical resistivity (10e-6 Ohm*m)-TOTAL	Electrical conductivity (10e6 1/(Ohm*m))-TOTAL	Young's modulus (GPa)-TOTAL	Bulk modulus (GPa)-TOTAL	Shear modulus(GPa)-TOTAL	Poisson's ratio-TOTAL	Liquid viscosity (mPa s)-  	Total viscosity (mPa s)-  	Liquid diffusivity (10e-9 (m^2)/s)-  	Total diffusivity (10e-9 (m^2)/s)-  	Surface Tension (mN/m)-  	Enthalpy (J/mole)-TOTAL	Specific heat (J/(mole K))-TOTAL	Latent heat (J/mole)-TOTAL
1500.0	0.0	1.0	6.95845	7.87127	0.0	27.92456	32.29892	1.78886	0.55902	0.0	105.68687	0.0	0.49975	6.67423	6.67423	1.29667	1.29667	1651.98826	64983.032	 	0.0
1495.0	0.0	1.0	6.96234	7.86687	-0.0559108	27.87709	32.22422	1.78795	0.5593	0.0	105.87546	0.0	0.49975	6.73248	6.73248	1.28183	1.28183	1652.72386	64761.821	44.2422	0.0
1490.0	0.0	1.0	6.96623	7.86248	-0.11167	27.8297	32.1495	1.78703	0.55959	0.0	106.06405	0.0	0.49975	6.79157	6.79157	1.26709	1.26709	1653.44473	64541.11	44.1422	0.0
1485.0	0.0	1.0	6.9701	7.8581	-0.16727	27.78238	32.07478	1.78612	0.55987	0.0	106.25265	0.0	0.49975	6.85152	6.85152	1.25244	1.25244	1654.1507	64320.897	44.0426	0.0
1480.0	0.0	1.0	6.97398	7.85374	-0.22271	27.73514	32.00005	1.7852	0.56016	0.0	106.44124	0.0	0.49975	6.91234	6.91234	1.23789	1.23789	1654.84162	64101.178	43.9438	0.0
1475.0	0.0	1.0	6.97784	7.84939	-0.278	27.68797	31.92531	1.78427	0.56045	0.0	106.62983	0.0	0.49975	6.97406	6.97406	1.22343	1.22343	1655.51733	63881.949	43.8458	0.0
1470.0	0.0	1.0	6.9817	7.84505	-0.33313	27.64088	31.85056	1.78335	0.56074	0.0	106.81843	0.0	0.49975	7.03669	7.03669	1.20907	1.20907	1656.17765	63663.209	43.748	0.0
1465.0	0.0	1.0	6.98556	7.84072	-0.38811	27.59387	31.77581	1.78241	0.56104	0.0	107.00702	0.0	0.49975	7.10025	7.10025	1.19481	1.19481	1656.82241	63444.954	43.651	0.0
1460.0	0.0	1.0	6.9894	7.83641	-0.44293	27.54693	31.70105	1.78148	0.56133	0.0	107.19561	0.0	0.49975	7.16475	7.16475	1.18065	1.18065	1657.45146	63227.18	43.5548	0.0
1455.0	0.0	1.0	6.99324	7.8321	-0.4976	27.50008	31.62628	1.78054	0.56163	0.0	107.3842	0.0	0.49975	7.23021	7.23021	1.16659	1.16659	1658.06461	63009.884	43.4592	0.0
1450.0	0.0	1.0	6.99708	7.82781	-0.55211	27.4533	31.5515	1.77959	0.56193	0.0	107.5728	0.0	0.49975	7.29666	7.29666	1.15262	1.15262	1658.6617	62793.091	43.3586	0.0
1445.0	0.0	1.0	7.0009	7.82353	-0.60646	27.40661	31.47671	1.77865	0.56223	0.0	107.76139	0.0	0.49975	7.36411	7.36411	1.13875	1.13875	1659.24255	62576.843	43.2496	0.0
1440.0	0.0	1.0	7.00472	7.81927	-0.66066	27.36	31.40192	1.77769	0.56253	0.0	107.94998	0.0	0.49975	7.43259	7.43259	1.12497	1.12497	1659.807	62361.132	43.1422	0.0
1435.0	0.0	1.0	7.00854	7.81501	-0.71471	27.31347	31.32712	1.77674	0.56283	0.0	108.13858	0.0	0.49975	7.50211	7.50211	1.1113	1.1113	1660.35487	62145.955	43.0354	0.0
1430.0	0.0	1.0	7.01234	7.81077	-0.76859	27.26702	31.25231	1.77578	0.56313	0.0	108.32717	0.0	0.49975	7.57269	7.57269	1.09771	1.09771	1660.88597	61931.307	42.9296	0.0
1425.0	0.0	1.0	7.01614	7.80654	-0.82233	27.22066	31.17749	1.77481	0.56344	0.0	108.51576	0.0	0.49975	7.64436	7.64436	1.08423	1.08423	1661.40015	61717.185	42.8244	0.0
1424.87	0.0	1.0	7.01624	7.80643	-0.82371	27.21946	31.17556	1.77479	0.56345	0.0	108.52064	0.0	0.49975	7.64622	7.64622	1.08388	1.08388	1661.41321	61711.655	42.7886	0.0020
1420.17	0.13046	0.86954	7.04	7.7801	-1.15827	26.41315	31.66016	1.74278	0.5738	0.0169518	103.88182	0.00572468	0.48059	7.68605	10.3289	1.07528	0.80015	1653.81365	60363.456	 	1147.199
1420.0	0.13751	0.86249	7.04114	7.7788	-1.17482	26.37187	31.67772	1.74164	0.57417	0.0187926	103.73387	0.00635055	0.47961	7.68755	10.77074	1.07496	0.76725	1653.42876	60282.882	293.337	1220.703
1415.0	0.32729	0.67271	7.07294	7.74385	-1.61878	25.27052	32.15455	1.71075	0.58454	0.23085	100.13922	0.0794372	0.45306	7.72836	90.69301	1.06613	0.0908498	1642.2437	58093.341	437.908	3197.165
1410.0	0.46125	0.53875	7.09619	7.71845	-1.94149	24.48911	32.48521	1.68832	0.5923	1.07653	97.84744	0.37534	0.43409	7.76983	366.26818	1.0573	0.022429	1631.8405	56493.058	320.057	4584.884
1405.0	0.55906	0.44094	7.11385	7.69939	-2.18364	23.92065	32.7169	1.67138	0.59831	2.91087	96.33301	1.02489	0.42009	7.81229	843.52999	1.04843	0.00970995	1622.1391	55274.651	243.681	5591.239
1400.0	0.63252	0.36748	7.12781	7.68431	-2.37528	23.48564	32.87831	1.65822	0.60305	5.81811	95.32418	2.06395	0.40946	7.8551	1475.68554	1.03961	0.00553385	1613.07696	54313.068	192.317	6341.278
1395.0	0.68902	0.31098	7.13915	7.67214	-2.5298	23.14894	32.98861	1.64774	0.60689	9.6471	94.66264	3.44242	0.40121	7.89892	2214.25068	1.03075	0.00367701	1604.58204	53530.011	156.611	6913.294
1390.0	0.73336	0.26664	7.14862	7.66206	-2.65794	22.88217	33.06299	1.63911	0.61009	14.11195	94.24527	5.05929	0.39466	7.94375	3024.18348	1.02186	0.00268417	1596.59531	52874.532	131.096	7358.236
1385.0	0.76878	0.23122	7.15674	7.65342	-2.76764	22.66419	33.11	1.63186	0.6128	18.89704	94.00325	6.80061	0.38936	7.98925	3883.20738	1.01299	0.00208411	1589.06824	52312.482	112.41	7710.247
1380.0	0.79751	0.20249	7.16385	7.64587	-2.86359	22.48261	33.13618	1.62565	0.61514	23.72945	93.89051	8.56648	0.38502	8.03541	4778.41153	1.00413	0.00168856	1581.95464	51820.345	98.4274	7992.839
1375.0	0.82112	0.17888	7.17015	7.63922	-2.94801	22.33168	33.1466	1.62023	0.6172	28.41758	93.87562	10.28579	0.3814	8.0829	5704.1555	0.99521	0.00141024	1575.20703	51381.533	87.7624	8222.599
1370.0	0.84077	0.15923	7.17587	7.63321	-3.02441	22.20195	33.1444	1.61542	0.61904	32.84356	93.93526	11.91411	0.37835	8.13103	6658.69997	0.98632	0.00120441	1568.79548	50984.091	79.4884	8411.478
1365.0	0.85728	0.14272	7.18111	7.62768	-3.09463	22.08855	33.13227	1.61109	0.6207	36.95276	94.05191	13.43014	0.37574	8.17975	7643.2152	0.97746	0.00104608	1562.6895	50619.235	72.9712	8568.258
1360.0	0.87129	0.12871	7.18595	7.62261	-3.15912	21.99034	33.11227	1.60714	0.62222	40.72604	94.21455	14.82571	0.37349	8.22978	8660.53227	0.96856	9.20382E-4	1556.85454	50280.399	67.7672	8699.499
1355.0	0.88331	0.11669	7.1905	7.61786	-3.21947	21.90309	33.0859	1.6035	0.62364	44.18168	94.41308	16.10668	0.37153	8.28075	9716.33813	0.95965	8.17859E-4	1551.26911	49962.318	63.6162	8810.467
1350.0	0.89374	0.10626	7.19483	7.61335	-3.27676	21.82381	33.05437	1.6001	0.62496	47.35388	94.63982	17.28498	0.3698	8.33267	10817.75067	0.95074	7.32333E-4	1545.91248	49660.814	60.3008	8905.334
1345.0	0.90286	0.0971383	7.19896	7.60904	-3.33152	21.75108	33.01854	1.5969	0.62621	50.26437	94.88971	18.36809	0.36825	8.38552	11969.81045	0.94184	6.59809E-4	1540.76625	49373.023	57.5582	8986.963
1344.53	0.90364	0.0963561	7.19934	7.60865	-3.33649	21.74471	33.01498	1.59661	0.62633	50.52326	94.91413	18.46452	0.36812	8.39063	12080.34171	0.94099	6.53583E-4	1540.28916	49346.8	 	8993.881
1340.0	0.91318	0.0868152	7.20402	7.60377	-3.39839	21.64333	32.98626	1.59353	0.62754	53.68468	95.11385	19.64288	0.36652	8.45287	13306.44383	0.93145	5.91697E-4	1535.25794	49067.826	61.0394	9086.469
1335.0	0.9222	0.0778039	7.20881	7.59878	-3.46178	21.54473	32.94965	1.59035	0.62879	56.80389	95.36185	20.80774	0.36497	8.52287	14704.74064	0.92093	5.33772E-4	1529.957	48776.826	58.2	9172.247
1330.0	0.92994	0.070058	7.21331	7.59414	-3.5208	21.45788	32.90895	1.58737	0.62997	59.59773	95.63324	21.85294	0.36361	8.59419	16160.74521	0.91045	4.84172E-4	1524.88785	48499.994	55.3664	9244.322
1325.0	0.93667	0.0633347	7.21756	7.58974	-3.57671	21.37936	32.86485	1.58454	0.6311	62.12015	95.92302	22.79813	0.3624	8.66643	17684.59434	0.90004	4.41072E-4	1520.03623	48234.652	53.0684	9305.37
1320.0	0.94255	0.0574519	7.22163	7.58556	-3.62979	21.30837	32.81801	1.58184	0.63218	64.41254	96.22781	23.65835	0.36131	8.74006	19285.80969	0.88967	4.03186E-4	1515.37898	47978.792	51.172	9357.397
1315.0	0.94773	0.0522685	7.22553	7.58156	-3.68065	21.24332	32.76888	1.57924	0.63322	66.51048	96.54489	24.44663	0.36032	8.81504	20974.24507	0.87933	3.69566E-4	1510.90186	47730.842	49.59	9401.971
1310.0	0.95233	0.0476718	7.22931	7.5777	-3.72969	21.18303	32.71782	1.57672	0.63423	68.44274	96.87208	25.17353	0.35942	8.89105	22760.06486	0.86907	3.39496E-4	1506.5919	47489.559	48.2566	9440.333
1305.0	0.95643	0.0435706	7.23298	7.57395	-3.7773	21.1265	32.66513	1.57428	0.63521	70.23353	97.20758	25.84795	0.35859	8.96818	24653.62972	0.85888	3.12431E-4	1502.4379	47253.945	47.1228	9473.478
1300.0	0.96011	0.0398921	7.23656	7.57031	-3.82351	21.07359	32.61107	1.57189	0.63618	71.90136	97.5502	26.47669	0.35782	9.04673	26665.91856	0.84872	2.87939E-4	1498.42504	47023.194	46.1502	9502.208
1295.0	0.96342	0.0365755	7.24006	7.56676	-3.86857	21.02367	32.55583	1.56956	0.63712	73.46346	97.89871	27.06612	0.35711	9.12682	28808.49298	0.8386	2.65677E-4	1494.54349	46796.651	45.3086	9527.177
1290.0	0.96643	0.0335736	7.24349	7.56329	-3.91268	20.97619	32.49957	1.56726	0.63806	74.93345	98.25223	27.62127	0.35644	9.20846	31093.67419	0.82851	2.45367E-4	1490.78557	46573.774	44.5754	9548.925
1285.0	0.96916	0.0308432	7.24687	7.55988	-3.95601	20.93061	32.44244	1.565	0.63898	76.32356	98.60993	28.14669	0.35582	9.29128	33534.60229	0.8185	2.26779E-4	1487.14494	46354.116	43.9316	9567.896
1280.0	0.97165	0.0283514	7.25021	7.55653	-3.99862	20.88685	32.38454	1.56276	0.63989	77.64222	98.97131	28.64549	0.35523	9.37527	36145.0273	0.80857	2.09726E-4	1483.61297	46137.299	43.3634	9584.465
1275.0	0.97393	0.0260694	7.2535	7.55322	-4.0406	20.84462	32.32595	1.56056	0.6408	78.8988	99.33572	29.12115	0.35467	9.46092	38940.43412	0.79867	1.94043E-4	1480.18272	45923.015	42.8568	9598.936
1270.0	0.97603	0.0239713	7.25675	7.54996	-4.08202	20.80373	32.26681	1.55837	0.6417	80.10011	99.70279	29.57619	0.35413	9.54825	41936.68111	0.78881	1.79598E-4	1476.84904	45710.993	42.4044	9611.581
1265.0	0.97796	0.0220387	7.25997	7.54674	-4.12298	20.7639	32.20711	1.5562	0.64259	81.25187	100.07209	30.01276	0.35362	9.63685	45151.43016	0.77902	1.6627E-4	1473.60796	45501.006	41.9974	9622.621
1260.0	0.97975	0.0202529	7.26317	7.54355	-4.16351	20.72506	32.14699	1.55404	0.64348	82.35969	100.44331	30.43293	0.35313	9.72718	48603.50422	0.76928	1.53959E-4	1470.45375	45292.862	41.6288	9632.248
1255.0	0.9814	0.0185986	7.26633	7.54039	-4.20359	20.68727	32.08646	1.55189	0.64437	83.42739	100.8162	30.83812	0.35267	9.81931	52313.20016	0.75958	1.42574E-4	1467.3797	45086.394	41.2936	9640.626
1250.0	0.98294	0.0170611	7.26948	7.53726	-4.24337	20.6501	32.02555	1.54976	0.64526	84.46005	101.19051	31.23025	0.35222	9.91285	56303.90909	0.74995	1.32036E-4	1464.38619	44881.458	40.9872	9647.896
1245.0	0.98437	0.0156314	7.27261	7.53416	-4.2828	20.61369	31.96434	1.54763	0.64615	85.45976	101.56607	31.61007	0.35178	10.00822	60598.65887	0.74036	1.22275E-4	1461.46684	44677.928	40.706	9654.182
1240.0	0.9857	0.0142979	7.27572	7.53107	-4.322	20.57769	31.90282	1.54551	0.64704	86.4305	101.94249	31.97908	0.35136	10.10499	65224.10315	0.73086	1.1323E-4	1458.62335	44475.689	40.4478	9659.604
1235.0	0.98695	0.0130524	7.27881	7.52801	-4.36086	20.54241	31.84106	1.54339	0.64793	87.37431	102.31984	32.33805	0.35095	10.2042	70209.1679	0.72136	1.04843E-4	1455.84517	44274.646	40.2086	9664.26
1230.0	0.98811	0.0118878	7.28189	7.52497	-4.39955	20.50742	31.77908	1.54127	0.64882	88.29418	102.69781	32.68809	0.35056	10.30439	75584.862	0.71198	9.70631E-5	1453.13816	44074.712	39.9868	9668.23
1225.0	0.9892	0.0107957	7.28495	7.52195	-4.43796	20.473	31.71684	1.53916	0.64971	89.19089	103.07641	33.02947	0.35017	10.40713	81385.6828	0.7026	8.9845E-5	1450.49234	43875.812	39.78	9671.593
1220.0	0.99023	0.00977194	7.288	7.51894	-4.47617	20.4389	31.65442	1.53705	0.6506	90.06675	103.45543	33.36309	0.3498	10.51143	87648.18388	0.69331	8.31471E-5	1447.91133	43677.881	39.5862	9674.41
1215.0	0.99119	0.00880936	7.29104	7.51595	-4.51417	20.40518	31.59186	1.53493	0.65149	90.92356	103.83482	33.68959	0.34943	10.61777	94413.53505	0.68407	7.69306E-5	1445.39017	43480.86	39.4042	9676.736
1210.0	0.9921	0.00790485	7.29407	7.51297	-4.552	20.37172	31.52912	1.53282	0.65239	91.7629	104.21442	34.00959	0.34907	10.72576	101726.0689	0.67491	7.11606E-5	1442.92989	43284.695	39.233	9678.624
1206.98	0.99285	0.0071498	7.29609	7.51103	-4.57662	20.34573	31.49144	1.53153	0.65294	92.36243	104.44294	34.23819	0.34882	10.79198	106540.0042	0.6694	6.78069E-5	1441.46769	43165.018	 	9681.167
1205.0	0.9934	0.00660243	7.29735	7.50971	-4.5934	20.32663	31.46669	1.53068	0.6533	92.78877	104.59589	34.40095	0.34864	10.87405	109851.2392	0.66346	6.5675E-5	1440.23344	43082.864	40.3662	9686.592
1200.0	0.99462	0.00537774	7.30051	7.50642	-4.63523	20.27981	31.40393	1.52855	0.65421	93.80438	104.9817	34.78881	0.3482	11.08145	118639.3848	0.64884	6.06045E-5	1437.34806	42877.853	41.0022	9698.154
1195.0	0.99566	0.0043399	7.30361	7.50318	-4.67634	20.23485	31.34085	1.52643	0.65512	94.74491	105.36696	35.14817	0.34779	11.28996	128091.1921	0.63469	5.5942E-5	1434.71919	42675.807	40.4092	9707.163
1190.0	0.99655	0.00345155	7.30668	7.49999	-4.71689	20.19136	31.27754	1.52431	0.65603	95.62715	105.75164	35.48542	0.34741	11.49915	138278.1855	0.62103	5.16442E-5	1432.31076	42476.151	39.9312	9714.188
1185.0	0.99732	0.00268159	7.30972	7.49684	-4.75691	20.14916	31.214	1.5222	0.65695	96.46123	106.13574	35.80439	0.34706	11.70936	149275.1576	0.60779	4.76762E-5	1430.09196	42278.463	39.5376	9719.654
1180.0	0.99799	0.00200924	7.31273	7.49373	-4.79647	20.10812	31.15039	1.52007	0.65786	97.25667	106.51931	36.10872	0.34672	11.92122	161163.0402	0.59494	4.4008E-5	1428.03516	42082.42	39.2086	9723.878
1175.0	0.99858	0.00141687	7.31571	7.49064	-4.83564	20.06798	31.08664	1.51795	0.65878	98.02049	106.90229	36.40107	0.3464	12.13447	174028.641	0.58248	4.06144E-5	1426.12439	41887.777	38.9286	9727.104
1170.0	0.99911	8.92012E-4	7.31868	7.48759	-4.87444	20.0287	31.02289	1.51582	0.65971	98.75772	107.2847	36.68335	0.34608	12.34969	187969.153	0.57035	3.74724E-5	1424.3391	41694.341	38.6872	9729.524
1165.0	0.99958	4.22215E-4	7.32162	7.48456	-4.91289	19.99024	30.95889	1.51369	0.66064	99.47175	107.66652	36.95685	0.34578	12.56722	203084.7133	0.55854	3.45632E-5	1422.66529	41501.96	38.4762	9731.283
1160.0	1.0	0.0	7.32454	7.48156	-4.95104	19.9524	30.89488	1.51155	0.66157	100.16742	108.04775	37.22343	0.34549	 	219489.8855	 	3.18687E-5	 	41310.511	38.2898	9732.509
1155.0	1.0	0.0	7.32699	7.47905	-4.98288	19.93516	30.83036	1.50943	0.6625	100.65542	108.42716	37.4106	0.34528	 	236925.0367	 	2.94205E-5	 	41092.345	43.6332	 
1150.0	1.0	0.0	7.32945	7.47655	-5.01467	19.91794	30.76583	1.5073	0.66344	101.14374	108.80588	37.59794	0.34507	 	255886.4961	 	2.7145E-5	 	40906.997	37.0696	 
1145.0	1.0	0.0	7.3319	7.47405	-5.04641	19.90072	30.70129	1.50516	0.66438	101.63236	109.18392	37.78546	0.34486	 	276519.8375	 	2.50313E-5	 	40721.89	37.0214	 
1140.0	1.0	0.0	7.33434	7.47156	-5.0781	19.88352	30.63674	1.50302	0.66533	102.12127	109.56124	37.97315	0.34465	 	298985.6315	 	2.30688E-5	 	40537.027	36.9726	 
1135.0	1.0	0.0	7.33679	7.46907	-5.10974	19.86633	30.57218	1.50086	0.66628	102.61047	109.93785	38.16099	0.34444	 	323461.1026	 	2.12478E-5	 	40352.417	36.922	 
1130.0	1.0	0.0	7.33923	7.46658	-5.14133	19.84915	30.50761	1.4987	0.66725	103.09992	110.31373	38.349	0.34423	 	350141.9818	 	1.9559E-5	 	40168.061	36.8712	 
1125.0	1.0	0.0	7.34167	7.4641	-5.17287	19.83198	30.44303	1.49652	0.66822	103.58963	110.68887	38.53715	0.34402	 	379244.579	 	1.79937E-5	 	39983.963	36.8196	 
1120.0	1.0	0.0	7.34411	7.46162	-5.20436	19.81483	30.37844	1.49434	0.66919	104.07956	111.06325	38.72545	0.34381	 	411008.1037	 	1.65438E-5	 	39800.121	36.7684	 
1115.0	1.0	0.0	7.34655	7.45915	-5.23581	19.79768	30.31385	1.49215	0.67017	104.56973	111.43686	38.9139	0.3436	 	445697.2637	 	1.52014E-5	 	39616.534	36.7174	 
1110.0	1.0	0.0	7.34898	7.45667	-5.2672	19.78055	30.24924	1.48995	0.67116	105.0601	111.8097	39.10247	0.34339	 	483605.1786	 	1.39593E-5	 	39433.2	36.6668	 
1105.0	1.0	0.0	7.35142	7.45421	-5.29854	19.76343	30.18463	1.48774	0.67216	105.55066	112.18175	39.29118	0.34319	 	525056.6491	 	1.28108E-5	 	39250.119	36.6162	 
1100.0	1.0	0.0	7.35385	7.45174	-5.32984	19.74632	30.12	1.48553	0.67316	106.04141	112.55301	39.48002	0.34298	 	570411.8263	 	1.17494E-5	 	39067.289	36.566	 
1095.0	1.0	0.0	7.35628	7.44928	-5.36109	19.72922	30.05537	1.4833	0.67417	106.53232	112.92345	39.66898	0.34277	 	620070.3342	 	1.07691E-5	 	38884.709	36.516	 
1090.0	1.0	0.0	7.3587	7.44683	-5.39229	19.71213	29.99073	1.48107	0.67519	107.02339	113.29307	39.85805	0.34256	 	674475.9052	 	9.86425E-6	 	38702.378	36.4662	 
1085.0	1.0	0.0	7.36112	7.44438	-5.42343	19.69506	29.92608	1.47882	0.67621	107.5146	113.66185	40.04724	0.34235	 	734121.5953	 	9.02956E-6	 	38520.294	36.4168	 
1080.0	1.0	0.0	7.36355	7.44193	-5.45453	19.678	29.86142	1.47657	0.67725	108.00594	114.0298	40.23653	0.34214	 	799555.6565	 	8.26007E-6	 	38338.456	36.3676	 
1075.0	1.0	0.0	7.36597	7.43949	-5.48559	19.66094	29.79675	1.4743	0.67829	108.49739	114.39689	40.42592	0.34193	 	871388.154	 	7.55115E-6	 	38156.86	36.3192	 
1070.0	1.0	0.0	7.36838	7.43704	-5.51659	19.6439	29.73207	1.47203	0.67933	108.98895	114.76312	40.61541	0.34172	 	950298.4287	 	6.89845E-6	 	37975.507	36.2706	 
1065.0	1.0	0.0	7.3708	7.43461	-5.54754	19.62688	29.66738	1.46975	0.68039	109.48059	115.12847	40.805	0.34151	 	1037043.52	 	6.29788E-6	 	37794.394	36.2226	 
1060.0	1.0	0.0	7.37321	7.43218	-5.57845	19.60986	29.60268	1.46746	0.68145	109.97231	115.49294	40.99467	0.3413	 	1132467.677	 	5.74566E-6	 	37613.519	36.175	 
1055.0	1.0	0.0	7.37562	7.42975	-5.6093	19.59286	29.53798	1.46516	0.68252	110.46409	115.85652	41.18442	0.34109	 	1237513.114	 	5.23822E-6	 	37432.882	36.1274	 
1050.0	1.0	0.0	7.37803	7.42732	-5.64011	19.57586	29.47326	1.46285	0.6836	110.95593	116.21919	41.37426	0.34088	 	1353232.174	 	4.77225E-6	 	37252.48	36.0804	 
1045.0	1.0	0.0	7.38043	7.4249	-5.67087	19.55888	29.40853	1.46053	0.68468	111.4478	116.58095	41.56416	0.34067	 	1480801.103	 	4.34465E-6	 	37072.312	36.0336	 
1040.0	1.0	0.0	7.38284	7.42248	-5.70158	19.54191	29.3438	1.4582	0.68578	111.93969	116.94179	41.75413	0.34046	 	1621535.657	 	3.95252E-6	 	36892.377	35.987	 
1035.0	1.0	0.0	7.38524	7.42007	-5.73224	19.52495	29.27905	1.45586	0.68688	112.4316	117.30169	41.94417	0.34025	 	1776908.802	 	3.59318E-6	 	36712.673	35.9408	 
1030.0	1.0	0.0	7.38764	7.41766	-5.76286	19.50801	29.2143	1.45351	0.68799	112.92351	117.66066	42.13427	0.34004	 	1948570.807	 	3.26411E-6	 	36533.198	35.895	 
1025.0	1.0	0.0	7.39003	7.41525	-5.79342	19.49107	29.14953	1.45115	0.68911	113.4154	118.01867	42.32442	0.33983	 	2138372.064	 	2.96298E-6	 	36353.95	35.8496	 
1020.0	1.0	0.0	7.39243	7.41285	-5.82394	19.47415	29.08476	1.44878	0.69024	113.90727	118.37572	42.51462	0.33962	 	2348389.037	 	2.68761E-6	 	36174.928	35.8044	 
1015.0	1.0	0.0	7.39482	7.41045	-5.85441	19.45724	29.01998	1.4464	0.69137	114.39911	118.7318	42.70487	0.33942	 	2580953.796	 	2.43598E-6	 	35996.129	35.7598	 
1010.0	1.0	0.0	7.39721	7.40806	-5.88483	19.44034	28.95518	1.44401	0.69252	114.89089	119.0869	42.89516	0.33921	 	2838687.645	 	2.20621E-6	 	35817.553	35.7152	 
1005.0	1.0	0.0	7.3996	7.40567	-5.9152	19.42345	28.89038	1.44161	0.69367	115.38261	119.44101	43.08548	0.339	 	3124539.464	 	1.99656E-6	 	35639.197	35.6712	 
1000.0	1.0	0.0	7.40199	7.40328	-5.94553	19.40657	28.82557	1.43919	0.69483	115.87425	119.79413	43.27584	0.33879	 	3441829.456	 	1.80541E-6	 	35461.059	35.6276	 
995.0	1.0	0.0	7.40437	7.4009	-5.9758	19.38971	28.76075	1.43677	0.696	116.36581	120.14624	43.46622	0.33858	 	3794299.104	 	1.63127E-6	 	35283.138	35.5842	 
990.0	1.0	0.0	7.40675	7.39852	-6.00603	19.37285	28.69591	1.43434	0.69718	116.85727	120.49734	43.65662	0.33837	 	4186168.281	 	1.47274E-6	 	35105.43	35.5416	 
985.0	1.0	0.0	7.40913	7.39614	-6.03621	19.35601	28.63107	1.4319	0.69837	117.34862	120.84741	43.84705	0.33816	 	4622200.583	 	1.32853E-6	 	34927.935	35.499	 
980.0	1.0	0.0	7.41151	7.39377	-6.06635	19.33918	28.56622	1.42945	0.69957	117.83984	121.19646	44.03749	0.33795	 	5107778.158	 	1.19745E-6	 	34750.65	35.457	 
975.0	1.0	0.0	7.41388	7.3914	-6.09643	19.32236	28.50136	1.42698	0.70078	118.33093	121.54446	44.22793	0.33774	 	5648987.472	 	1.07841E-6	 	34573.573	35.4154	 
970.0	1.0	0.0	7.41625	7.38904	-6.12647	19.30556	28.43649	1.42451	0.702	118.82188	121.89142	44.41838	0.33753	 	6252717.723	 	9.70379E-7	 	34396.702	35.3742	 
965.0	1.0	0.0	7.41862	7.38668	-6.15646	19.28876	28.37161	1.42202	0.70322	119.31266	122.23733	44.60883	0.33732	 	6926773.864	 	8.72427E-7	 	34220.035	35.3334	 
960.0	1.0	0.0	7.42099	7.38432	-6.1864	19.27198	28.30672	1.41953	0.70446	119.80327	122.58216	44.79928	0.33711	 	7680006.536	 	7.83684E-7	 	34043.568	35.2934	 
955.0	1.0	0.0	7.42336	7.38197	-6.21629	19.25521	28.24182	1.41702	0.70571	120.2937	122.92593	44.98972	0.3369	 	8522461.594	 	7.03353E-7	 	33867.3	35.2536	 
950.0	1.0	0.0	7.42572	7.37962	-6.24614	19.23845	28.17691	1.4145	0.70696	120.78394	123.26862	45.18014	0.33669	 	9465552.34	 	6.30697E-7	 	33691.229	35.2142	 
945.0	1.0	0.0	7.42808	7.37727	-6.27593	19.2217	28.11199	1.41197	0.70823	121.27397	123.61022	45.37055	0.33648	 	1.052225813E7	 	5.65039E-7	 	33515.352	35.1754	 
940.0	1.0	0.0	7.43044	7.37493	-6.30568	19.20496	28.04706	1.40943	0.7095	121.76378	123.95073	45.56094	0.33627	 	1.17073536E7	 	5.05758E-7	 	33339.665	35.1374	 
935.0	1.0	0.0	7.4328	7.37259	-6.33539	19.18824	27.98212	1.40688	0.71079	122.25336	124.29013	45.75129	0.33606	 	1.303767357E7	 	4.5228E-7	 	33164.168	35.0994	 
930.0	1.0	0.0	7.43515	7.37026	-6.36504	19.17152	27.91717	1.40432	0.71209	122.7427	124.62842	45.94162	0.33586	 	1.453241937E7	 	4.04081E-7	 	32988.856	35.0624	 
925.0	1.0	0.0	7.4375	7.36793	-6.39465	19.15482	27.85221	1.40175	0.7134	123.23179	124.96559	46.13192	0.33565	 	1.621351362E7	 	3.60679E-7	 	32813.727	35.0258	 
920.0	1.0	0.0	7.43985	7.3656	-6.42421	19.13813	27.78724	1.39916	0.71471	123.72061	125.30164	46.32217	0.33544	 	1.810601144E7	 	3.21632E-7	 	32638.778	34.9898	 
915.0	1.0	0.0	7.4422	7.36328	-6.45373	19.12145	27.72226	1.39656	0.71604	124.20915	125.63655	46.51238	0.33523	 	2.023857756E7	 	2.86535E-7	 	32464.007	34.9542	 
910.0	1.0	0.0	7.44454	7.36096	-6.48319	19.10478	27.65727	1.39395	0.71738	124.6974	125.97032	46.70254	0.33502	 	2.264404067E7	 	2.55019E-7	 	32289.41	34.9194	 
905.0	1.0	0.0	7.44689	7.35865	-6.51261	19.08813	27.59227	1.39133	0.71874	125.18536	126.30294	46.89264	0.33481	 	2.536003802E7	 	2.26745E-7	 	32114.983	34.8854	 
900.0	1.0	0.0	7.44923	7.35633	-6.54198	19.07149	27.52726	1.3887	0.7201	125.67299	126.63441	47.08269	0.3346	 	2.842976599E7	 	2.01403E-7	 	31940.724	34.8518	 
895.0	1.0	0.0	7.45156	7.35402	-6.57131	19.05485	27.46224	1.38605	0.72147	126.16031	126.9647	47.27268	0.33439	 	3.190285487E7	 	1.78713E-7	 	31766.63	34.8188	 
890.0	1.0	0.0	7.4539	7.35172	-6.60059	19.03823	27.39721	1.3834	0.72286	126.64729	127.29383	47.4626	0.33418	 	3.583638976E7	 	1.58416E-7	 	31592.696	34.7868	 
885.0	1.0	0.0	7.45623	7.34942	-6.62982	19.02162	27.33216	1.38073	0.72425	127.13392	127.62178	47.65245	0.33397	 	4.02961033E7	 	1.40278E-7	 	31418.919	34.7554	 
880.0	1.0	0.0	7.45856	7.34712	-6.659	19.00503	27.26711	1.37805	0.72566	127.62019	127.94855	47.84223	0.33376	 	4.535777072E7	 	1.24085E-7	 	31245.296	34.7246	 
875.0	1.0	0.0	7.46089	7.34483	-6.68814	18.98844	27.20205	1.37535	0.72709	128.1061	128.27412	48.03192	0.33355	 	5.110884363E7	 	1.09645E-7	 	31071.822	34.6948	 
870.0	1.0	0.0	7.46322	7.34254	-6.71723	18.97187	27.13698	1.37265	0.72852	128.59162	128.5985	48.22153	0.33334	 	5.765036568E7	 	9.67805E-8	 	30898.494	34.6656	 
865.0	1.0	0.0	7.46554	7.34025	-6.74627	18.95531	27.0719	1.36993	0.72996	129.07675	128.92166	48.41106	0.33313	 	6.509922139E7	 	8.53317E-8	 	30725.308	34.6372	 
860.0	1.0	0.0	7.46787	7.33797	-6.77526	18.93876	27.00681	1.3672	0.73142	129.56147	129.24362	48.60049	0.33292	 	7.359077944E7	 	7.51538E-8	 	30552.258	34.61	 
855.0	1.0	0.0	7.47019	7.33569	-6.80421	18.92222	26.94171	1.36446	0.73289	130.04578	129.56436	48.78983	0.33271	 	8.328200356E7	 	6.61154E-8	 	30379.341	34.5834	 
850.0	1.0	0.0	7.4725	7.33342	-6.83312	18.90569	26.8766	1.3617	0.73438	130.52966	129.88387	48.97906	0.3325	 	9.435511826E7	 	5.80977E-8	 	30206.552	34.5578	 
845.0	1.0	0.0	7.47482	7.33115	-6.86197	18.88917	26.81148	1.35893	0.73587	131.01311	130.20215	49.1682	0.3323	 	1.070219341E8	 	5.09934E-8	 	30033.886	34.5332	 
840.0	1.0	0.0	7.47713	7.32888	-6.89078	18.87267	26.74635	1.35615	0.73738	131.4961	130.51919	49.35722	0.33209	 	1.215289577E8	 	4.47055E-8	 	29861.338	34.5096	 
835.0	1.0	0.0	7.47944	7.32661	-6.91954	18.85618	26.68121	1.35335	0.73891	131.97864	130.83498	49.54613	0.33188	 	1.381634369E8	 	3.91464E-8	 	29688.903	34.487	 
830.0	1.0	0.0	7.48175	7.32435	-6.94826	18.8397	26.61606	1.35054	0.74044	132.4607	131.14952	49.73492	0.33167	 	1.572605213E8	 	3.42375E-8	 	29516.576	34.4654	 
825.0	1.0	0.0	7.48406	7.3221	-6.97693	18.82323	26.5509	1.34772	0.74199	132.94229	131.46281	49.92359	0.33146	 	1.792117574E8	 	2.99076E-8	 	29344.35	34.4452	 
820.0	1.0	0.0	7.48636	7.31984	-7.00555	18.80677	26.48573	1.34489	0.74356	133.42338	131.77483	50.11213	0.33125	 	2.044751769E8	 	2.60931E-8	 	29172.22	34.426	 
815.0	1.0	0.0	7.48866	7.3176	-7.03413	18.79033	26.42055	1.34204	0.74514	133.90396	132.08558	50.30055	0.33104	 	2.335872991E8	 	2.27366E-8	 	29000.18	34.408	 
810.0	1.0	0.0	7.49096	7.31535	-7.06266	18.77389	26.35536	1.33917	0.74673	134.38403	132.39506	50.48882	0.33083	 	2.671774254E8	 	1.97868E-8	 	28828.223	34.3914	 
805.0	1.0	0.0	7.49326	7.31311	-7.09114	18.75747	26.29016	1.3363	0.74834	134.86358	132.70326	50.67697	0.33062	 	3.059846912E8	 	1.71975E-8	 	28656.341	34.3764	 
800.0	1.0	0.0	7.49555	7.31087	-7.11958	18.74106	26.22496	1.33341	0.74996	135.34259	133.01016	50.86497	0.33041	 	3.508784362E8	 	1.49276E-8	 	28484.529	34.3624	 
795.0	1.0	0.0	7.49784	7.30863	-7.14797	18.72466	26.15974	1.33051	0.75159	135.82105	133.31578	51.05282	0.3302	 	4.028825722E8	 	1.29402E-8	 	28312.779	34.35	 
790.0	1.0	0.0	7.50013	7.3064	-7.17632	18.70827	26.09451	1.32759	0.75325	136.29896	133.62009	51.24052	0.32999	 	4.632047799E8	 	1.12023E-8	 	28141.082	34.3394	 
785.0	1.0	0.0	7.50242	7.30418	-7.20462	18.6919	26.02928	1.32466	0.75491	136.77629	133.9231	51.42807	0.32978	 	5.332715405E8	 	9.68469E-9	 	27969.431	34.3302	 
780.0	1.0	0.0	7.5047	7.30195	-7.23287	18.67553	25.96403	1.32171	0.7566	137.25305	134.2248	51.61546	0.32957	 	6.147702352E8	 	8.36111E-9	 	27797.816	34.323	 
775.0	1.0	0.0	7.50699	7.29973	-7.26108	18.65918	25.89878	1.31875	0.75829	137.72922	134.52519	51.80268	0.32936	 	7.09699815E8	 	7.20834E-9	 	27626.228	34.3176	 
770.0	1.0	0.0	7.50927	7.29751	-7.28924	18.64284	25.83351	1.31577	0.76001	138.20478	134.82425	51.98974	0.32915	 	8.204318816E8	 	6.2057E-9	 	27454.658	34.314	 
765.0	1.0	0.0	7.51155	7.2953	-7.31735	18.62651	25.76824	1.31278	0.76174	138.67974	135.12198	52.17663	0.32895	 	9.497844355E8	 	5.33484E-9	 	27283.095	34.3126	 
760.0	1.0	0.0	7.51382	7.29309	-7.34542	18.61019	25.70295	1.30978	0.76349	139.15407	135.41839	52.36334	0.32874	 	1.101111062E9	 	4.57951E-9	 	27111.528	34.3134	 
755.0	1.0	0.0	7.51609	7.29089	-7.37345	18.59389	25.63766	1.30676	0.76525	139.62777	135.71345	52.54987	0.32853	 	1.278408959E9	 	3.9253E-9	 	26939.946	34.3164	 
750.0	1.0	0.0	7.51836	7.28868	-7.40142	18.57759	25.57236	1.30373	0.76703	140.10083	136.00717	52.73622	0.32832	 	1.486450014E9	 	3.35951E-9	 	26768.336	34.322	 
745.0	1.0	0.0	7.52063	7.28649	-7.42936	18.56131	25.50705	1.30068	0.76883	140.57323	136.29955	52.92239	0.32811	 	1.7309401E9	 	2.87089E-9	 	26596.685	34.3302	 
740.0	1.0	0.0	7.5229	7.28429	-7.45724	18.54504	25.44173	1.29761	0.77065	141.04498	136.59057	53.10836	0.3279	 	2.018713001E9	 	2.44955E-9	 	26424.978	34.3414	 
735.0	1.0	0.0	7.52516	7.2821	-7.48508	18.52878	25.3764	1.29453	0.77248	141.51604	136.88023	53.29413	0.32769	 	2.357966915E9	 	2.08677E-9	 	26253.202	34.3552	 
730.0	1.0	0.0	7.52743	7.27991	-7.51288	18.51253	25.31106	1.29144	0.77433	141.98643	137.16853	53.47971	0.32748	 	2.758553364E9	 	1.77489E-9	 	26081.339	34.3726	 
725.0	1.0	0.0	7.52968	7.27773	-7.54063	18.4963	25.24571	1.28833	0.7762	142.45612	137.45546	53.66509	0.32727	 	3.23233076E9	 	1.50719E-9	 	25909.372	34.3934	 
720.0	1.0	0.0	7.53194	7.27555	-7.56833	18.48007	25.18035	1.2852	0.77809	142.9251	137.74102	53.85026	0.32706	 	3.793597885E9	 	1.27776E-9	 	25737.284	34.4176	 
715.0	1.0	0.0	7.5342	7.27337	-7.59599	18.46386	25.11498	1.28206	0.78	143.39337	138.0252	54.03521	0.32685	 	4.459626302E9	 	1.08146E-9	 	25565.053	34.4462	 
710.0	1.0	0.0	7.53645	7.2712	-7.6236	18.44766	25.0496	1.2789	0.78192	143.86092	138.308	54.21995	0.32664	 	5.251315486E9	 	9.13773E-10	 	25392.658	34.479	 
705.0	1.0	0.0	7.5387	7.26903	-7.65117	18.43147	24.98421	1.27573	0.78387	144.32773	138.58941	54.40448	0.32643	 	6.194000486E9	 	7.70763E-10	 	25220.076	34.5164	 
700.0	1.0	0.0	7.54094	7.26686	-7.67869	18.41529	24.91881	1.27254	0.78583	144.79379	138.86943	54.58878	0.32622	 	7.318449522E9	 	6.49004E-10	 	25047.282	34.5588	 
695.0	1.0	0.0	7.54319	7.2647	-7.70617	18.39913	24.8534	1.26933	0.78782	145.2591	139.14805	54.77285	0.32601	 	8.662098554E9	 	5.45514E-10	 	24874.248	34.6068	 
690.0	1.0	0.0	7.54543	7.26254	-7.7336	18.38297	24.78798	1.26611	0.78982	145.72364	139.42526	54.95669	0.3258	 	1.02706E10	 	4.57705E-10	 	24700.944	34.6608	 
685.0	1.0	0.0	7.54767	7.26038	-7.76099	18.36683	24.72254	1.26287	0.79185	146.18741	139.70108	55.1403	0.32559	 	1.2199599999999998E10	 	3.8333E-10	 	24527.338	34.7212	 
680.0	1.0	0.0	7.54991	7.25823	-7.78833	18.3507	24.6571	1.25961	0.79389	146.65039	139.97548	55.32367	0.32539	 	1.4517499999999998E10	 	3.20448E-10	 	24353.394	34.7888	 
675.0	1.0	0.0	7.55215	7.25608	-7.81563	18.33458	24.59164	1.25634	0.79596	147.11258	140.24846	55.5068	0.32518	 	1.73077E10	 	2.67377E-10	 	24179.074	34.864	 
670.0	1.0	0.0	7.55438	7.25394	-7.84288	18.31847	24.52617	1.25305	0.79805	147.57396	140.52003	55.68968	0.32497	 	2.06731E10	 	2.22671E-10	 	24004.334	34.948	 
665.0	1.0	0.0	7.55661	7.25179	-7.87008	18.30238	24.46069	1.24974	0.80016	148.03453	140.79018	55.87231	0.32476	 	2.4739999999999996E10	 	1.8508E-10	 	23829.129	35.041	 
660.0	1.0	0.0	7.55884	7.24966	-7.89724	18.28629	24.39519	1.24642	0.8023	148.49427	141.05889	56.05469	0.32455	 	2.9664699999999996E10	 	1.53532E-10	 	23653.405	35.1448	 
655.0	1.0	0.0	7.56106	7.24752	-7.92436	18.27022	24.32968	1.24308	0.80445	148.95317	141.32617	56.23681	0.32434	 	3.56399E10	 	1.27107E-10	 	23477.106	35.2598	 
650.0	1.0	0.0	7.56329	7.24539	-7.95143	18.25416	24.26416	1.23972	0.80663	149.41123	141.59202	56.41867	0.32413	 	4.29045E10	 	1.05016E-10	 	23300.169	35.3874	 
645.0	1.0	0.0	7.56551	7.24326	-7.97846	18.23811	24.19863	1.23635	0.80883	149.86844	141.85642	56.60026	0.32392	 	5.175539999999999E10	 	8.65854E-11	 	23122.523	35.5292	 
640.0	1.0	0.0	7.56773	7.24114	-8.00544	18.22207	24.13307	1.23295	0.81106	150.32478	142.11939	56.78158	0.32371	 	6.256149999999999E10	 	7.12396E-11	 	22944.091	35.6864	 
635.0	1.0	0.0	7.56995	7.23902	-8.03238	18.20605	24.06751	1.22954	0.81331	150.78024	142.3809	56.96263	0.3235	 	7.57832E10	 	5.84886E-11	 	22764.785	35.8612	 
630.0	1.0	0.0	7.57216	7.2369	-8.05927	18.19003	24.00193	1.22612	0.81558	151.23482	142.64096	57.14341	0.32329	 	9.19959E10	 	4.79157E-11	 	22584.508	36.0554	 
625.0	1.0	0.0	7.57437	7.23479	-8.08612	18.17403	23.93633	1.22267	0.81788	151.68851	142.89956	57.3239	0.32308	 	1.1192E11	 	3.91676E-11	 	22403.012	36.2992	 
620.0	1.0	0.0	7.57658	7.23268	-8.11292	18.15804	23.87072	1.2192	0.82021	152.14129	143.1567	57.50411	0.32287	 	1.36461E11	 	3.19449E-11	 	22210.408	38.5208	 
615.0	1.0	0.0	7.57879	7.23057	-8.13968	18.14206	23.80509	1.21572	0.82256	152.59316	143.41238	57.68403	0.32266	 	1.66758E11	 	2.59948E-11	 	22019.239	38.2338	 
610.0	1.0	0.0	7.58099	7.22847	-8.1664	18.12609	23.73944	1.21222	0.82493	153.04411	143.66658	57.86366	0.32245	 	2.04248E11	 	2.11039E-11	 	21829.452	37.9574	 
605.0	1.0	0.0	7.5832	7.22637	-8.19307	18.11013	23.67377	1.2087	0.82733	153.49413	143.91932	58.04299	0.32225	 	2.50748E11	 	1.7093E-11	 	21640.999	37.6906	 
600.0	1.0	0.0	7.58539	7.22428	-8.21969	18.09419	23.60809	1.20516	0.82976	153.9432	144.17058	58.22202	0.32204	 	3.08565E11	 	1.38111E-11	 	21453.836	37.4326	 
595.0	1.0	0.0	7.58759	7.22218	-8.24627	18.07826	23.54239	1.20161	0.83222	154.39132	144.42036	58.40075	0.32183	 	3.80627E11	 	1.11322E-11	 	21267.917	37.1838	 
590.0	1.0	0.0	7.58979	7.2201	-8.27281	18.06234	23.47668	1.19803	0.8347	154.83849	144.66866	58.57918	0.32162	 	4.70669E11	 	8.95071E-12	 	21083.203	36.9428	 
585.0	1.0	0.0	7.59198	7.21801	-8.2993	18.04643	23.41094	1.19443	0.83722	155.28468	144.91547	58.75729	0.32141	 	5.83462E11	 	7.17855E-12	 	20899.653	36.71	 
580.0	1.0	0.0	7.59417	7.21593	-8.32575	18.03053	23.34518	1.19082	0.83976	155.72989	145.16079	58.93509	0.3212	 	7.25122E11	 	5.7425E-12	 	20717.232	36.4842	 
575.0	1.0	0.0	7.59636	7.21385	-8.35216	18.01464	23.27941	1.18719	0.84233	156.17411	145.40461	59.11257	0.32099	 	9.03501E11	 	4.58174E-12	 	20535.905	36.2654	 
570.0	1.0	0.0	7.59854	7.21177	-8.37852	17.99877	23.21362	1.18353	0.84493	156.61734	145.64694	59.28973	0.32078	 	1.12872E12	 	3.6459E-12	 	20355.638	36.0534	 
565.0	1.0	0.0	7.60073	7.2097	-8.40483	17.9829	23.14781	1.17986	0.84756	157.05955	145.88777	59.46656	0.32057	 	1.41385E12	 	2.89337E-12	 	20176.4	35.8476	 
560.0	1.0	0.0	7.60291	7.20764	-8.4311	17.96705	23.08197	1.17616	0.85022	157.50076	146.12709	59.64307	0.32036	 	1.77583E12	 	2.28985E-12	 	19998.161	35.6478	 
555.0	1.0	0.0	7.60509	7.20557	-8.45733	17.95121	23.01612	1.17245	0.85291	157.94093	146.36491	59.81924	0.32015	 	2.23667E12	 	1.80715E-12	 	19820.892	35.4538	 
550.0	1.0	0.0	7.60726	7.20351	-8.48352	17.93538	22.95026	1.16872	0.85564	158.38007	146.60121	59.99507	0.31994	 	2.82505E12	 	1.42213E-12	 	19644.568	35.2648	 
545.0	1.0	0.0	7.60944	7.20145	-8.50966	17.91957	22.88437	1.16496	0.8584	158.81816	146.836	60.17057	0.31973	 	3.57846E12	 	1.1159E-12	 	19469.162	35.0812	 
540.0	1.0	0.0	7.61161	7.1994	-8.53575	17.90376	22.81846	1.16119	0.86119	159.2552	147.06928	60.34572	0.31952	 	4.54606E12	 	8.73016E-13	 	19294.65	34.9024	 
535.0	1.0	0.0	7.61378	7.19735	-8.56181	17.88797	22.75253	1.15739	0.86401	159.69118	147.30103	60.52052	0.31931	 	5.79251E12	 	6.80945E-13	 	19121.01	34.728	 
530.0	1.0	0.0	7.61594	7.1953	-8.58782	17.87219	22.68658	1.15357	0.86687	160.12609	147.53126	60.69498	0.3191	 	7.40312E12	 	5.29503E-13	 	18948.219	34.5582	 
525.0	1.0	0.0	7.61811	7.19326	-8.61378	17.85642	22.62062	1.14974	0.86977	160.55991	147.75997	60.86908	0.3189	 	9.49082E12	 	4.10457E-13	 	18776.256	34.3926	 
520.0	1.0	0.0	7.62027	7.19122	-8.6397	17.84066	22.55463	1.14588	0.8727	160.99265	147.98715	61.04282	0.31869	 	1.22056E13	 	3.17163E-13	 	18605.103	34.2306	 
515.0	1.0	0.0	7.62243	7.18918	-8.66558	17.82491	22.48863	1.14199	0.87566	161.42428	148.21279	61.2162	0.31848	 	1.57473E13	 	2.44281E-13	 	18434.739	34.0728	 
510.0	1.0	0.0	7.62458	7.18715	-8.69142	17.80918	22.42261	1.13809	0.87867	161.85481	148.4369	61.38921	0.31827	 	2.03832E13	 	1.87525E-13	 	18265.148	33.9182	 
505.0	1.0	0.0	7.62674	7.18512	-8.71721	17.79346	22.35657	1.13416	0.88171	162.28423	148.65947	61.56186	0.31806	 	2.64719E13	 	1.43471E-13	 	18096.311	33.7674	 
500.0	1.0	0.0	7.62889	7.18309	-8.74295	17.77774	22.29051	1.13022	0.88479	162.71251	148.8805	61.73413	0.31785	 	3.44963E13	 	1.0939E-13	 	17928.213	33.6196	 
495.0	1.0	0.0	7.63104	7.18107	-8.76866	17.76204	22.22443	1.12625	0.88791	163.13967	149.09999	61.90603	0.31764	 	4.51088E13	 	8.31135E-14	 	17760.838	33.475	 
490.0	1.0	0.0	7.63319	7.17905	-8.79432	17.74636	22.15834	1.12225	0.89107	163.56568	149.31793	62.07755	0.31743	 	5.91946E13	 	6.29237E-14	 	17594.172	33.3332	 
485.0	1.0	0.0	7.63533	7.17703	-8.81994	17.73068	22.09223	1.11824	0.89427	163.99054	149.53432	62.24869	0.31722	 	7.79589E13	 	4.74653E-14	 	17428.2	33.1944	 
480.0	1.0	0.0	7.63747	7.17502	-8.84551	17.71501	22.0261	1.1142	0.89751	164.41424	149.74916	62.41944	0.31701	 	1.03049E14	 	3.56719E-14	 	17262.909	33.0582	 
475.0	1.0	0.0	7.63961	7.17301	-8.87104	17.69936	21.95995	1.11013	0.90079	164.83677	149.96245	62.5898	0.3168	 	1.3672399999999998E14	 	2.67074E-14	 	17098.285	32.9248	 
470.0	1.0	0.0	7.64175	7.171	-8.89653	17.68372	21.89378	1.10605	0.90412	165.25812	150.17419	62.75977	0.31659	 	1.82097E14	 	1.99186E-14	 	16934.317	32.7936	 
465.0	1.0	0.0	7.64388	7.169	-8.92197	17.66809	21.8276	1.10194	0.90749	165.67829	150.38436	62.92934	0.31638	 	2.43475E14	 	1.47971E-14	 	16770.992	32.665	 
460.0	1.0	0.0	7.64602	7.167	-8.94738	17.65247	21.7614	1.0978	0.91091	166.09726	150.59297	63.09851	0.31617	 	3.26837E14	 	1.09484E-14	 	16608.3	32.5384	 
455.0	1.0	0.0	7.64815	7.165	-8.97273	17.63686	21.69519	1.09364	0.91438	166.51503	150.80003	63.26728	0.31596	 	4.40523E14	 	8.0675E-15	 	16446.23	32.414	 
450.0	1.0	0.0	7.65027	7.16301	-8.99805	17.62127	21.62896	1.08946	0.91789	166.93159	151.00551	63.43564	0.31576	 	5.96216E14	 	5.91986E-15	 	16284.771	32.2918	 
445.0	1.0	0.0	7.6524	7.16102	-9.02332	17.60569	21.56271	1.08525	0.92145	167.34693	151.20943	63.60359	0.31555	 	8.10353E14	 	4.32541E-15	 	16123.913	32.1716	 
440.0	1.0	0.0	7.65452	7.15903	-9.04855	17.59011	21.49644	1.08102	0.92506	167.76105	151.41178	63.77113	0.31534	 	1.10616E15	 	3.14666E-15	 	15963.646	32.0534	 
435.0	1.0	0.0	7.65664	7.15705	-9.07374	17.57455	21.43016	1.07676	0.92871	168.17393	151.61256	63.93826	0.31513	 	1.51661E15	 	2.27896E-15	 	15803.963	31.9366	 
430.0	1.0	0.0	7.65876	7.15507	-9.09888	17.55901	21.36386	1.07247	0.93243	168.58556	151.81177	64.10496	0.31492	 	2.08875E15	 	1.64304E-15	 	15644.853	31.822	 
425.0	1.0	0.0	7.66088	7.1531	-9.12398	17.54347	21.29755	1.06816	0.93619	168.99595	152.0094	64.27124	0.31471	 	2.88997E15	 	1.17908E-15	 	15486.309	31.7088	 
420.0	1.0	0.0	7.66299	7.15112	-9.14904	17.52794	21.23121	1.06382	0.94	169.40507	152.20545	64.4371	0.3145	 	4.01733E15	 	8.42124E-16	 	15328.322	31.5974	 
415.0	1.0	0.0	7.6651	7.14916	-9.17406	17.51243	21.16487	1.05946	0.94388	169.81293	152.39993	64.60252	0.31429	 	5.61133E15	 	5.98555E-16	 	15170.885	31.4874	 
410.0	1.0	0.0	7.66721	7.14719	-9.19903	17.49693	21.0985	1.05507	0.9478	170.21952	152.59282	64.76752	0.31408	 	7.87631E15	 	4.23331E-16	 	15013.989	31.3792	 
405.0	1.0	0.0	7.66931	7.14523	-9.22396	17.48144	21.03212	1.05066	0.95179	170.62482	152.78414	64.93208	0.31387	 	1.11111E16	 	2.97891E-16	 	14857.629	31.272	 
400.0	1.0	0.0	7.67142	7.14327	-9.24885	17.46596	20.96572	1.04621	0.95583	171.02883	152.97387	65.0962	0.31366	 	1.57548E16	 	2.08539E-16	 	14701.797	31.1664	 
395.0	1.0	0.0	7.67352	7.14131	-9.2737	17.45049	20.8993	1.04174	0.95993	171.43155	153.16202	65.25987	0.31345	 	2.24565E16	 	1.45217E-16	 	14546.486	31.0622	 
390.0	1.0	0.0	7.67562	7.13936	-9.2985	17.43504	20.83287	1.03724	0.96409	171.83296	153.34858	65.42311	0.31324	 	3.21808E16	 	1.00578E-16	 	14391.69	30.9592	 
385.0	1.0	0.0	7.67771	7.13741	-9.32326	17.41959	20.76642	1.03272	0.96832	172.23305	153.53356	65.58589	0.31303	 	4.63693E16	 	6.92757E-17	 	14237.402	30.8576	 
380.0	1.0	0.0	7.67981	7.13547	-9.34798	17.40416	20.69995	1.02816	0.97261	172.63183	153.71695	65.74823	0.31282	 	6.7188700000000008E16	 	4.74464E-17	 	14083.617	30.757	 
375.0	1.0	0.0	7.6819	7.13352	-9.37266	17.38874	20.63346	1.02358	0.97696	173.02928	153.89875	65.91011	0.31262	 	9.79152E16	 	3.23081E-17	 	13930.33	30.6574	 
370.0	1.0	0.0	7.68399	7.13158	-9.39729	17.37333	20.56695	1.01897	0.98139	173.4254	154.07896	66.07153	0.31241	 	1.43533E17	 	2.187E-17	 	13777.533	30.5594	 
365.0	1.0	0.0	7.68607	7.12965	-9.42188	17.35794	20.50043	1.01433	0.98588	173.82018	154.25758	66.2325	0.3122	 	2.11669E17	 	1.47147E-17	 	13625.223	30.462	 
360.0	1.0	0.0	7.68816	7.12772	-9.44643	17.34255	20.43389	1.00966	0.99044	174.21361	154.43461	66.393	0.31199	 	3.14075E17	 	9.83922E-18	 	13473.394	30.3658	 
355.0	1.0	0.0	7.69024	7.12579	-9.47094	17.32718	20.36732	1.00496	0.99507	174.60569	154.61005	66.55304	0.31178	 	4.68964E17	 	6.53749E-18	 	13322.04	30.2708	 
350.0	1.0	0.0	7.69232	7.12386	-9.4954	17.31182	20.30074	1.00023	0.99977	174.99641	154.78389	66.71262	0.31157	 	7.04762E17	 	4.31556E-18	 	13171.157	30.1766	 
345.0	1.0	0.0	7.69439	7.12194	-9.51983	17.29647	20.23414	0.99547	1.00455	175.38576	154.95615	66.87172	0.31136	 	1.06613E18	 	2.82989E-18	 	13020.741	30.0832	 
340.0	1.0	0.0	7.69647	7.12002	-9.54421	17.28113	20.16751	0.99068	1.00941	175.77374	155.12681	67.03035	0.31115	 	1.62373E18	 	1.84306E-18	 	12870.787	29.9908	 
335.0	1.0	0.0	7.69854	7.1181	-9.56855	17.2658	20.10087	0.98586	1.01435	176.16034	155.29588	67.1885	0.31094	 	2.49014E18	 	1.19199E-18	 	12721.291	29.8992	 
330.0	1.0	0.0	7.70061	7.11619	-9.59285	17.25048	20.03421	0.981	1.01936	176.54556	155.46335	67.34618	0.31073	 	3.84606E18	 	7.65413E-19	 	12572.247	29.8088	 
325.0	1.0	0.0	7.70267	7.11428	-9.6171	17.23518	19.96752	0.97612	1.02446	176.92939	155.62924	67.50337	0.31052	 	5.98366E18	 	4.87899E-19	 	12423.654	29.7186	 
320.0	1.0	0.0	7.70474	7.11238	-9.64132	17.21989	19.90081	0.97121	1.02965	177.31182	155.79353	67.66009	0.31031	 	9.37901E18	 	3.0867E-19	 	12275.505	29.6298	 
315.0	1.0	0.0	7.7068	7.11047	-9.66549	17.20461	19.83408	0.96626	1.03492	177.69285	155.95623	67.81632	0.3101	 	1.48138E19	 	1.93779E-19	 	12127.799	29.5412	 
310.0	1.0	0.0	7.70886	7.10857	-9.68962	17.18934	19.76733	0.96128	1.04028	178.07247	156.11735	67.97206	0.30989	 	2.35822E19	 	1.20693E-19	 	11980.53	29.4538	 
305.0	1.0	0.0	7.71091	7.10668	-9.71371	17.17408	19.70055	0.95627	1.04573	178.45069	156.27687	68.12731	0.30969	 	3.7844E19	 	7.45641E-20	 	11833.696	29.3668	 
300.0	1.0	0.0	7.71297	7.10479	-9.73776	17.15884	19.63375	0.95122	1.05128	178.82748	156.4348	68.28208	0.30948	 	6.12344E19	 	4.56835E-20	 	11687.294	29.2804	 
295.0	1.0	0.0	7.71502	7.1029	-9.76176	17.1436	19.56692	0.94615	1.05692	179.20286	156.59115	68.43635	0.30927	 	9.99251E19	 	2.77508E-20	 	11541.319	29.195	 
290.0	1.0	0.0	7.71707	7.10101	-9.78573	17.12838	19.50007	0.94103	1.06266	179.57681	156.74591	68.59012	0.30906	 	1.64487E20	 	1.67101E-20	 	11395.77	29.1098	 
285.0	1.0	0.0	7.71912	7.09913	-9.80965	17.11317	19.4332	0.93589	1.0685	179.94933	156.89909	68.7434	0.30885	 	2.7319399999999997E20	 	9.97165E-21	 	11250.642	29.0256	 
280.0	1.0	0.0	7.72116	7.09725	-9.83353	17.09797	19.3663	0.93071	1.07445	180.32042	157.05068	68.89618	0.30864	 	4.5792399999999993E20	 	5.89571E-21	 	11105.934	28.9416	 
275.0	1.0	0.0	7.7232	7.09537	-9.85737	17.08278	19.29937	0.92549	1.0805	180.69008	157.2007	69.04846	0.30843	 	7.748379999999999E20	 	3.45283E-21	 	10961.642	28.8584	 
270.0	1.0	0.0	7.72524	7.0935	-9.88117	17.06761	19.23242	0.92025	1.08667	181.05829	157.34914	69.20023	0.30822	 	1.32384E21	 	2.00249E-21	 	10817.763	28.7758	 
265.0	1.0	0.0	7.72728	7.09163	-9.90493	17.05244	19.16544	0.91496	1.09294	181.42507	157.496	69.35151	0.30801	 	2.28447E21	 	1.14976E-21	 	10674.296	28.6934	 
260.0	1.0	0.0	7.72931	7.08976	-9.92864	17.03729	19.09843	0.90964	1.09934	181.79039	157.64129	69.50228	0.3078	 	3.98272E21	 	6.53366E-22	 	10531.238	28.6116	 
255.0	1.0	0.0	7.73135	7.0879	-9.95232	17.02215	19.0314	0.90428	1.10585	182.15427	157.78501	69.65255	0.30759	 	7.01692E21	 	3.67365E-22	 	10388.586	28.5304	 
250.0	1.0	0.0	7.73338	7.08604	-9.97595	17.00702	18.96433	0.89889	1.11248	182.5167	157.92717	69.80231	0.30738	 	1.24973E22	 	2.04313E-22	 	10246.339	28.4494	 
245.0	1.0	0.0	7.7354	7.08418	-9.99954	16.9919	18.89724	0.89346	1.11924	182.87768	158.06776	69.95156	0.30717	 	2.2507399999999997E22	 	1.12361E-22	 	10104.495	28.3688	 
240.0	1.0	0.0	7.73743	7.08233	-10.0231	16.9768	18.83011	0.88799	1.12614	183.23721	158.2068	70.1003	0.30696	 	4.1002999999999995E22	 	6.10823E-23	 	9963.05	28.289	 
235.0	1.0	0.0	7.73945	7.08047	-10.04661	16.9617	18.76296	0.88249	1.13316	183.59528	158.34428	70.24854	0.30676	 	7.558449999999999E22	 	3.2813E-23	 	9822.005	28.209	 
230.0	1.0	0.0	7.74147	7.07863	-10.07008	16.94662	18.69578	0.87694	1.14032	183.95191	158.48022	70.39627	0.30655	 	1.41036E23	 	1.74122E-23	 	9681.357	28.1296	 
225.0	1.0	0.0	7.74349	7.07678	-10.09351	16.93155	18.62856	0.87136	1.14763	184.30707	158.61461	70.54349	0.30634	 	2.66482E23	 	9.12388E-24	 	9541.104	28.0506	 
220.0	1.0	0.0	7.7455	7.07494	-10.1169	16.91649	18.56131	0.86574	1.15508	184.66079	158.74746	70.6902	0.30613	 	5.1004499999999994E23	 	4.71908E-24	 	9401.246	27.9716	 
215.0	1.0	0.0	7.74752	7.0731	-10.14024	16.90144	18.49403	0.86008	1.16268	185.01305	158.87878	70.8364	0.30592	 	9.89297E23	 	2.40831E-24	 	9261.78	27.8932	 
210.0	1.0	0.0	7.74953	7.07127	-10.16355	16.88641	18.42671	0.85438	1.17044	185.36387	159.00858	70.98209	0.30571	 	1.94536E24	 	1.21218E-24	 	9122.706	27.8148	 
205.0	1.0	0.0	7.75153	7.06944	-10.18682	16.87138	18.35936	0.84864	1.17835	185.71323	159.13685	71.12727	0.3055	 	3.87988E24	 	6.01496E-25	 	8984.023	27.7366	 
200.0	1.0	0.0	7.75354	7.06761	-10.21004	16.85637	18.29197	0.84286	1.18644	186.06115	159.26361	71.27195	0.30529	 	7.85185E24	 	2.94112E-25	 	8845.73	27.6586	 
195.0	1.0	0.0	7.75554	7.06579	-10.23323	16.84137	18.22455	0.83704	1.19469	186.40763	159.38887	71.41612	0.30508	 	1.61312E25	 	1.41646E-25	 	8707.826	27.5808	 
190.0	1.0	0.0	7.75754	7.06396	-10.25637	16.82638	18.15709	0.83118	1.20311	186.75267	159.51263	71.55979	0.30487	 	3.366E25	 	6.71575E-26	 	8570.311	27.503	 
185.0	1.0	0.0	7.75954	7.06215	-10.27947	16.8114	18.0896	0.82527	1.21172	187.09628	159.63491	71.70295	0.30466	 	7.1373E25	 	3.133E-26	 	8433.184	27.4254	 
180.0	1.0	0.0	7.76153	7.06033	-10.30254	16.79644	18.02206	0.81932	1.22052	187.43846	159.75571	71.84561	0.30445	 	1.5387200000000002E26	 	1.43738E-26	 	8296.445	27.3478	 
175.0	1.0	0.0	7.76353	7.05852	-10.32556	16.78148	17.95449	0.81333	1.22951	187.77921	159.87504	71.98778	0.30424	 	3.3746400000000005E26	 	6.48161E-27	 	8160.093	27.2704	 
170.0	1.0	0.0	7.76552	7.05671	-10.34854	16.76654	17.88687	0.8073	1.2387	188.11856	159.99291	72.12944	0.30403	 	7.53345E26	 	2.87107E-27	 	8024.13	27.1926	 
165.0	1.0	0.0	7.7675	7.0549	-10.37148	16.75161	17.81922	0.80122	1.2481	188.45649	160.10934	72.27061	0.30383	 	1.71286E27	 	1.2485E-27	 	7888.554	27.1152	 
160.0	1.0	0.0	7.76949	7.0531	-10.39439	16.73669	17.75152	0.7951	1.25771	188.79303	160.22433	72.41129	0.30362	 	3.96902E27	 	5.32649E-28	 	7753.367	27.0374	 
155.0	1.0	0.0	7.77147	7.0513	-10.41725	16.72178	17.68378	0.78893	1.26754	189.12819	160.3379	72.55149	0.30341	 	9.379309999999999E27	 	2.22798E-28	 	7618.569	26.9596	 
150.0	1.0	0.0	7.77345	7.0495	-10.44007	16.70689	17.61599	0.78272	1.2776	189.46196	160.45007	72.6912	0.3032	 	2.26196E28	 	9.13052E-29	 	7484.16	26.8818	 
145.0	1.0	0.0	7.77543	7.04771	-10.46285	16.692	17.54816	0.77646	1.2879	189.79437	160.56084	72.83043	0.30299	 	5.57113E28	 	3.66333E-29	 	7350.143	26.8034	 
140.0	1.0	0.0	7.77741	7.04592	-10.48559	16.67713	17.48028	0.77015	1.29844	190.12543	160.67024	72.96919	0.30278	 	1.40241E29	 	1.43787E-29	 	7216.518	26.725	 
135.0	1.0	0.0	7.77938	7.04413	-10.50829	16.66227	17.41236	0.7638	1.30924	190.45515	160.77828	73.10748	0.30257	 	3.6110400000000005E29	 	5.51663E-30	 	7083.286	26.6464	 
130.0	1.0	0.0	7.78135	7.04235	-10.53095	16.64742	17.34438	0.7574	1.32031	190.78355	160.88498	73.2453	0.30236	 	9.5187E29	 	2.06717E-30	 	6950.45	26.5672	 
125.0	1.0	0.0	7.78332	7.04057	-10.55357	16.63258	17.27636	0.75095	1.33164	191.11065	160.99035	73.38268	0.30215	 	2.57096E30	 	7.55853E-31	 	6818.01	26.488	 
120.0	1.0	0.0	7.78528	7.03879	-10.57616	16.61776	17.20828	0.74446	1.34326	191.43647	161.09443	73.5196	0.30194	 	7.12181E30	 	2.69436E-31	 	6685.97	26.408	 
115.0	1.0	0.0	7.78725	7.03702	-10.5987	16.60294	17.14015	0.73791	1.35518	191.76102	161.19722	73.65608	0.30173	 	2.02528E31	 	9.35409E-32	 	6554.332	26.3276	 
110.0	1.0	0.0	7.78921	7.03525	-10.6212	16.58814	17.07196	0.73131	1.3674	192.08432	161.29875	73.79212	0.30152	 	5.91869E31	 	3.15958E-32	 	6423.098	26.2468	 
105.0	1.0	0.0	7.79116	7.03348	-10.64366	16.57335	17.00372	0.72467	1.37995	192.40641	161.39905	73.92774	0.30131	 	1.77944E32	 	1.03721E-32	 	6292.272	26.1652	 
100.0	1.0	0.0	7.79312	7.03171	-10.66608	16.55857	16.93542	0.71797	1.39282	192.72731	161.49813	74.06295	0.3011	 	5.51001E32	 	3.30535E-33	 	6161.856	26.0832	 
95.0	1.0	0.0	7.79507	7.02995	-10.68846	16.5438	16.86705	0.71122	1.40604	193.04705	161.59604	74.19776	0.3009	 	1.75936E33	 	1.02131E-33	 	6031.856	26.0	 
90.0	1.0	0.0	7.79702	7.02819	-10.71081	16.52904	16.79863	0.70442	1.41961	193.36565	161.6928	74.33217	0.30069	 	5.800190000000001E33	 	3.05584E-34	 	5902.274	25.9164	 
85.0	1.0	0.0	7.79897	7.02644	-10.73311	16.5143	16.73014	0.69756	1.43356	193.68315	161.78843	74.4662	0.30048	 	1.97695E34	 	8.84212E-35	 	5773.116	25.8316	 
80.0	1.0	0.0	7.80092	7.02469	-10.75537	16.49957	16.66158	0.69065	1.4479	193.99959	161.88298	74.59987	0.30027	 	6.97635E34	 	2.47069E-35	 	5644.386	25.746	 
75.0	1.0	0.0	7.80286	7.02294	-10.7776	16.48484	16.59296	0.68369	1.46265	194.31501	161.97648	74.73318	0.30006	 	2.55265E35	 	6.65675E-36	 	5516.089	25.6594	 
70.0	1.0	0.0	7.8048	7.02119	-10.79978	16.47014	16.52426	0.67667	1.47782	194.62944	162.06896	74.86616	0.29985	 	9.699989999999999E35	 	1.72663E-36	 	5388.232	25.5714	 
65.0	1.0	0.0	7.80674	7.01945	-10.82193	16.45544	16.45549	0.6696	1.49343	194.94293	162.16047	74.99882	0.29964	 	3.8344E36	 	4.30426E-37	 	5260.821	25.4822	 
60.0	1.0	0.0	7.80867	7.01771	-10.84403	16.44075	16.38665	0.66247	1.5095	195.25553	162.25105	75.13119	0.29943	 	1.5795799999999998E37	 	1.0294E-37	 	5133.862	25.3918	 
55.0	1.0	0.0	7.81061	7.01597	-10.8661	16.42608	16.31772	0.65529	1.52605	195.56729	162.34074	75.26327	0.29922	 	6.793929999999999E37	 	2.35743E-38	 	5007.364	25.2996	 
50.0	1.0	0.0	7.81254	7.01424	-10.88813	16.41141	16.24872	0.64804	1.54311	195.87827	162.4296	75.39509	0.29901	 	3.05709E38	 	5.15921E-39	 	4881.334	25.206	 
45.0	1.0	0.0	7.81447	7.01251	-10.91011	16.39676	16.17963	0.64074	1.5607	196.18853	162.51768	75.52667	0.2988	 	1.4422E39	 	1.0767E-39	 	4755.781	25.1106	 
40.0	1.0	0.0	7.81639	7.01078	-10.93206	16.38212	16.11045	0.63338	1.57884	196.49813	162.60503	75.65805	0.29859	 	7.149200000000001E39	 	2.13787E-40	 	4630.714	25.0134	 
35.0	1.0	0.0	7.81831	7.00905	-10.95397	16.36749	16.04117	0.62596	1.59756	196.80714	162.69172	75.78924	0.29838	 	3.73294E40	 	4.02901E-41	 	4506.144	24.914	 
30.0	1.0	0.0	7.82024	7.00733	-10.97584	16.35288	15.9718	0.61847	1.61688	197.11564	162.7778	75.92028	0.29818	 	2.0583600000000002E41	 	7.18824E-42	 	4382.082	24.8124	 
25.0	1.0	0.0	7.82215	7.00561	-10.99768	 	15.90234	0.61093	1.63685	197.42372	162.86336	76.0512	0.29797	 	1.20188E42	 	1.21076E-42	 	4258.54	 	 
