T (C)	Fraction solid (wt)-TOTAL	Fraction liquid (wt)-LIQUID	Density (g/(cm)^3)-TOTAL	Molar volume (cm^3)-TOTAL	Volume change (%)-  	Average expansion coeff. (10e-6 1/K)-  	Thermal conductivity (W/(m*K))-TOTAL	Electrical resistivity (10e-6 Ohm*m)-TOTAL	Electrical conductivity (10e6 1/(Ohm*m))-TOTAL	Young's modulus (GPa)-TOTAL	Bulk modulus (GPa)-TOTAL	Shear modulus(GPa)-TOTAL	Poisson's ratio-TOTAL	Liquid viscosity (mPa s)-  	Total viscosity (mPa s)-  	Liquid diffusivity (10e-9 (m^2)/s)-  	Total diffusivity (10e-9 (m^2)/s)-  	Surface Tension (mN/m)-  	Enthalpy (J/mole)-TOTAL	Specific heat (J/(mole K))-TOTAL	Latent heat (J/mole)-TOTAL
700.0	0.0	1.0	2.38116	11.35086	0.0	66.93452	91.21842	0.26137	3.82593	0.0	50.40711	0.0	0.5	1.2006	1.2006	3.95612	3.95612	839.30745	30012.743	 	0.0
698.23	0.0	1.0	2.38174	11.34808	-0.0244428	66.9731	91.15942	0.26107	3.83042	0.0	50.4292	0.0	0.5	1.20508	1.20508	3.93423	3.93423	839.8112	29956.555	31.7398	0.0
695.0	8.0E-5	0.99992	2.38282	11.343	-0.0692645	67.04272	91.05292	0.2605	3.83871	1.54393E-15	50.46957	5.1465E-16	0.49998	1.21325	1.21325	3.89474	3.89474	840.72338	29852.164	32.3219	1.882
690.0	2.1E-4	0.99979	2.38448	11.33504	-0.13939	67.14766	90.8871	0.25963	3.85161	5.81697E-14	50.53163	1.93905E-14	0.49995	1.22613	1.22613	3.83392	3.83392	842.13446	29690.694	32.294	4.651
685.0	3.3E-4	0.99967	2.38613	11.32724	-0.2081	67.26228	90.72224	0.25875	3.86469	3.47027E-13	50.59431	1.15681E-13	0.49993	1.23929	1.23929	3.77352	3.77352	843.54225	29529.389	32.261	7.256
680.0	4.4E-4	0.99956	2.38778	11.31937	-0.27739	67.37534	90.55652	0.25787	3.87786	1.11753E-12	50.65662	3.72534E-13	0.4999	1.25274	1.25274	3.71352	3.71352	844.94679	29368.241	32.2296	9.706
675.0	5.4E-4	0.99946	2.38943	11.31155	-0.34628	67.49244	90.39085	0.25699	3.89118	2.63208E-12	50.71903	8.77433E-13	0.49988	1.26649	1.26649	3.65394	3.65394	846.34775	29207.243	32.1996	12.005
670.0	6.4E-4	0.99936	2.39108	11.30378	-0.41477	67.61367	90.22522	0.25611	3.90464	5.12787E-12	50.78155	1.70946E-12	0.49985	1.28055	1.28055	3.59478	3.59478	847.74496	29046.388	32.171	14.162
665.0	7.3E-4	0.99927	2.39272	11.29605	-0.48288	67.7391	90.05964	0.25522	3.91825	8.79352E-12	50.84417	2.9315E-12	0.49983	1.29492	1.29492	3.53604	3.53604	849.13825	28885.669	32.1438	16.184
660.0	8.1E-4	0.99919	2.39435	11.28836	-0.55061	67.86877	89.89409	0.25432	3.932	1.37604E-11	50.90688	4.58737E-12	0.49982	1.30961	1.30961	3.47773	3.47773	850.52744	28725.07	32.1198	18.074
659.41	8.2E-4	0.99918	2.39454	11.28743	-0.55884	67.88297	89.87433	0.25422	3.93363	1.4437E-11	50.91417	4.81293E-12	0.49981	1.31137	1.31256	3.47085	3.46772	850.69171	28706.072	 	18.298
659.41	8.2E-4	0.99918	2.39454	11.28743	-0.55884	67.88297	89.87433	0.25422	3.93363	1.4437E-11	50.91417	4.81293E-12	0.49981	1.31137	1.31256	3.47085	3.46772	850.69169	28706.073	 	18.297
655.0	0.75222	0.24778	2.51927	10.72845	-5.48335	38.77072	158.2452	0.1437	6.95899	11.52745	52.63758	4.08527	0.41085	1.34259	897.1282	3.37414	0.00504952	830.14496	20542.37	1636.54	8042.27
650.0	0.88192	0.11808	2.54312	10.62751	-6.37259	33.69544	180.86938	0.12505	7.99699	22.7521	53.13831	8.1597	0.39418	1.38395	1858.96715	3.25565	0.00242375	816.96202	19013.226	305.829	9413.254
645.0	0.92549	0.0745132	2.55203	10.59008	-6.70238	31.9538	189.56221	0.11867	8.42698	28.14087	53.44873	10.13566	0.38821	1.42762	2478.33557	3.13898	0.00180817	808.25791	18391.876	124.27	9876.788
644.08	0.9304	0.0695976	2.55312	10.58548	-6.7429	31.7535	190.59723	0.1179	8.48149	28.82273	53.49883	10.38654	0.3875	1.43581	2576.24446	3.11794	0.00173771	806.9737	18310.035	 	9929.641
640.0	0.95459	0.0454089	2.55846	10.56323	-6.93896	30.75748	195.58854	0.11438	8.74249	32.34664	53.71449	11.68637	0.38395	1.46128	3084.53738	3.04997	0.0014449	800.52102	17918.008	94.7736	10193.183
635.0	0.96987	0.0301292	2.56247	10.54655	-7.08585	30.0981	198.98463	0.11182	8.94326	34.87112	53.9521	12.62094	0.38148	1.49243	3619.70973	2.96996	0.00122453	795.17947	17590.499	65.5018	10363.564
630.0	0.97847	0.0215313	2.56529	10.53482	-7.18924	29.70001	201.08723	0.11004	9.0878	36.47782	54.1766	13.21758	0.3799	1.52402	4135.28376	2.89238	0.00106596	791.46545	17334.309	51.238	10462.97
628.51	0.98033	0.0196748	2.566	10.53184	-7.21548	29.60888	201.57644	0.10959	9.12498	36.85491	54.24208	13.35787	0.37952	1.53355	4291.2576	2.86966	0.00102552	790.53905	17265.476	 	10485.094
625.05	0.99143	0.00857309	2.56879	10.52021	-7.31791	29.13339	204.03558	0.10785	9.27186	38.87368	54.37459	14.10904	0.37762	1.5662	4805.62484	2.79907	9.12241E-4	784.13592	17024.337	 	10618.052
625.05	0.99143	0.00857309	2.56879	10.52021	-7.31791	29.13339	204.03558	0.10785	9.27186	38.87368	54.37459	14.10904	0.37762	1.5662	4805.62484	2.79907	9.12241E-4	784.13593	17024.338	 	10618.052
625.0	0.99153	0.00846972	2.56882	10.52009	-7.31902	29.12881	204.05992	0.10783	9.27348	38.89394	54.37657	14.11659	0.3776	1.56659	4812.37353	2.79821	9.10912E-4	784.05497	17021.514	62.559	10619.325
620.0	0.99753	0.00247317	2.57108	10.51064	-7.40223	28.84421	205.63974	0.10641	9.39759	40.19961	54.57905	14.60425	0.3763	1.60499	5448.7629	2.71606	8.00043E-4	779.431	16788.92	46.5188	10695.823
615.0	1.0	0.0	2.57274	10.50373	-7.46311	28.69808	206.53447	0.10536	9.49162	40.91704	54.78324	14.87332	0.37552	 	6090.5124	 	7.11736E-4	 	16597.404	38.3032	10731.587
610.0	1.0	0.0	2.57403	10.49845	-7.50961	28.64249	206.9185	0.10457	9.5631	41.20777	54.98546	14.98361	0.37509	 	6749.56472	 	6.38624E-4	 	16340.926	51.2956	 
605.0	1.0	0.0	2.57532	10.49319	-7.55596	28.58693	207.30141	0.10378	9.63535	41.49739	55.18572	15.09354	0.37467	 	7488.6897	 	5.72334E-4	 	16178.09	32.5672	 
600.0	1.0	0.0	2.57661	10.48795	-7.60216	28.5314	207.68317	0.103	9.70837	41.7859	55.38406	15.20312	0.37425	 	8318.64843	 	5.12298E-4	 	16015.857	32.4466	 
595.0	1.0	0.0	2.57789	10.48272	-7.6482	28.47591	208.06377	0.10223	9.78218	42.07331	55.58051	15.31234	0.37384	 	9251.78433	 	4.5799E-4	 	15854.216	32.3282	 
590.0	1.0	0.0	2.57917	10.47751	-7.6941	28.42044	208.44318	0.10145	9.85679	42.35961	55.77509	15.4212	0.37342	 	10302.27559	 	4.08921E-4	 	15693.161	32.211	 
585.0	1.0	0.0	2.58045	10.47232	-7.73984	28.36502	208.82139	0.10068	9.93221	42.64482	55.96783	15.5297	0.37301	 	11486.43104	 	3.6464E-4	 	15532.682	32.0958	 
580.0	1.0	0.0	2.58173	10.46714	-7.78543	28.30962	209.19838	0.0999156	10.00845	42.92891	56.15876	15.63785	0.3726	 	12823.03739	 	3.24729E-4	 	15372.772	31.982	 
575.0	1.0	0.0	2.583	10.46199	-7.83087	28.25425	209.57413	0.0991519	10.08553	43.2119	56.3479	15.74563	0.37219	 	14333.76749	 	2.88801E-4	 	15213.421	31.8702	 
570.0	1.0	0.0	2.58427	10.45685	-7.87616	28.19892	209.94861	0.0983916	10.16347	43.49379	56.53529	15.85305	0.37178	 	16043.66104	 	2.565E-4	 	15054.622	31.7598	 
565.0	1.0	0.0	2.58554	10.45172	-7.9213	28.14362	210.32182	0.0976345	10.24228	43.77458	56.72094	15.96011	0.37137	 	17981.6915	 	2.27498E-4	 	14896.365	31.6514	 
560.0	1.0	0.0	2.5868	10.44662	-7.96629	28.08836	210.69372	0.0968808	10.32196	44.05426	56.90488	16.06681	0.37097	 	20181.4359	 	2.01492E-4	 	14738.643	31.5444	 
555.0	1.0	0.0	2.58806	10.44153	-8.01113	28.03313	211.06429	0.0961303	10.40255	44.33283	57.08714	16.17314	0.37057	 	22681.86732	 	1.78204E-4	 	14581.447	31.4392	 
550.0	1.0	0.0	2.58932	10.43645	-8.05581	27.97792	211.43351	0.0953831	10.48404	44.6103	57.26774	16.27911	0.37017	 	25528.29443	 	1.57378E-4	 	14424.769	31.3356	 
545.0	1.0	0.0	2.59058	10.4314	-8.10035	27.92276	211.80137	0.094639	10.56647	44.88667	57.4467	16.38471	0.36977	 	28773.47694	 	1.3878E-4	 	14268.6	31.2338	 
540.0	1.0	0.0	2.59183	10.42636	-8.14474	27.86762	212.16783	0.0938982	10.64983	45.16193	57.62405	16.48995	0.36938	 	32478.95257	 	1.22196E-4	 	14112.932	31.1336	 
535.0	1.0	0.0	2.59308	10.42134	-8.18897	27.81252	212.53287	0.0931605	10.73416	45.43609	57.79981	16.59482	0.36898	 	36716.61828	 	1.07428E-4	 	13957.757	31.035	 
530.0	1.0	0.0	2.59432	10.41634	-8.23306	27.75745	212.89647	0.092426	10.81946	45.70914	57.974	16.69932	0.36859	 	41570.61801	 	9.42968E-5	 	13803.066	30.9382	 
525.0	1.0	0.0	2.59556	10.41135	-8.27699	27.70241	213.2586	0.0916947	10.90576	45.98109	58.14664	16.80345	0.3682	 	47139.60048	 	8.26391E-5	 	13648.85	30.8432	 
520.0	1.0	0.0	2.5968	10.40638	-8.32078	27.64741	213.61924	0.0909664	10.99307	46.25194	58.31776	16.90722	0.36782	 	53539.42479	 	7.2305E-5	 	13495.102	30.7496	 
515.0	1.0	0.0	2.59804	10.40142	-8.36442	27.59244	213.97835	0.0902413	11.08141	46.52168	58.48737	17.01061	0.36743	 	60906.40876	 	6.31586E-5	 	13341.814	30.6576	 
510.0	1.0	0.0	2.59927	10.39649	-8.40791	27.5375	214.33592	0.0895192	11.17079	46.79031	58.65551	17.11364	0.36705	 	69401.23661	 	5.50763E-5	 	13188.976	30.5676	 
505.0	1.0	0.0	2.60051	10.39157	-8.45124	27.48259	214.69192	0.0888002	11.26124	47.05785	58.82218	17.21629	0.36667	 	79213.66921	 	4.79457E-5	 	13036.58	30.4792	 
500.0	1.0	0.0	2.60173	10.38667	-8.49443	27.42772	215.04631	0.0880842	11.35278	47.32428	58.9874	17.31857	0.36629	 	90568.23311	 	4.16653E-5	 	12884.619	30.3922	 
495.0	1.0	0.0	2.60296	10.38178	-8.53747	27.37288	215.39907	0.0873712	11.44542	47.5896	59.15121	17.42048	0.36591	 	103731.1061	 	3.6143E-5	 	12733.083	30.3072	 
490.0	1.0	0.0	2.60418	10.37691	-8.58037	27.31807	215.75017	0.0866612	11.53919	47.85382	59.31361	17.52201	0.36553	 	119018.4685	 	3.12955E-5	 	12581.965	30.2236	 
485.0	1.0	0.0	2.6054	10.37206	-8.62311	27.26329	216.09957	0.0859542	11.6341	48.11693	59.47462	17.62317	0.36516	 	136806.6537	 	2.7048E-5	 	12431.257	30.1416	 
480.0	1.0	0.0	2.60661	10.36723	-8.6657	27.20855	216.44725	0.0852502	11.73018	48.37895	59.63427	17.72395	0.36479	 	157544.5125	 	2.33327E-5	 	12280.949	30.0616	 
475.0	1.0	0.0	2.60782	10.36241	-8.70815	27.15384	216.79317	0.0845491	11.82744	48.63985	59.79258	17.82436	0.36442	 	181768.5082	 	2.00889E-5	 	12131.034	29.983	 
470.0	1.0	0.0	2.60903	10.35761	-8.75044	27.09916	217.13731	0.083851	11.92592	48.89965	59.94955	17.92439	0.36405	 	210121.1862	 	1.72621E-5	 	11981.503	29.9062	 
465.0	1.0	0.0	2.61024	10.35282	-8.79259	27.04452	217.47962	0.0831557	12.02563	49.15835	60.10521	18.02405	0.36369	 	243373.8257	 	1.48033E-5	 	11832.348	29.831	 
460.0	1.0	0.0	2.61144	10.34806	-8.83459	26.98991	217.82007	0.0824634	12.1266	49.41595	60.25958	18.12332	0.36332	 	282454.2842	 	1.26687E-5	 	11683.562	29.7572	 
455.0	1.0	0.0	2.61264	10.34331	-8.87645	26.93533	218.15863	0.0817739	12.22885	49.67244	60.41267	18.22222	0.36296	 	328481.3101	 	1.08192E-5	 	11535.135	29.6854	 
450.0	1.0	0.0	2.61384	10.33857	-8.91815	26.88078	218.49525	0.0810872	12.3324	49.92782	60.56449	18.32074	0.3626	 	382806.925	 	9.22009E-6	 	11387.059	29.6152	 
445.0	1.0	0.0	2.61503	10.33385	-8.95971	26.82627	218.82991	0.0804034	12.43728	50.1821	60.71508	18.41887	0.36225	 	447068.9081	 	7.8402E-6	 	11239.326	29.5466	 
440.0	1.0	0.0	2.61622	10.32915	-9.00112	26.77179	219.16256	0.0797224	12.54352	50.43528	60.86443	18.51663	0.36189	 	523255.9524	 	6.65202E-6	 	11091.929	29.4794	 
435.0	1.0	0.0	2.61741	10.32447	-9.04238	26.71734	219.49316	0.0790443	12.65114	50.68735	61.01258	18.614	0.36154	 	613788.7628	 	5.6311E-6	 	10944.858	29.4142	 
430.0	1.0	0.0	2.61859	10.3198	-9.0835	26.66292	219.82168	0.0783689	12.76017	50.93832	61.15952	18.71099	0.36119	 	721621.2629	 	4.75582E-6	 	10798.106	29.3504	 
425.0	1.0	0.0	2.61977	10.31515	-9.12446	26.60854	220.14806	0.0776962	12.87064	51.18819	61.30529	18.8076	0.36084	 	850367.2363	 	4.00709E-6	 	10651.666	29.288	 
420.0	1.0	0.0	2.62095	10.31052	-9.16528	26.55419	220.47227	0.0770264	12.98257	51.43695	61.44989	18.90382	0.36049	 	1004459.229	 	3.36807E-6	 	10505.527	29.2278	 
415.0	1.0	0.0	2.62212	10.3059	-9.20596	26.49987	220.79426	0.0763592	13.096	51.6846	61.59334	18.99966	0.36015	 	1189348.491	 	2.82397E-6	 	10359.687	29.168	 
410.0	1.0	0.0	2.62329	10.3013	-9.24648	26.44559	221.11398	0.0756948	13.21095	51.93116	61.73565	19.09511	0.3598	 	1411757.272	 	2.3618E-6	 	10214.145	29.1084	 
405.0	1.0	0.0	2.62446	10.29672	-9.28686	26.39133	221.43139	0.0750331	13.32746	52.1766	61.87684	19.19018	0.35946	 	1679998.113	 	1.97017E-6	 	10068.9	29.049	 
400.0	1.0	0.0	2.62562	10.29215	-9.3271	26.33711	221.74644	0.074374	13.44555	52.42095	62.01693	19.28486	0.35912	 	2004379.127	 	1.63915E-6	 	9923.951	28.9898	 
395.0	1.0	0.0	2.62679	10.2876	-9.36718	26.28293	222.05908	0.0737177	13.56527	52.66418	62.15592	19.37915	0.35878	 	2397719.978	 	1.36007E-6	 	9779.298	28.9306	 
390.0	1.0	0.0	2.62794	10.28307	-9.40712	26.22877	222.36926	0.0730639	13.68664	52.90632	62.29383	19.47305	0.35845	 	2876010.858	 	1.1254E-6	 	9634.94	28.8716	 
385.0	1.0	0.0	2.6291	10.27855	-9.44692	26.17465	222.67692	0.0724129	13.8097	53.14735	62.43067	19.56657	0.35812	 	3459256.728	 	9.286E-7	 	9490.876	28.8128	 
380.0	1.0	0.0	2.63025	10.27405	-9.48657	26.12056	222.98202	0.0717644	13.93448	53.38728	62.56646	19.65969	0.35779	 	4172562.442	 	7.64006E-7	 	9347.105	28.7542	 
375.0	1.0	0.0	2.6314	10.26957	-9.52607	26.06651	223.28448	0.0711186	14.06102	53.6261	62.70121	19.75243	0.35746	 	5047532.062	 	6.26734E-7	 	9203.627	28.6956	 
370.0	1.0	0.0	2.63254	10.2651	-9.56543	26.01248	223.58426	0.0704753	14.18936	53.86382	62.83493	19.84477	0.35713	 	6124079.463	 	5.12576E-7	 	9060.441	28.6372	 
365.0	1.0	0.0	2.63369	10.26065	-9.60464	25.95849	223.8813	0.0698347	14.31954	54.10043	62.96764	19.93672	0.3568	 	7452779.178	 	4.17918E-7	 	8917.546	28.579	 
360.0	1.0	0.0	2.63482	10.25622	-9.6437	25.90454	224.17553	0.0691966	14.45159	54.33594	63.09934	20.02828	0.35648	 	9097929.465	 	3.39665E-7	 	8774.942	28.5208	 
355.0	1.0	0.0	2.63596	10.2518	-9.68262	25.85061	224.46689	0.068561	14.58555	54.57034	63.23006	20.11944	0.35616	 	1.114155776E7	 	2.75172E-7	 	8632.627	28.463	 
350.0	1.0	0.0	2.63709	10.2474	-9.7214	25.79672	224.75531	0.067928	14.72147	54.80364	63.35979	20.21022	0.35584	 	1.368867777E7	 	2.22187E-7	 	8490.602	28.405	 
345.0	1.0	0.0	2.63822	10.24301	-9.76003	25.74286	225.04073	0.0672975	14.8594	55.03584	63.48856	20.30059	0.35552	 	1.687421538E7	 	1.78796E-7	 	8348.866	28.3472	 
340.0	1.0	0.0	2.63935	10.23864	-9.79851	25.68903	225.32307	0.0666695	14.99936	55.26693	63.61638	20.39058	0.35521	 	2.087216818E7	 	1.43379E-7	 	8207.418	28.2896	 
335.0	1.0	0.0	2.64047	10.23429	-9.83685	25.63524	225.60227	0.066044	15.14142	55.49692	63.74325	20.48016	0.35489	 	2.590776707E7	 	1.14569E-7	 	8066.258	28.232	 
330.0	1.0	0.0	2.64159	10.22996	-9.87505	25.58147	225.87825	0.065421	15.28562	55.7258	63.8692	20.56935	0.35458	 	3.22736887E7	 	9.12144E-8	 	7925.385	28.1746	 
325.0	1.0	0.0	2.6427	10.22564	-9.9131	25.52774	226.15093	0.0648004	15.432	55.95358	63.99422	20.65814	0.35427	 	4.035175764E7	 	7.23493E-8	 	7784.798	28.1174	 
320.0	1.0	0.0	2.64382	10.22133	-9.951	25.47405	226.42023	0.0641823	15.58062	56.18026	64.11833	20.74654	0.35397	 	5.064211995E7	 	5.71662E-8	 	7644.498	28.06	 
315.0	1.0	0.0	2.64493	10.21705	-9.98876	25.42038	226.68607	0.0635667	15.73152	56.40583	64.24155	20.83453	0.35366	 	6.380263014E7	 	4.49921E-8	 	7504.484	28.0028	 
310.0	1.0	0.0	2.64603	10.21278	-10.02638	25.36675	226.94837	0.0629534	15.88476	56.6303	64.36387	20.92213	0.35336	 	8.07022631E7	 	3.5268E-8	 	7364.755	27.9458	 
305.0	1.0	0.0	2.64713	10.20852	-10.06386	25.31316	227.20703	0.0623426	16.0404	56.85366	64.48532	21.00932	0.35306	 	1.024938739E8	 	2.75315E-8	 	7225.311	27.8888	 
300.0	1.0	0.0	2.64823	10.20429	-10.10118	25.25959	227.46196	0.0617342	16.19849	57.07592	64.6059	21.09612	0.35276	 	1.307137759E8	 	2.1401E-8	 	7086.151	27.832	 
295.0	1.0	0.0	2.64933	10.20007	-10.13837	25.20606	227.71308	0.0611281	16.35908	57.29707	64.72563	21.18251	0.35246	 	1.674186705E8	 	1.65633E-8	 	6947.276	27.775	 
290.0	1.0	0.0	2.65042	10.19586	-10.17541	25.15256	227.96028	0.0605245	16.52224	57.51712	64.84451	21.2685	0.35217	 	2.153748622E8	 	1.27619E-8	 	6808.685	27.7182	 
285.0	1.0	0.0	2.65151	10.19167	-10.21231	25.09909	228.20346	0.0599232	16.68804	57.73607	64.96255	21.35409	0.35187	 	2.783210305E8	 	9.78795E-9	 	6670.378	27.6614	 
280.0	1.0	0.0	2.6526	10.1875	-10.24906	25.04565	228.44252	0.0593242	16.85652	57.95391	65.07976	21.43928	0.35158	 	3.613350324E8	 	7.4717E-9	 	6532.355	27.6046	 
275.0	1.0	0.0	2.65368	10.18335	-10.28568	24.99225	228.67734	0.0587276	17.02776	58.17065	65.19616	21.52406	0.35129	 	4.713486162E8	 	5.67602E-9	 	6394.616	27.5478	 
270.0	1.0	0.0	2.65476	10.17921	-10.32214	24.93888	228.90782	0.0581333	17.20183	58.38628	65.31175	21.60844	0.35101	 	6.178735989E8	 	4.29049E-9	 	6257.159	27.4914	 
265.0	1.0	0.0	2.65583	10.17508	-10.35847	24.88555	229.13384	0.0575414	17.3788	58.60081	65.42654	21.69242	0.35072	 	8.140320678E8	 	3.22663E-9	 	6119.987	27.4344	 
260.0	1.0	0.0	2.65691	10.17098	-10.39465	24.83224	229.35528	0.0569517	17.55874	58.81423	65.54054	21.77598	0.35044	 	1.078026212E9	 	2.41383E-9	 	5983.097	27.378	 
255.0	1.0	0.0	2.65798	10.16689	-10.43069	24.77897	229.572	0.0563643	17.74171	59.02655	65.65376	21.85914	0.35016	 	1.435247659E9	 	1.79604E-9	 	5846.491	27.3212	 
250.0	1.0	0.0	2.65904	10.16281	-10.46659	24.72573	229.78389	0.0557793	17.92781	59.23777	65.76621	21.9419	0.34988	 	1.921322717E9	 	1.32896E-9	 	5710.169	27.2644	 
245.0	1.0	0.0	2.6601	10.15875	-10.50234	24.67253	229.9908	0.0551964	18.11711	59.44788	65.8779	22.02424	0.3496	 	2.58653592E9	 	9.77741E-10	 	5574.13	27.2078	 
240.0	1.0	0.0	2.66116	10.15471	-10.53795	24.61935	230.1926	0.0546159	18.30969	59.65689	65.98883	22.10618	0.34933	 	3.502296407E9	 	7.15119E-10	 	5438.375	27.151	 
235.0	1.0	0.0	2.66222	10.15068	-10.57342	24.56621	230.38913	0.0540376	18.50563	59.86479	66.09901	22.18771	0.34905	 	4.770652094E9	 	5.19877E-10	 	5302.904	27.0942	 
230.0	1.0	0.0	2.66327	10.14667	-10.60875	24.5131	230.58025	0.0534615	18.70504	60.07159	66.20846	22.26883	0.34878	 	6.538381911E9	 	3.7559E-10	 	5167.718	27.0372	 
225.0	1.0	0.0	2.66432	10.14268	-10.64393	24.46003	230.7658	0.0528877	18.90798	60.27728	66.31718	22.34954	0.34851	 	9.018012667E9	 	2.6961E-10	 	5032.816	26.9804	 
220.0	1.0	0.0	2.66536	10.1387	-10.67898	24.40699	230.94561	0.0523161	19.11457	60.48188	66.42518	22.42984	0.34825	 	1.2519399999999998E10	 	1.92257E-10	 	4898.2	26.9232	 
215.0	1.0	0.0	2.66641	10.13474	-10.71388	24.35398	231.11952	0.0517467	19.3249	60.68536	66.53247	22.50973	0.34798	 	1.74974E10	 	1.36165E-10	 	4763.87	26.866	 
210.0	1.0	0.0	2.66744	10.1308	-10.74864	24.301	231.28733	0.0511795	19.53907	60.88774	66.63905	22.58921	0.34772	 	2.4624899999999996E10	 	9.57624E-11	 	4629.826	26.8088	 
205.0	1.0	0.0	2.66848	10.12687	-10.78326	24.24806	231.44888	0.0506145	19.75717	61.08902	66.74494	22.66827	0.34746	 	3.49042E10	 	6.68611E-11	 	4496.069	26.7514	 
200.0	1.0	0.0	2.66951	10.12295	-10.81773	24.19514	231.60395	0.0500517	19.97934	61.2892	66.85014	22.74692	0.3472	 	4.984059999999999E10	 	4.63343E-11	 	4362.6	26.6938	 
195.0	1.0	0.0	2.67054	10.11906	-10.85207	24.14227	231.75236	0.0494911	20.20566	61.48827	66.95465	22.82516	0.34694	 	7.17122E10	 	3.18624E-11	 	4229.419	26.6362	 
190.0	1.0	0.0	2.67156	10.11517	-10.88626	24.08942	231.8939	0.0489326	20.43627	61.68623	67.05849	22.90298	0.34669	 	1.03996E11	 	2.17367E-11	 	4096.529	26.578	 
185.0	1.0	0.0	2.67258	10.11131	-10.92032	24.0366	232.02833	0.0483763	20.67127	61.8831	67.16167	22.98039	0.34643	 	1.52041E11	 	1.47073E-11	 	3963.929	26.52	 
180.0	1.0	0.0	2.6736	10.10746	-10.95423	23.98382	232.15543	0.0478222	20.91081	62.07885	67.26418	23.05739	0.34618	 	2.24154E11	 	9.86695E-12	 	3831.621	26.4616	 
175.0	1.0	0.0	2.67462	10.10363	-10.988	23.93108	232.27497	0.0472702	21.155	62.27351	67.36605	23.13396	0.34593	 	3.33344E11	 	6.56171E-12	 	3699.606	26.403	 
170.0	1.0	0.0	2.67563	10.09981	-11.02163	23.87836	232.38669	0.0467203	21.40397	62.46706	67.46727	23.21012	0.34569	 	5.00183E11	 	4.32423E-12	 	3567.886	26.344	 
165.0	1.0	0.0	2.67664	10.09601	-11.05512	23.82568	232.49033	0.0461726	21.65788	62.6595	67.56785	23.28587	0.34544	 	7.57508E11	 	2.82307E-12	 	3436.462	26.2848	 
160.0	1.0	0.0	2.67764	10.09222	-11.08847	23.77303	232.58562	0.045627	21.91687	62.85084	67.6678	23.36119	0.3452	 	1.15826E12	 	1.82523E-12	 	3305.336	26.2252	 
155.0	1.0	0.0	2.67864	10.08845	-11.12168	23.72041	232.67226	0.0450835	22.18107	63.04108	67.76713	23.4361	0.34496	 	1.78869E12	 	1.16828E-12	 	3174.509	26.1654	 
150.0	1.0	0.0	2.67964	10.0847	-11.15475	23.66783	232.74997	0.0445421	22.45066	63.23022	67.86584	23.51059	0.34472	 	2.79076E12	 	7.40046E-13	 	3043.983	26.1052	 
145.0	1.0	0.0	2.68063	10.08096	-11.18768	23.61527	232.81842	0.0440029	22.7258	63.41825	67.96394	23.58466	0.34448	 	4.40078E12	 	4.63756E-13	 	2913.761	26.0444	 
140.0	1.0	0.0	2.68162	10.07724	-11.22047	23.56276	232.87728	0.0434657	23.00664	63.60517	68.06144	23.65831	0.34425	 	7.01657E12	 	2.87389E-13	 	2783.845	25.9832	 
135.0	1.0	0.0	2.68261	10.07353	-11.25313	23.51027	232.92622	0.0429307	23.29338	63.79099	68.15834	23.73154	0.34401	 	1.13158E13	 	1.76045E-13	 	2654.237	25.9216	 
130.0	1.0	0.0	2.68359	10.06984	-11.28564	23.45781	232.96486	0.0423977	23.58618	63.97571	68.25465	23.80435	0.34378	 	1.84668E13	 	1.06552E-13	 	2524.939	25.8596	 
125.0	1.0	0.0	2.68457	10.06617	-11.31801	23.40539	232.99283	0.0418668	23.88525	64.15933	68.35037	23.87674	0.34355	 	3.05099E13	 	6.36931E-14	 	2395.955	25.7968	 
120.0	1.0	0.0	2.68555	10.06251	-11.35024	23.353	233.00972	0.0413381	24.19077	64.34184	68.44552	23.94871	0.34333	 	5.10549E13	 	3.75844E-14	 	2267.288	25.7334	 
115.0	1.0	0.0	2.68652	10.05887	-11.38233	23.30065	233.01512	0.0408114	24.50295	64.52324	68.5401	24.02025	0.3431	 	8.65753E13	 	2.18823E-14	 	2138.94	25.6696	 
110.0	1.0	0.0	2.68749	10.05524	-11.41429	23.24832	233.00857	0.0402868	24.82201	64.70355	68.6341	24.09137	0.34288	 	1.48846E14	 	1.25637E-14	 	2010.915	25.605	 
105.0	1.0	0.0	2.68845	10.05163	-11.4461	23.19603	232.98962	0.0397643	25.14817	64.88275	68.72755	24.16207	0.34266	 	2.5959899999999997E14	 	7.10964E-15	 	1883.218	25.5394	 
100.0	1.0	0.0	2.68942	10.04803	-11.47778	23.14378	232.95778	0.0392439	25.48166	65.06084	68.82045	24.23234	0.34244	 	4.59561E14	 	3.96303E-15	 	1755.851	25.4734	 
95.0	1.0	0.0	2.69037	10.04445	-11.50932	23.09155	232.91251	0.0387256	25.82272	65.23783	68.9128	24.30219	0.34222	 	8.26267E14	 	2.17466E-15	 	1628.82	25.4062	 
90.0	1.0	0.0	2.69133	10.04089	-11.54072	23.03936	232.85329	0.0382094	26.1716	65.41372	69.0046	24.37161	0.34201	 	1.50978E15	 	1.17398E-15	 	1502.128	25.3384	 
85.0	1.0	0.0	2.69228	10.03734	-11.57198	22.9872	232.77953	0.0376952	26.52856	65.58851	69.09587	24.44061	0.34179	 	2.80554E15	 	6.23068E-16	 	1375.781	25.2694	 
80.0	1.0	0.0	2.69323	10.03381	-11.6031	22.93508	232.69061	0.0371832	26.89389	65.76219	69.18661	24.50919	0.34158	 	5.30566E15	 	3.24868E-16	 	1249.784	25.1994	 
75.0	1.0	0.0	2.69417	10.03029	-11.63408	22.88298	232.5859	0.0366732	27.26785	65.93477	69.27682	24.57733	0.34137	 	1.0219E16	 	1.66281E-16	 	1124.143	25.1282	 
70.0	1.0	0.0	2.69511	10.02679	-11.66493	22.83092	232.46472	0.0361654	27.65075	66.10625	69.36652	24.64505	0.34117	 	2.00621E16	 	8.34821E-17	 	998.863	25.056	 
65.0	1.0	0.0	2.69605	10.0233	-11.69564	22.77889	232.32634	0.0356596	28.0429	66.27662	69.4557	24.71234	0.34096	 	4.01798E16	 	4.1076E-17	 	873.952	24.9822	 
60.0	1.0	0.0	2.69698	10.01983	-11.72621	22.72689	232.16999	0.035156	28.44462	66.44589	69.54437	24.77921	0.34076	 	8.21662E16	 	1.97894E-17	 	749.415	24.9074	 
55.0	1.0	0.0	2.69791	10.01638	-11.75664	22.67493	231.99486	0.0346545	28.85625	66.61405	69.63254	24.84564	0.34056	 	1.7173E17	 	9.32639E-18	 	625.261	24.8308	 
50.0	1.0	0.0	2.69884	10.01294	-11.78694	22.623	231.80009	0.0341552	29.27813	66.78112	69.72021	24.91165	0.34036	 	3.67202E17	 	4.29522E-18	 	501.498	24.7526	 
45.0	1.0	0.0	2.69976	10.00952	-11.8171	22.57111	231.58477	0.033658	29.71064	66.94708	69.80739	24.97723	0.34016	 	8.04155E17	 	1.93099E-18	 	378.133	24.673	 
40.0	1.0	0.0	2.70068	10.00611	-11.84712	22.51923	231.34791	0.0331629	30.15415	67.11193	69.89408	25.04237	0.33997	 	1.8057E18	 	8.46436E-19	 	255.177	24.5912	 
35.0	1.0	0.0	2.7016	10.00272	-11.877	22.4674	231.08847	0.0326701	30.60906	67.27569	69.98029	25.10709	0.33977	 	4.16247E18	 	3.61325E-19	 	132.64	24.5074	 
30.0	1.0	0.0	2.70251	9.99934	-11.90675	22.4156	230.80536	0.0321794	31.07579	67.43834	70.06602	25.17138	0.33958	 	9.86328E18	 	1.50011E-19	 	10.531	24.4218	 
25.0	1.0	0.0	2.70342	9.99598	-11.93636	 	230.49738	0.0316909	31.55478	67.59989	70.15128	25.23523	0.33939	 	2.40579E19	 	6.04872E-20	 	-111.138	 	 
