T (C)	Fraction solid (wt)-TOTAL	Fraction liquid (wt)-LIQUID	Density (g/(cm)^3)-TOTAL	Molar volume (cm^3)-TOTAL	Volume change (%)-  	Average expansion coeff. (10e-6 1/K)-  	Thermal conductivity (W/(m*K))-TOTAL	Electrical resistivity (10e-6 Ohm*m)-TOTAL	Electrical conductivity (10e6 1/(Ohm*m))-TOTAL	Young's modulus (GPa)-TOTAL	Bulk modulus (GPa)-TOTAL	Shear modulus(GPa)-TOTAL	Poisson's ratio-TOTAL	Liquid viscosity (mPa s)-  	Total viscosity (mPa s)-  	Liquid diffusivity (10e-9 (m^2)/s)-  	Total diffusivity (10e-9 (m^2)/s)-  	Surface Tension (mN/m)-  	Enthalpy (J/mole)-TOTAL	Specific heat (J/(mole K))-TOTAL	Latent heat (J/mole)-TOTAL
700.0	0.0	1.0	2.41801	11.25953	0.0	58.94217	85.95693	0.27737	3.60525	0.0	50.61591	0.0	0.5	1.30215	1.30215	3.64758	3.64758	789.15079	31024.079	 	0.0
695.0	0.0	1.0	2.41969	11.25173	-0.0693017	58.9961	85.79432	0.27647	3.61701	0.0	50.67925	0.0	0.5	1.31639	1.31639	3.58959	3.58959	790.32688	30866.987	31.4184	0.0
690.0	0.0	1.0	2.42136	11.24395	-0.13839	59.05203	85.63171	0.27557	3.6289	0.0	50.7426	0.0	0.5	1.33093	1.33093	3.53203	3.53203	791.49927	30709.902	31.417	0.0
685.0	0.0	1.0	2.42303	11.2362	-0.20727	59.11	85.46909	0.27466	3.64091	0.0	50.80594	0.0	0.5	1.3458	1.3458	3.47489	3.47489	792.66838	30552.825	31.4154	0.0
680.0	0.0	1.0	2.4247	11.22846	-0.27594	59.17006	85.30648	0.27374	3.65304	0.0	50.86928	0.0	0.5	1.36098	1.36098	3.41819	3.41819	793.83409	30395.756	31.4138	0.0
675.0	0.0	1.0	2.42637	11.22076	-0.34439	59.23226	85.14386	0.27283	3.66531	0.0	50.93262	0.0	0.5	1.3765	1.3765	3.36192	3.36192	794.99628	30238.694	31.4124	0.0
670.0	0.0	1.0	2.42803	11.21307	-0.41264	59.29665	84.98125	0.27191	3.6777	0.0	50.99596	0.0	0.5	1.39236	1.39236	3.30609	3.30609	796.15484	30081.64	31.4108	0.0
665.0	0.0	1.0	2.42969	11.20541	-0.48067	59.36327	84.81863	0.27099	3.69023	0.0	51.05931	0.0	0.5	1.40858	1.40858	3.2507	3.2507	797.30962	29924.594	31.4092	0.0
660.0	0.0	1.0	2.43135	11.19778	-0.54849	59.4322	84.65601	0.27006	3.70289	0.0	51.12265	0.0	0.5	1.42516	1.42516	3.19575	3.19575	798.46045	29767.545	31.4098	0.0
655.0	0.0	1.0	2.433	11.19016	-0.6161	59.50346	84.49338	0.26913	3.71568	0.0	51.18599	0.0	0.5	1.44213	1.44213	3.14124	3.14124	799.60731	29610.695	31.37	0.0
650.0	0.0	1.0	2.43465	11.18258	-0.6835	59.57713	84.33076	0.2682	3.72862	0.0	51.24933	0.0	0.5	1.45948	1.45948	3.08718	3.08718	800.75	29454.174	31.3042	0.0
645.0	0.0	1.0	2.4363	11.17501	-0.75068	59.65327	84.16814	0.26726	3.74169	0.0	51.31268	0.0	0.5	1.47723	1.47723	3.03356	3.03356	801.48266	29297.982	31.2384	0.0
640.0	0.0	1.0	2.43795	11.16747	-0.81766	59.73192	84.00551	0.26632	3.75491	0.0	51.37602	0.0	0.5	1.49539	1.49539	2.98039	2.98039	802.64049	29142.121	31.1722	0.0
635.0	0.0	1.0	2.43959	11.15995	-0.88442	59.81316	83.84288	0.26537	3.76827	0.0	51.43936	0.0	0.5	1.51398	1.51398	2.92768	2.92768	803.79289	28986.591	31.106	0.0
630.0	0.0	1.0	2.44123	11.15246	-0.95097	59.89704	83.68025	0.26443	3.78179	0.0	51.5027	0.0	0.5	1.53302	1.53302	2.87541	2.87541	804.93972	28831.393	31.0396	0.0
625.0	0.0	1.0	2.44286	11.14499	-1.01731	59.98364	83.51762	0.26347	3.79545	0.0	51.56604	0.0	0.5	1.55251	1.55251	2.8236	2.8236	806.08085	28676.526	30.9734	0.0
622.24	0.0	1.0	2.44377	11.14087	-1.0539	60.03271	83.4277	0.26295	3.80307	0.0	51.60107	0.0	0.5	1.56348	1.56348	2.79514	2.79514	806.70933	28591.042	30.921	0.0
620.0	0.0469601	0.95304	2.45186	11.10412	-1.3803	58.21144	85.63733	0.25552	3.91357	1.60998E-4	51.76506	5.38649E-5	0.49446	1.57799	1.707	2.76253	2.55375	806.001	28021.399	254.827	500.593
615.0	0.14379	0.85621	2.46884	11.02773	-2.05872	54.41441	90.4046	0.24069	4.15469	0.0146052	52.1081	0.00492464	0.48287	1.61275	4.61175	2.68785	0.93996	804.45101	26835.496	237.181	1532.292
610.0	0.22603	0.77397	2.48365	10.96199	-2.64263	51.15521	94.75937	0.22834	4.37947	0.0917028	52.42152	0.0311317	0.47282	1.64963	20.24776	2.61297	0.21288	803.03372	25806.1	205.879	2407.812
605.06	0.29457	0.70543	2.49631	10.90637	-3.13657	48.41326	98.70805	0.21798	4.5876	0.27106	52.70655	0.0925571	0.46429	1.68776	60.1344	2.53966	0.0712795	801.79073	24925.551	 	3136.798
605.0	0.29544	0.70456	2.49647	10.90572	-3.14236	48.38139	98.76044	0.21785	4.59038	0.27432	52.71019	0.0936756	0.46418	1.68823	60.90526	2.53877	0.0703721	801.77461	24914.031	178.414	3146.336
600.0	0.35801	0.64199	2.50831	10.8542	-3.59989	45.83319	102.63084	0.20844	4.79759	0.5974	52.95655	0.20515	0.456	1.72551	142.17949	2.46979	0.0299736	800.65672	24078.862	167.034	3828.288
595.0	0.41051	0.58949	2.51852	10.81018	-3.99083	43.67613	106.19103	0.2003	4.9926	1.04884	53.19068	0.36191	0.44903	1.76421	270.57202	2.40177	0.0156602	799.71064	23355.553	144.662	4398.707
590.0	0.45505	0.54495	2.52743	10.77212	-4.32891	41.83004	109.47658	0.19317	5.17689	1.61048	53.4151	0.55802	0.44302	1.80428	452.58918	2.33491	0.00930827	798.91634	22720.667	126.977	4881.031
585.09	0.49257	0.50743	2.53514	10.73934	-4.62006	40.25694	112.45649	0.18698	5.34821	2.24737	53.62747	0.78148	0.43789	1.84491	689.4226	2.2705	0.00607591	798.26596	22166.197	 	5286.088
585.0	0.49331	0.50669	2.53529	10.7387	-4.62573	40.22584	112.51538	0.18686	5.35159	2.26124	53.6311	0.78636	0.43778	1.84562	694.85261	2.26938	0.00602778	798.25443	22155.327	113.068	5294.133
580.0	0.52979	0.47021	2.54293	10.70639	-4.91266	38.65925	115.39391	0.18114	5.52067	3.04786	53.82362	1.06379	0.43255	1.88444	1028.22661	2.20969	0.0040497	797.72337	21603.408	110.384	5694.138
575.0	0.56105	0.43895	2.54967	10.67809	-5.16404	37.30532	118.1146	0.17593	5.68414	3.88579	54.01375	1.36057	0.428	1.92462	1441.86182	2.15087	0.00287102	797.31084	21110.64	98.5536	6035.315
572.23	0.57647	0.42353	2.55308	10.66377	-5.29118	36.62731	119.51741	0.1733	5.7705	4.36408	54.11815	1.53047	0.42573	1.94746	1708.53672	2.11871	0.00241498	797.12304	20858.781	 	6203.33
570.0	0.80134	0.19866	2.57409	10.57647	-6.06657	31.46863	141.81027	0.14567	6.86494	17.88834	55.27035	6.42977	0.39106	1.96857	6651.21709	2.09046	6.18715E-4	787.25211	17759.437	670.241	9235.245
565.0	0.92352	0.0764809	2.58643	10.52528	-6.52117	28.6189	157.15625	0.13066	7.65321	33.51725	56.04386	12.21718	0.37173	2.01913	13101.24708	2.02602	3.12245E-4	777.4805	15983.136	355.26	10860.593
560.0	0.95763	0.0423682	2.59067	10.50737	-6.68025	27.77694	162.2508	0.12581	7.94873	39.52515	56.40097	14.46713	0.36603	2.07324	16981.76692	1.96138	2.39457E-4	772.32742	15379.24	120.779	11313.852
555.0	0.97322	0.0267755	2.59319	10.49646	-6.7771	27.35717	164.7991	0.12312	8.12231	42.6733	56.66868	15.65163	0.36322	2.13076	20349.12693	1.89697	1.98632E-4	769.0538	15019.739	71.9002	11523.03
551.34	0.98002	0.0199802	2.5946	10.49024	-6.8324	27.1551	166.02525	0.12167	8.21902	44.18283	56.84127	16.22118	0.36189	2.17496	22803.51976	1.85022	1.76471E-4	767.30793	14817.555	 	11615.52
545.0	0.9897	0.0103043	2.59683	10.47995	-6.92379	26.83068	167.83396	0.11943	8.37299	46.47529	57.10574	17.08877	0.35982	2.26015	27589.8503	1.76678	1.44734E-4	764.92584	14493.096	52.6643	11749.96
543.63	0.99091	0.00908852	2.59722	10.47811	-6.94013	26.78392	168.09708	0.11905	8.40017	46.80087	57.16097	17.21226	0.35952	2.27946	28654.84637	1.74888	1.39122E-4	764.55671	14434.826	 	11767.315
540.0	0.99571	0.00428939	2.59805	10.47317	-6.98397	26.65523	169.02367	0.11787	8.4842	48.01399	57.32256	17.67191	0.35848	2.35839	31902.98046	1.68283	1.24402E-4	763.84173	14256.162	47.3868	11837.5
538.62	0.99698	0.00302473	2.59832	10.4715	-6.99878	26.61916	169.28862	0.11748	8.51194	48.36022	57.37979	17.80332	0.35818	2.38931	33162.76211	1.65824	1.19473E-4	763.68926	14196.131	 	11856.372
536.4	0.99863	0.00136951	2.59871	10.46896	-7.0214	26.56988	169.65461	0.11691	8.55376	48.83916	57.46926	17.9853	0.35775	2.44008	35252.9862	1.61929	1.12081E-4	763.55662	14104.756	 	11881.464
536.4	0.99863	0.00136951	2.59871	10.46896	-7.0214	26.56988	169.65461	0.11691	8.55376	48.83917	57.46926	17.9853	0.35775	2.44007	35253.05556	1.6193	1.12081E-4	763.55666	14104.753	 	11881.464
535.0	1.0	0.0	2.59896	10.46717	-7.03726	26.52668	169.92878	0.11652	8.5824	49.20874	57.51768	18.12597	0.35741	 	36683.91096	 	1.07523E-4	 	14042.7	42.6924	11901.872
530.0	1.0	0.0	2.60015	10.46237	-7.07987	26.47449	170.16826	0.11563	8.648	49.49147	57.70101	18.235	0.35705	 	41533.35355	 	9.43814E-5	 	13784.934	51.5532	 
525.0	1.0	0.0	2.60134	10.45759	-7.12233	26.42233	170.40661	0.11475	8.71437	49.77296	57.88272	18.3436	0.35668	 	47097.0762	 	8.27137E-5	 	13631.754	30.636	 
520.0	1.0	0.0	2.60253	10.45283	-7.16466	26.3702	170.64379	0.11388	8.78151	50.0532	58.06282	18.45178	0.35632	 	53490.81939	 	7.23707E-5	 	13479.02	30.5468	 
515.0	1.0	0.0	2.60371	10.44808	-7.20684	26.3181	170.8798	0.113	8.84944	50.33221	58.24134	18.55953	0.35597	 	60850.76058	 	6.32164E-5	 	13326.725	30.459	 
510.0	1.0	0.0	2.60489	10.44334	-7.24887	26.26603	171.1146	0.11213	8.91818	50.60998	58.41831	18.66686	0.35561	 	69337.41766	 	5.5127E-5	 	13174.863	30.3724	 
505.0	1.0	0.0	2.60607	10.43863	-7.29076	26.21399	171.34816	0.11126	8.98773	50.88651	58.59374	18.77376	0.35526	 	79140.35389	 	4.79901E-5	 	13023.424	30.2878	 
500.0	1.0	0.0	2.60724	10.43393	-7.33251	26.16199	171.58047	0.1104	9.05812	51.16181	58.76764	18.88024	0.3549	 	90483.86067	 	4.17042E-5	 	12872.401	30.2046	 
495.0	1.0	0.0	2.60841	10.42924	-7.37412	26.11001	171.81149	0.10954	9.12935	51.43587	58.94005	18.98629	0.35455	 	103633.8354	 	3.61769E-5	 	12721.786	30.123	 
490.0	1.0	0.0	2.60958	10.42457	-7.41558	26.05807	172.0412	0.10868	9.20145	51.70871	59.11099	19.09191	0.3542	 	118906.1235	 	3.13251E-5	 	12571.571	30.043	 
485.0	1.0	0.0	2.61075	10.41992	-7.4569	26.00615	172.26957	0.10782	9.27443	51.98031	59.28046	19.19711	0.35386	 	136676.6571	 	2.70737E-5	 	12421.75	29.9642	 
480.0	1.0	0.0	2.61191	10.41529	-7.49808	25.95427	172.49657	0.10697	9.34831	52.25069	59.44848	19.30188	0.35351	 	157393.8059	 	2.3355E-5	 	12272.313	29.8874	 
475.0	1.0	0.0	2.61307	10.41067	-7.53911	25.90242	172.72216	0.10612	9.42309	52.51984	59.61509	19.40623	0.35317	 	181593.4547	 	2.01083E-5	 	12123.254	29.8118	 
470.0	1.0	0.0	2.61422	10.40606	-7.58	25.85059	172.94633	0.10528	9.4988	52.78641	59.77875	19.50965	0.35283	 	209917.4517	 	1.72788E-5	 	11974.565	29.7378	 
465.0	1.0	0.0	2.61538	10.40147	-7.62075	25.7988	173.16904	0.10443	9.57546	53.05315	59.9426	19.61315	0.35249	 	243136.2342	 	1.48177E-5	 	11826.237	29.6656	 
460.0	1.0	0.0	2.61653	10.3969	-7.66136	25.74704	173.39025	0.10359	9.65308	53.31866	60.10508	19.71623	0.35215	 	282176.6408	 	1.26811E-5	 	11678.264	29.5946	 
455.0	1.0	0.0	2.61767	10.39234	-7.70182	25.69532	173.60994	0.10276	9.73168	53.58295	60.26621	19.81888	0.35182	 	328156.1837	 	1.083E-5	 	11530.637	29.5254	 
450.0	1.0	0.0	2.61882	10.3878	-7.74214	25.64362	173.82807	0.10192	9.81127	53.84603	60.42599	19.9211	0.35148	 	382425.3815	 	9.22929E-6	 	11383.349	29.4576	 
445.0	1.0	0.0	2.61996	10.38328	-7.78232	25.59195	174.04461	0.10109	9.89189	54.10789	60.58446	20.0229	0.35115	 	446620.181	 	7.84808E-6	 	11236.393	29.3912	 
440.0	1.0	0.0	2.6211	10.37877	-7.82236	25.54031	174.25952	0.10027	9.97354	54.36853	60.74163	20.12427	0.35082	 	522727.0366	 	6.65875E-6	 	11089.76	29.3266	 
435.0	1.0	0.0	2.62223	10.37428	-7.86226	25.48871	174.47276	0.0994406	10.05626	54.62797	60.89751	20.22521	0.35049	 	613163.9108	 	5.63684E-6	 	10943.443	29.2634	 
430.0	1.0	0.0	2.62336	10.3698	-7.90201	25.43713	174.6843	0.0986189	10.14004	54.88618	61.05212	20.32572	0.35017	 	720881.3594	 	4.7607E-6	 	10797.435	29.2016	 
425.0	1.0	0.0	2.62449	10.36534	-7.94162	25.38559	174.8941	0.0978002	10.22493	55.14319	61.20547	20.42581	0.34984	 	849489.0195	 	4.01123E-6	 	10651.729	29.1412	 
420.0	1.0	0.0	2.62562	10.3609	-7.98109	25.33407	175.10212	0.0969844	10.31094	55.39899	61.35758	20.52546	0.34952	 	1003414.318	 	3.37158E-6	 	10506.315	29.0828	 
415.0	1.0	0.0	2.62674	10.35647	-8.02043	25.28259	175.30832	0.0961716	10.39808	55.65358	61.50847	20.62469	0.3492	 	1188102.169	 	2.82694E-6	 	10361.192	29.0246	 
410.0	1.0	0.0	2.62786	10.35206	-8.05961	25.23114	175.51266	0.0953616	10.4864	55.90697	61.65815	20.72349	0.34888	 	1410266.956	 	2.36429E-6	 	10216.358	28.9668	 
405.0	1.0	0.0	2.62898	10.34766	-8.09866	25.17972	175.71509	0.0945546	10.5759	56.15733	61.80463	20.82119	0.34856	 	1678211.43	 	1.97227E-6	 	10071.812	28.9092	 
400.0	1.0	0.0	2.63009	10.34328	-8.13757	25.12833	175.91558	0.0937505	10.66661	56.40836	61.95198	20.91915	0.34825	 	2002231.482	 	1.64091E-6	 	9927.554	28.8516	 
395.0	1.0	0.0	2.6312	10.33892	-8.17634	25.07697	176.11408	0.0929493	10.75856	56.65818	62.09817	21.01668	0.34793	 	2395131.473	 	1.36154E-6	 	9783.584	28.794	 
390.0	1.0	0.0	2.63231	10.33457	-8.21496	25.02564	176.31053	0.0921509	10.85177	56.9068	62.24321	21.11378	0.34762	 	2872882.378	 	1.12663E-6	 	9639.9	28.7368	 
385.0	1.0	0.0	2.63341	10.33023	-8.25345	24.97434	176.5049	0.0913554	10.94626	57.15422	62.3871	21.21045	0.34731	 	3455464.954	 	9.29619E-7	 	9496.503	28.6794	 
380.0	1.0	0.0	2.63451	10.32592	-8.29179	24.92308	176.69714	0.0905627	11.04207	57.40044	62.52987	21.30669	0.34701	 	4167953.466	 	7.64851E-7	 	9353.391	28.6224	 
375.0	1.0	0.0	2.63561	10.32162	-8.33	24.87184	176.88719	0.0897729	11.13922	57.64547	62.67152	21.4025	0.3467	 	5041913.204	 	6.27432E-7	 	9210.563	28.5656	 
370.0	1.0	0.0	2.63671	10.31733	-8.36806	24.82064	177.075	0.0889859	11.23774	57.88929	62.81207	21.49788	0.3464	 	6117208.733	 	5.13152E-7	 	9068.02	28.5086	 
365.0	1.0	0.0	2.6378	10.31306	-8.40598	24.76946	177.26053	0.0882017	11.33765	58.13193	62.95154	21.59283	0.34609	 	7444351.66	 	4.18391E-7	 	8925.761	28.4518	 
360.0	1.0	0.0	2.63889	10.30881	-8.44377	24.71832	177.4437	0.0874203	11.439	58.37337	63.08993	21.68735	0.34579	 	9087559.674	 	3.40053E-7	 	8783.785	28.3952	 
355.0	1.0	0.0	2.63997	10.30457	-8.48141	24.6672	177.62448	0.0866416	11.5418	58.61361	63.22726	21.78143	0.34549	 	1.112875669E7	 	2.75488E-7	 	8642.091	28.3388	 
350.0	1.0	0.0	2.64106	10.30034	-8.51892	24.61612	177.8028	0.0858658	11.64608	58.85267	63.36354	21.87509	0.3452	 	1.367282291E7	 	2.22444E-7	 	8500.68	28.2822	 
345.0	1.0	0.0	2.64213	10.29614	-8.55628	24.56507	177.9786	0.0850927	11.75189	59.09053	63.49878	21.96831	0.3449	 	1.685451144E7	 	1.79005E-7	 	8359.551	28.2258	 
340.0	1.0	0.0	2.64321	10.29195	-8.59351	24.51405	178.15183	0.0843223	11.85926	59.32721	63.63299	22.06111	0.34461	 	2.084759542E7	 	1.43548E-7	 	8218.702	28.1698	 
335.0	1.0	0.0	2.64428	10.28777	-8.63059	24.46306	178.3224	0.0835547	11.96821	59.5627	63.76619	22.15347	0.34432	 	2.587701305E7	 	1.14705E-7	 	8078.135	28.1134	 
330.0	1.0	0.0	2.64535	10.28361	-8.66754	24.4121	178.49027	0.0827898	12.07878	59.797	63.89839	22.24539	0.34403	 	3.223505773E7	 	9.13237E-8	 	7937.849	28.0572	 
325.0	1.0	0.0	2.64642	10.27946	-8.70435	24.36118	178.65537	0.0820276	12.19102	60.03012	64.0296	22.33689	0.34374	 	4.030305033E7	 	7.24367E-8	 	7797.843	28.0012	 
320.0	1.0	0.0	2.64748	10.27534	-8.74102	24.31028	178.81761	0.0812681	12.30494	60.26205	64.15983	22.42795	0.34346	 	5.058047199E7	 	5.72359E-8	 	7658.116	27.9454	 
315.0	1.0	0.0	2.64854	10.27122	-8.77755	24.25941	178.97694	0.0805113	12.42061	60.4928	64.28909	22.51858	0.34318	 	6.372429596E7	 	4.50474E-8	 	7518.67	27.8892	 
310.0	1.0	0.0	2.6496	10.26713	-8.81394	24.20858	179.13328	0.0797572	12.53805	60.72237	64.41739	22.60878	0.34289	 	8.060232392E7	 	3.53118E-8	 	7379.502	27.8336	 
305.0	1.0	0.0	2.65065	10.26304	-8.8502	24.15777	179.28655	0.0790058	12.6573	60.95075	64.54475	22.69854	0.34261	 	1.023658424E8	 	2.75659E-8	 	7240.614	27.7776	 
300.0	1.0	0.0	2.65171	10.25898	-8.88631	24.107	179.43668	0.078257	12.77841	61.17796	64.67117	22.78787	0.34234	 	1.305490575E8	 	2.1428E-8	 	7102.005	27.7218	 
295.0	1.0	0.0	2.65275	10.25493	-8.92229	24.05626	179.58358	0.0775108	12.90142	61.40398	64.79666	22.87677	0.34206	 	1.672058276E8	 	1.65843E-8	 	6963.675	27.666	 
290.0	1.0	0.0	2.6538	10.25089	-8.95813	24.00554	179.72716	0.0767673	13.02637	61.62883	64.92124	22.96523	0.34179	 	2.150986018E8	 	1.27783E-8	 	6825.623	27.6104	 
285.0	1.0	0.0	2.65484	10.24687	-8.99383	23.95486	179.86735	0.0760264	13.15332	61.8525	65.04491	23.05326	0.34151	 	2.77960807E8	 	9.80063E-9	 	6687.851	27.5544	 
280.0	1.0	0.0	2.65588	10.24287	-9.02939	23.90421	180.00405	0.0752882	13.2823	62.075	65.16769	23.14085	0.34124	 	3.608631071E8	 	7.48147E-9	 	6550.357	27.4988	 
275.0	1.0	0.0	2.65691	10.23888	-9.06481	23.85359	180.13716	0.0745525	13.41337	62.29632	65.28958	23.22801	0.34097	 	4.707273495E8	 	5.68351E-9	 	6413.141	27.4432	 
270.0	1.0	0.0	2.65794	10.23491	-9.1001	23.803	180.2666	0.0738194	13.54657	62.51647	65.4106	23.31473	0.34071	 	6.170516512E8	 	4.2962E-9	 	6276.205	27.3872	 
265.0	1.0	0.0	2.65897	10.23095	-9.13525	23.75245	180.39226	0.0730889	13.68196	62.73544	65.53075	23.40102	0.34044	 	8.129390391E8	 	3.23096E-9	 	6139.547	27.3316	 
260.0	1.0	0.0	2.65999	10.22701	-9.17026	23.70192	180.51404	0.072361	13.8196	62.95325	65.65004	23.48687	0.34018	 	1.076565037E9	 	2.41711E-9	 	6003.169	27.2756	 
255.0	1.0	0.0	2.66102	10.22308	-9.20514	23.65142	180.63183	0.0716356	13.95953	63.16988	65.76849	23.57228	0.33992	 	1.433283752E9	 	1.79851E-9	 	5867.069	27.22	 
250.0	1.0	0.0	2.66203	10.21917	-9.23987	23.60096	180.74552	0.0709128	14.10182	63.38534	65.8861	23.65726	0.33966	 	1.918668391E9	 	1.3308E-9	 	5731.25	27.1638	 
245.0	1.0	0.0	2.66305	10.21527	-9.27447	23.55052	180.855	0.0701926	14.24652	63.59963	66.00288	23.7418	0.3394	 	2.582927875E9	 	9.79106E-10	 	5595.71	27.108	 
240.0	1.0	0.0	2.66406	10.21139	-9.30894	23.50012	180.96015	0.0694748	14.3937	63.81276	66.11884	23.82591	0.33915	 	3.497363007E9	 	7.16127E-10	 	5460.45	27.052	 
235.0	1.0	0.0	2.66507	10.20753	-9.34326	23.44974	181.06084	0.0687596	14.54342	64.02472	66.23399	23.90958	0.33889	 	4.763865495E9	 	5.20618E-10	 	5325.472	26.9956	 
230.0	1.0	0.0	2.66608	10.20368	-9.37745	23.3994	181.15694	0.0680469	14.69574	64.23551	66.34834	23.99281	0.33864	 	6.528987537E9	 	3.7613E-10	 	5190.774	26.9396	 
225.0	1.0	0.0	2.66708	10.19984	-9.41151	23.34909	181.24833	0.0673368	14.85073	64.44514	66.46189	24.07561	0.33839	 	9.004924637E9	 	2.70002E-10	 	5056.359	26.883	 
220.0	1.0	0.0	2.66808	10.19602	-9.44542	23.29881	181.33486	0.0666291	15.00846	64.6536	66.57466	24.15797	0.33814	 	1.2500999999999998E10	 	1.9254E-10	 	4922.226	26.8266	 
215.0	1.0	0.0	2.66907	10.19222	-9.4792	23.24856	181.41639	0.0659239	15.16901	64.86091	66.68665	24.23988	0.3379	 	1.74715E10	 	1.36367E-10	 	4788.377	26.7698	 
210.0	1.0	0.0	2.67007	10.18843	-9.51285	23.19834	181.49277	0.0652212	15.33244	65.06704	66.79788	24.32137	0.33765	 	2.4587999999999996E10	 	9.59059E-11	 	4654.811	26.7132	 
205.0	1.0	0.0	2.67105	10.18466	-9.54636	23.14815	181.56384	0.064521	15.49884	65.27202	66.90834	24.40241	0.33741	 	3.48514E10	 	6.69624E-11	 	4521.531	26.656	 
200.0	1.0	0.0	2.67204	10.1809	-9.57973	23.098	181.62945	0.0638232	15.66828	65.47584	67.01805	24.48301	0.33717	 	4.976439999999999E10	 	4.64052E-11	 	4388.537	26.5988	 
195.0	1.0	0.0	2.67302	10.17716	-9.61296	23.04787	181.68941	0.0631279	15.84085	65.6785	67.12702	24.56318	0.33693	 	7.16015E10	 	3.19117E-11	 	4255.83	26.5414	 
190.0	1.0	0.0	2.674	10.17343	-9.64607	22.99777	181.74356	0.0624351	16.01664	65.88	67.23525	24.64291	0.33669	 	1.03833E11	 	2.17707E-11	 	4123.412	26.4836	 
185.0	1.0	0.0	2.67498	10.16972	-9.67903	22.94771	181.79172	0.0617447	16.19572	66.08034	67.34275	24.7222	0.33646	 	1.51801E11	 	1.47306E-11	 	3991.283	26.4258	 
180.0	1.0	0.0	2.67595	10.16602	-9.71186	22.89768	181.83368	0.0610568	16.3782	66.27952	67.44953	24.80105	0.33622	 	2.23796E11	 	9.88273E-12	 	3859.446	26.3674	 
175.0	1.0	0.0	2.67692	10.16234	-9.74455	22.84767	181.86926	0.0603713	16.56417	66.47755	67.5556	24.87945	0.33599	 	3.32806E11	 	6.57232E-12	 	3727.901	26.309	 
170.0	1.0	0.0	2.67789	10.15868	-9.77711	22.7977	181.89823	0.0596882	16.75373	66.67443	67.66096	24.95742	0.33576	 	4.99366E11	 	4.3313E-12	 	3596.651	26.25	 
165.0	1.0	0.0	2.67885	10.15503	-9.80954	22.74776	181.92039	0.0590075	16.94699	66.87015	67.76562	25.03495	0.33554	 	7.56257E11	 	2.82774E-12	 	3465.697	26.1908	 
160.0	1.0	0.0	2.67981	10.15139	-9.84183	22.69785	181.9355	0.0583293	17.14403	67.06472	67.86959	25.11204	0.33531	 	1.15633E12	 	1.82828E-12	 	3335.041	26.1312	 
155.0	1.0	0.0	2.68076	10.14777	-9.87398	22.64797	181.94332	0.0576535	17.34499	67.25813	67.97288	25.18869	0.33509	 	1.78567E12	 	1.17026E-12	 	3204.685	26.0712	 
150.0	1.0	0.0	2.68172	10.14416	-9.906	22.59812	181.94361	0.0569802	17.54997	67.4504	68.07549	25.2649	0.33486	 	2.78599E12	 	7.41314E-13	 	3074.632	26.0106	 
145.0	1.0	0.0	2.68267	10.14057	-9.93789	22.5483	181.9361	0.0563092	17.75909	67.64151	68.17744	25.34067	0.33464	 	4.39316E12	 	4.6456E-13	 	2944.884	25.9496	 
140.0	1.0	0.0	2.68361	10.137	-9.96964	22.49851	181.92051	0.0556406	17.97247	67.83148	68.27871	25.416	0.33443	 	7.00428E12	 	2.87893E-13	 	2815.444	25.888	 
135.0	1.0	0.0	2.68456	10.13344	-10.00125	22.44875	181.89656	0.0549745	18.19025	68.0203	68.37934	25.49088	0.33421	 	1.12957E13	 	1.76357E-13	 	2686.314	25.826	 
130.0	1.0	0.0	2.68549	10.12989	-10.03273	22.39903	181.86394	0.0543108	18.41255	68.20797	68.47931	25.56533	0.33399	 	1.84336E13	 	1.06744E-13	 	2557.497	25.7634	 
125.0	1.0	0.0	2.68643	10.12637	-10.06408	22.34933	181.82233	0.0536495	18.63951	68.39449	68.57864	25.63933	0.33378	 	3.04545E13	 	6.38091E-14	 	2428.997	25.7	 
120.0	1.0	0.0	2.68736	10.12285	-10.0953	22.29967	181.7714	0.0529906	18.87127	68.57987	68.67734	25.71289	0.33357	 	5.09609E13	 	3.76537E-14	 	2300.816	25.6362	 
115.0	1.0	0.0	2.68829	10.11935	-10.12638	22.25003	181.7108	0.0523341	19.10799	68.7641	68.77541	25.78601	0.33336	 	8.64138E13	 	2.19232E-14	 	2172.96	25.5712	 
110.0	1.0	0.0	2.68922	10.11587	-10.15732	22.20043	181.64015	0.0516801	19.34982	68.94719	68.87285	25.85869	0.33315	 	1.48565E14	 	1.25875E-14	 	2045.431	25.5058	 
105.0	1.0	0.0	2.69014	10.1124	-10.18813	22.15086	181.55905	0.0510284	19.59692	69.12914	68.96968	25.93092	0.33295	 	2.5910199999999997E14	 	7.12328E-15	 	1918.233	25.4396	 
100.0	1.0	0.0	2.69106	10.10894	-10.21881	22.10132	181.4671	0.0503792	19.84945	69.30995	69.0659	26.00272	0.33274	 	4.58669E14	 	3.97073E-15	 	1791.372	25.3722	 
95.0	1.0	0.0	2.69198	10.1055	-10.24936	22.05181	181.36387	0.0497325	20.10758	69.48961	69.16152	26.07407	0.33254	 	8.24642E14	 	2.17895E-15	 	1664.852	25.304	 
90.0	1.0	0.0	2.69289	10.10208	-10.27977	22.00233	181.24887	0.0490882	20.37151	69.66814	69.25654	26.14498	0.33234	 	1.50677E15	 	1.17632E-15	 	1538.679	25.2346	 
85.0	1.0	0.0	2.6938	10.09867	-10.31005	21.95288	181.12164	0.0484463	20.64141	69.84553	69.35097	26.21544	0.33214	 	2.79987E15	 	6.2433E-16	 	1412.856	25.1646	 
80.0	1.0	0.0	2.6947	10.09528	-10.3402	21.90346	180.98165	0.0478069	20.91748	70.02178	69.44482	26.28547	0.33195	 	5.29478E15	 	3.25536E-16	 	1287.392	25.0928	 
75.0	1.0	0.0	2.69561	10.0919	-10.37021	21.85408	180.82836	0.04717	21.19991	70.19689	69.53808	26.35505	0.33175	 	1.01978E16	 	1.66628E-16	 	1162.291	25.0202	 
70.0	1.0	0.0	2.69651	10.08853	-10.40009	21.80472	180.66118	0.0465356	21.48893	70.37087	69.63078	26.42418	0.33156	 	2.00198E16	 	8.36587E-17	 	1037.561	24.946	 
65.0	1.0	0.0	2.6974	10.08518	-10.42984	21.7554	180.4795	0.0459037	21.78474	70.54372	69.72291	26.49288	0.33137	 	4.00938E16	 	4.11642E-17	 	913.208	24.8706	 
60.0	1.0	0.0	2.69829	10.08185	-10.45946	21.7061	180.28267	0.0452743	22.08758	70.71543	69.81448	26.56113	0.33118	 	8.19875E16	 	1.98326E-17	 	789.241	24.7934	 
55.0	1.0	0.0	2.69918	10.07853	-10.48894	21.65684	180.06997	0.0446475	22.39767	70.88601	69.9055	26.62894	0.331	 	1.71351E17	 	9.34702E-18	 	665.667	24.7148	 
50.0	1.0	0.0	2.70007	10.07522	-10.51829	21.6076	179.84069	0.0440233	22.71526	71.05546	69.99597	26.69631	0.33081	 	3.66379E17	 	4.30487E-18	 	542.496	24.6342	 
45.0	1.0	0.0	2.70095	10.07193	-10.54751	21.55839	179.59402	0.0434016	23.0406	71.22379	70.0859	26.76323	0.33063	 	8.02323E17	 	1.93539E-18	 	419.736	24.552	 
40.0	1.0	0.0	2.70183	10.06866	-10.5766	21.50922	179.32912	0.0427827	23.37396	71.39098	70.17529	26.82972	0.33045	 	1.80152E18	 	8.48399E-19	 	297.399	24.4674	 
35.0	1.0	0.0	2.7027	10.0654	-10.60555	21.46009	179.04509	0.0421663	23.7156	71.55705	70.26415	26.89576	0.33027	 	4.15268E18	 	3.62177E-19	 	175.494	24.381	 
30.0	1.0	0.0	2.70357	10.06215	-10.63438	21.41098	178.74097	0.0415527	24.06581	71.72199	70.35249	26.96135	0.33009	 	9.8397E18	 	1.5037E-19	 	54.034	24.292	 
25.0	1.0	0.0	2.70444	10.05892	-10.66307	 	178.41572	0.0409419	24.42487	71.88581	70.44031	27.02651	0.32991	 	2.39994E19	 	6.06346E-20	 	-66.969	 	 
