T (C)	Fraction solid (wt)-TOTAL	Fraction liquid (wt)-LIQUID	Density (g/(cm)^3)-TOTAL	Molar volume (cm^3)-TOTAL	Volume change (%)-  	Average expansion coeff. (10e-6 1/K)-  	Thermal conductivity (W/(m*K))-TOTAL	Electrical resistivity (10e-6 Ohm*m)-TOTAL	Electrical conductivity (10e6 1/(Ohm*m))-TOTAL	Young's modulus (GPa)-TOTAL	Bulk modulus (GPa)-TOTAL	Shear modulus(GPa)-TOTAL	Poisson's ratio-TOTAL	Liquid viscosity (mPa s)-  	Total viscosity (mPa s)-  	Liquid diffusivity (10e-9 (m^2)/s)-  	Total diffusivity (10e-9 (m^2)/s)-  	Surface Tension (mN/m)-  	Enthalpy (J/mole)-TOTAL	Specific heat (J/(mole K))-TOTAL	Latent heat (J/mole)-TOTAL
700.0	0.0	1.0	2.41285	11.25681	0.0	59.048	86.30998	0.27624	3.62005	0.0	50.62078	0.0	0.5	1.29281	1.29281	3.67393	3.67393	902.50055	31201.126	 	0.0
695.0	0.0	1.0	2.41453	11.249	-0.0693224	59.10253	86.14771	0.27534	3.63191	0.0	50.68367	0.0	0.5	1.30691	1.30691	3.61562	3.61562	904.20802	31044.059	31.4134	0.0
690.0	0.0	1.0	2.4162	11.24122	-0.13843	59.15907	85.98544	0.27443	3.64389	0.0	50.74655	0.0	0.5	1.32131	1.32131	3.55775	3.55775	905.91532	30887.0	31.4118	0.0
685.0	0.0	1.0	2.41787	11.23347	-0.20733	59.21765	85.82317	0.27352	3.65599	0.0	50.80943	0.0	0.5	1.33603	1.33603	3.5003	3.5003	907.62244	30729.947	31.4106	0.0
680.0	0.0	1.0	2.41953	11.22574	-0.27602	59.27834	85.6609	0.27261	3.66822	0.0	50.87232	0.0	0.5	1.35106	1.35106	3.44329	3.44329	909.32938	30572.902	31.409	0.0
675.0	0.0	1.0	2.42119	11.21803	-0.3445	59.34118	85.49863	0.2717	3.68058	0.0	50.9352	0.0	0.5	1.36642	1.36642	3.38671	3.38671	911.03614	30415.863	31.4078	0.0
670.0	0.0	1.0	2.42285	11.21034	-0.41276	59.40621	85.33635	0.27078	3.69307	0.0	50.99808	0.0	0.5	1.38213	1.38213	3.33058	3.33058	912.74272	30258.832	31.4062	0.0
665.0	0.0	1.0	2.42451	11.20268	-0.48082	59.47349	85.17408	0.26986	3.70569	0.0	51.06096	0.0	0.5	1.39818	1.39818	3.27488	3.27488	914.4491	30101.808	31.4048	0.0
660.0	0.0	1.0	2.42617	11.19505	-0.54866	59.54307	85.01181	0.26893	3.71845	0.0	51.12385	0.0	0.5	1.4146	1.4146	3.21962	3.21962	916.15534	29944.781	31.4054	0.0
655.0	0.0	1.0	2.42782	11.18743	-0.61629	59.61501	84.84953	0.268	3.73134	0.0	51.18673	0.0	0.5	1.43139	1.43139	3.16481	3.16481	917.86134	29787.953	31.3656	0.0
650.0	0.0	1.0	2.42946	11.17984	-0.68371	59.68936	84.68725	0.26707	3.74438	0.0	51.24961	0.0	0.5	1.44856	1.44856	3.11044	3.11044	919.56714	29631.454	31.2998	0.0
645.0	0.0	1.0	2.43111	11.17228	-0.75092	59.76618	84.52497	0.26613	3.75755	0.0	51.3125	0.0	0.5	1.46613	1.46613	3.05652	3.05652	921.27273	29475.285	31.2338	0.0
640.0	0.0	1.0	2.43275	11.16474	-0.81792	59.84554	84.36269	0.26519	3.77088	0.0	51.37538	0.0	0.5	1.48411	1.48411	3.00305	3.00305	922.97811	29319.447	31.1676	0.0
635.0	0.0	1.0	2.43439	11.15722	-0.8847	59.92748	84.20041	0.26425	3.78434	0.0	51.43826	0.0	0.5	1.50251	1.50251	2.95002	2.95002	924.68328	29163.94	31.1014	0.0
630.0	0.0	1.0	2.43603	11.14972	-0.95128	60.01209	84.03813	0.2633	3.79796	0.0	51.50114	0.0	0.5	1.52135	1.52135	2.89746	2.89746	926.38824	29008.764	31.0352	0.0
625.0	0.0	1.0	2.43766	11.14225	-1.01764	60.09942	83.87585	0.26235	3.81173	0.0	51.56403	0.0	0.5	1.54064	1.54064	2.84534	2.84534	928.09297	28853.919	30.969	0.0
621.42	0.0	1.0	2.43883	11.13691	-1.06509	60.16375	83.75949	0.26166	3.8217	0.0	51.60911	0.0	0.5	1.55475	1.55475	2.80826	2.80826	929.31512	28743.101	30.9116	0.0
620.0	0.03729	0.96271	2.44521	11.10793	-1.32256	58.69198	85.57977	0.25569	3.91094	6.33924E-5	51.719	2.11928E-5	0.49561	1.56518	1.65583	2.78514	2.63267	929.8659	28301.45	312.121	397.954
615.0	0.14991	0.85009	2.46484	11.01946	-2.1085	54.2181	91.29894	0.23833	4.19579	0.0171619	52.07042	0.00578951	0.48216	1.60271	5.10239	2.7047	0.84957	931.80501	26946.733	270.943	1598.488
610.0	0.23881	0.76119	2.4808	10.94854	-2.73846	50.66275	96.19107	0.22494	4.44564	0.11389	52.38295	0.0387034	0.4713	1.64131	24.71931	2.62621	0.17438	933.7329	25846.103	220.126	2545.263
605.0	0.31067	0.68933	2.49408	10.89023	-3.2565	47.76631	100.53157	0.21401	4.6727	0.33467	52.6673	0.11443	0.46235	1.68103	73.94106	2.54965	0.0579655	935.64936	24927.916	183.637	3309.925
600.0	0.36991	0.63009	2.50534	10.84126	-3.69156	45.35796	104.46589	0.20478	4.88337	0.68776	52.93037	0.23637	0.45484	1.72188	162.22647	2.47498	0.0262696	937.55419	24144.983	156.587	3939.661
595.0	0.41954	0.58046	2.51505	10.7994	-4.06338	43.32149	108.07104	0.19681	5.08099	1.16046	53.17712	0.40059	0.44843	1.76393	296.39841	2.40215	0.0142957	939.44718	23464.999	135.997	4466.777
592.0	0.44553	0.55447	2.52025	10.77714	-4.26111	42.24891	110.09147	0.19253	5.1939	1.49183	53.31932	0.51619	0.44503	1.7897	401.02522	2.3594	0.0105295	940.57532	23097.689	 	4742.674
590.0	0.46463	0.53537	2.52408	10.76076	-4.40665	41.43754	111.57993	0.18952	5.27635	1.76946	53.3959	0.6134	0.44234	1.80444	493.777	2.3347	0.00853183	941.32908	22825.534	127.893	4953.698
585.0	0.50655	0.49345	2.53265	10.72437	-4.72989	39.65339	115.02588	0.18278	5.47099	2.52509	53.58495	0.87896	0.43641	1.8421	773.43848	2.27372	0.00541532	943.2	22211.453	122.816	5415.561
580.0	0.54178	0.45822	2.54008	10.69299	-5.00871	38.13578	117.99225	0.17715	5.64497	3.34491	53.77196	1.16845	0.43135	1.88103	1125.65477	2.21369	0.00369919	945.05818	21672.802	107.73	5802.317
575.0	0.57183	0.42817	2.54663	10.66546	-5.25327	36.82305	120.75704	0.17208	5.81131	4.2052	53.95699	1.47347	0.42697	1.92125	1557.69584	2.15465	0.00265752	946.90344	21192.205	96.1194	6131.341
574.43	0.57496	0.42504	2.54733	10.66258	-5.27887	36.68728	121.05495	0.17154	5.82955	4.30435	53.97821	1.5087	0.42651	1.9259	1612.15937	2.148	0.00256602	947.11247	21140.751	 	6165.577
570.0	1.0	0.0	2.58762	10.4965	-6.75421	26.88312	171.33635	0.12057	8.29428	46.88242	56.13882	17.22587	0.36081	 	16030.34259	 	2.56714E-4	 	15225.458	1193.35	11946.835
565.0	1.0	0.0	2.58883	10.49159	-6.79782	26.83066	171.6028	0.11966	8.35673	47.17295	56.33357	17.33744	0.36044	 	17966.67411	 	2.27688E-4	 	15065.778	31.936	 
560.0	1.0	0.0	2.59004	10.4867	-6.84129	26.77822	171.86835	0.11877	8.41989	47.46221	56.52653	17.44858	0.36006	 	20164.47904	 	2.01661E-4	 	14909.043	31.347	 
555.0	1.0	0.0	2.59124	10.48182	-6.88461	26.72582	172.13299	0.11787	8.48377	47.75023	56.71773	17.5593	0.35968	 	22662.69313	 	1.78355E-4	 	14752.811	31.2464	 
550.0	1.0	0.0	2.59245	10.47696	-6.92778	26.67345	172.39668	0.11698	8.54838	48.03699	56.90719	17.6696	0.35931	 	25506.58138	 	1.57512E-4	 	14597.073	31.1476	 
545.0	1.0	0.0	2.59365	10.47212	-6.97081	26.62111	172.65943	0.11609	8.61373	48.32251	57.09493	17.77947	0.35894	 	28748.8524	 	1.38899E-4	 	14441.822	31.0502	 
540.0	1.0	0.0	2.59484	10.46729	-7.0137	26.56879	172.9212	0.11521	8.67984	48.60678	57.28099	17.88892	0.35857	 	32450.98397	 	1.22301E-4	 	14287.05	30.9544	 
535.0	1.0	0.0	2.59603	10.46248	-7.05644	26.51651	173.18197	0.11433	8.74671	48.88981	57.46537	17.99795	0.35821	 	36684.80263	 	1.07521E-4	 	14132.749	30.8602	 
530.0	1.0	0.0	2.59722	10.45768	-7.09904	26.46427	173.44172	0.11345	8.81436	49.17159	57.64811	18.10655	0.35784	 	41534.36947	 	9.43791E-5	 	13978.912	30.7674	 
525.0	1.0	0.0	2.59841	10.4529	-7.14149	26.41205	173.70044	0.11258	8.88281	49.45214	57.82922	18.21473	0.35748	 	47098.23551	 	8.27116E-5	 	13825.53	30.6764	 
520.0	1.0	0.0	2.5996	10.44814	-7.1838	26.35986	173.9581	0.11171	8.95207	49.73144	58.00873	18.32248	0.35712	 	53492.14447	 	7.23689E-5	 	13672.596	30.5868	 
515.0	1.0	0.0	2.60078	10.4434	-7.22596	26.30771	174.21467	0.11084	9.02214	50.00951	58.18665	18.42982	0.35676	 	60852.27766	 	6.32148E-5	 	13520.102	30.4988	 
510.0	1.0	0.0	2.60196	10.43867	-7.26798	26.25558	174.47014	0.10997	9.09306	50.28634	58.36302	18.53672	0.3564	 	69339.15749	 	5.51256E-5	 	13368.039	30.4126	 
505.0	1.0	0.0	2.60313	10.43395	-7.30986	26.20349	174.72448	0.10911	9.16483	50.56194	58.53785	18.64321	0.35604	 	79142.3526	 	4.79889E-5	 	13216.401	30.3276	 
500.0	1.0	0.0	2.6043	10.42925	-7.3516	26.15142	174.97767	0.10825	9.23746	50.83631	58.71115	18.74926	0.35569	 	90486.16081	 	4.17031E-5	 	13065.18	30.2442	 
495.0	1.0	0.0	2.60547	10.42457	-7.39319	26.09939	175.22967	0.1074	9.31098	51.10944	58.88296	18.8549	0.35534	 	103636.4872	 	3.6176E-5	 	12914.367	30.1626	 
490.0	1.0	0.0	2.60664	10.41991	-7.43463	26.04739	175.48047	0.10655	9.3854	51.38135	59.05328	18.96011	0.35499	 	118909.1862	 	3.13243E-5	 	12763.956	30.0822	 
485.0	1.0	0.0	2.6078	10.41526	-7.47594	25.99542	175.73004	0.1057	9.46073	51.65204	59.22214	19.06489	0.35464	 	136680.201	 	2.7073E-5	 	12613.937	30.0038	 
480.0	1.0	0.0	2.60897	10.41062	-7.5171	25.94348	175.97835	0.10485	9.537	51.9215	59.38956	19.16925	0.35429	 	157397.9144	 	2.33544E-5	 	12464.304	29.9266	 
475.0	1.0	0.0	2.61012	10.40601	-7.55812	25.89157	176.22538	0.10401	9.61421	52.18973	59.55556	19.27319	0.35395	 	181598.2269	 	2.01078E-5	 	12315.048	29.8512	 
470.0	1.0	0.0	2.61128	10.4014	-7.59899	25.8397	176.47109	0.10317	9.69239	52.45675	59.72015	19.3767	0.3536	 	209923.0058	 	1.72784E-5	 	12166.163	29.777	 
465.0	1.0	0.0	2.61243	10.39682	-7.63972	25.78785	176.71546	0.10234	9.77156	52.72254	59.88335	19.47978	0.35326	 	243142.7112	 	1.48173E-5	 	12017.64	29.7046	 
460.0	1.0	0.0	2.61358	10.39225	-7.68032	25.73603	176.95845	0.10151	9.85173	52.98712	60.04518	19.58244	0.35292	 	282184.2097	 	1.26808E-5	 	11869.471	29.6338	 
455.0	1.0	0.0	2.61472	10.3877	-7.72076	25.68425	177.20004	0.10068	9.93292	53.25048	60.20566	19.68467	0.35259	 	328165.047	 	1.08297E-5	 	11721.649	29.5644	 
450.0	1.0	0.0	2.61587	10.38316	-7.76107	25.63249	177.44019	0.0998487	10.01515	53.51262	60.3648	19.78648	0.35225	 	382435.7827	 	9.22904E-6	 	11574.166	29.4966	 
445.0	1.0	0.0	2.61701	10.37864	-7.80123	25.58077	177.67887	0.0990251	10.09845	53.77355	60.52262	19.88786	0.35192	 	446632.4137	 	7.84787E-6	 	11427.014	29.4304	 
440.0	1.0	0.0	2.61814	10.37413	-7.84125	25.52908	177.91604	0.0982046	10.18282	54.03327	60.67914	19.98882	0.35159	 	522741.4552	 	6.65857E-6	 	11280.187	29.3654	 
435.0	1.0	0.0	2.61928	10.36964	-7.88113	25.47742	178.15168	0.0973871	10.2683	54.29178	60.83438	20.08935	0.35126	 	613180.9446	 	5.63668E-6	 	11133.675	29.3024	 
430.0	1.0	0.0	2.62041	10.36517	-7.92087	25.42579	178.38575	0.0965726	10.3549	54.54908	60.98834	20.18945	0.35093	 	720901.5296	 	4.76057E-6	 	10987.472	29.2406	 
425.0	1.0	0.0	2.62153	10.36071	-7.96047	25.37419	178.61821	0.0957611	10.44265	54.80517	61.14105	20.28912	0.3506	 	849512.9601	 	4.01112E-6	 	10841.571	29.1802	 
420.0	1.0	0.0	2.62266	10.35627	-7.99992	25.32262	178.84902	0.0949526	10.53157	55.06005	61.29251	20.38837	0.35028	 	1003442.803	 	3.37149E-6	 	10695.963	29.1216	 
415.0	1.0	0.0	2.62378	10.35185	-8.03923	25.27108	179.07814	0.094147	10.62168	55.31373	61.44276	20.48719	0.34996	 	1188136.144	 	2.82686E-6	 	10550.644	29.0638	 
410.0	1.0	0.0	2.6249	10.34744	-8.07841	25.21958	179.30554	0.0933444	10.71301	55.56621	61.59179	20.58559	0.34964	 	1410307.582	 	2.36423E-6	 	10405.615	29.0058	 
405.0	1.0	0.0	2.62601	10.34304	-8.11744	25.1681	179.53118	0.0925448	10.80558	55.81559	61.73753	20.68285	0.34932	 	1678260.135	 	1.97221E-6	 	10260.875	28.948	 
400.0	1.0	0.0	2.62712	10.33867	-8.15633	25.11666	179.75501	0.0917481	10.89941	56.06573	61.88427	20.78042	0.349	 	2002290.026	 	1.64086E-6	 	10116.422	28.8906	 
395.0	1.0	0.0	2.62823	10.3343	-8.19507	25.06524	179.97698	0.0909543	10.99454	56.31467	62.02984	20.87755	0.34869	 	2395202.035	 	1.3615E-6	 	9972.257	28.833	 
390.0	1.0	0.0	2.62934	10.32996	-8.23368	25.01386	180.19706	0.0901634	11.09098	56.56241	62.17426	20.97426	0.34838	 	2872967.659	 	1.12659E-6	 	9828.378	28.7758	 
385.0	1.0	0.0	2.63044	10.32563	-8.27215	24.96251	180.4152	0.0893754	11.18877	56.80896	62.31754	21.07054	0.34807	 	3455568.316	 	9.29591E-7	 	9684.786	28.7184	 
380.0	1.0	0.0	2.63154	10.32131	-8.31048	24.91119	180.63135	0.0885902	11.28792	57.05431	62.4597	21.16639	0.34776	 	4168079.104	 	7.64828E-7	 	9541.479	28.6614	 
375.0	1.0	0.0	2.63264	10.31702	-8.34866	24.8599	180.84546	0.087808	11.38849	57.29846	62.60074	21.26181	0.34745	 	5042066.371	 	6.27413E-7	 	9398.456	28.6046	 
370.0	1.0	0.0	2.63373	10.31273	-8.38671	24.80864	181.05749	0.0870286	11.49048	57.54142	62.74068	21.35681	0.34714	 	6117396.024	 	5.13136E-7	 	9255.718	28.5476	 
365.0	1.0	0.0	2.63482	10.30847	-8.42461	24.75741	181.26738	0.086252	11.59393	57.78319	62.87954	21.45137	0.34684	 	7444581.387	 	4.18378E-7	 	9113.264	28.4908	 
360.0	1.0	0.0	2.63591	10.30421	-8.46238	24.70621	181.47508	0.0854783	11.69888	58.02377	63.01733	21.5455	0.34654	 	9087842.344	 	3.40042E-7	 	8971.093	28.4342	 
355.0	1.0	0.0	2.63699	10.29998	-8.50001	24.65505	181.68053	0.0847073	11.80535	58.26315	63.15405	21.6392	0.34624	 	1.112910563E7	 	2.7548E-7	 	8829.204	28.3778	 
350.0	1.0	0.0	2.63807	10.29576	-8.53749	24.60391	181.88367	0.0839392	11.91338	58.50135	63.28973	21.73248	0.34594	 	1.36732551E7	 	2.22437E-7	 	8687.598	28.3212	 
345.0	1.0	0.0	2.63915	10.29156	-8.57484	24.55281	182.08446	0.0831739	12.023	58.73836	63.42437	21.82532	0.34565	 	1.685504854E7	 	1.78999E-7	 	8546.274	28.2648	 
340.0	1.0	0.0	2.64022	10.28737	-8.61204	24.50174	182.28283	0.0824114	12.13425	58.97419	63.55798	21.91773	0.34535	 	2.084826524E7	 	1.43543E-7	 	8405.231	28.2086	 
335.0	1.0	0.0	2.6413	10.28319	-8.64911	24.45069	182.47871	0.0816516	12.24716	59.20883	63.69059	22.00971	0.34506	 	2.587785135E7	 	1.14702E-7	 	8264.469	28.1524	 
330.0	1.0	0.0	2.64236	10.27904	-8.68604	24.39968	182.67205	0.0808946	12.36177	59.44228	63.8222	22.10126	0.34477	 	3.223611075E7	 	9.13207E-8	 	8123.987	28.0964	 
325.0	1.0	0.0	2.64343	10.2749	-8.72283	24.3487	182.86277	0.0801403	12.47812	59.67456	63.95281	22.19238	0.34448	 	4.0304378E7	 	7.24344E-8	 	7983.786	28.0402	 
320.0	1.0	0.0	2.64449	10.27077	-8.75948	24.29775	183.05081	0.0793887	12.59624	59.90565	64.08245	22.28307	0.3442	 	5.058215239E7	 	5.7234E-8	 	7843.865	27.9842	 
315.0	1.0	0.0	2.64555	10.26666	-8.79599	24.24683	183.2361	0.0786399	12.71619	60.13556	64.21112	22.37333	0.34391	 	6.372643118E7	 	4.50459E-8	 	7704.223	27.9284	 
310.0	1.0	0.0	2.6466	10.26257	-8.83236	24.19595	183.41857	0.0778938	12.83799	60.36429	64.33884	22.46315	0.34363	 	8.060504804E7	 	3.53106E-8	 	7564.861	27.8724	 
305.0	1.0	0.0	2.64766	10.25849	-8.86859	24.14509	183.59813	0.0771504	12.96169	60.59184	64.46561	22.55254	0.34335	 	1.023693322E8	 	2.7565E-8	 	7425.778	27.8166	 
300.0	1.0	0.0	2.64871	10.25442	-8.90469	24.09426	183.77472	0.0764097	13.08734	60.81821	64.59145	22.6415	0.34307	 	1.305535473E8	 	2.14272E-8	 	7286.974	27.7608	 
295.0	1.0	0.0	2.64975	10.25038	-8.94065	24.04347	183.94825	0.0756717	13.21498	61.04341	64.71637	22.73003	0.34279	 	1.672116291E8	 	1.65838E-8	 	7148.448	27.7052	 
290.0	1.0	0.0	2.65079	10.24634	-8.97646	23.9927	184.11864	0.0749363	13.34466	61.26744	64.84037	22.81812	0.34252	 	2.151061318E8	 	1.27779E-8	 	7010.202	27.6492	 
285.0	1.0	0.0	2.65183	10.24233	-9.01214	23.94197	184.2858	0.0742036	13.47643	61.49028	64.96347	22.90578	0.34224	 	2.779706256E8	 	9.80029E-9	 	6872.234	27.5936	 
280.0	1.0	0.0	2.65287	10.23833	-9.04769	23.89127	184.44965	0.0734736	13.61034	61.71196	65.08568	22.993	0.34197	 	3.608759703E8	 	7.48121E-9	 	6734.545	27.5378	 
275.0	1.0	0.0	2.6539	10.23434	-9.08309	23.8406	184.61008	0.0727462	13.74643	61.93246	65.20701	23.0798	0.3417	 	4.707442832E8	 	5.68331E-9	 	6597.134	27.4822	 
270.0	1.0	0.0	2.65493	10.23037	-9.11836	23.78996	184.76701	0.0720214	13.88477	62.1518	65.32746	23.16616	0.34144	 	6.170740546E8	 	4.29605E-9	 	6460.003	27.4262	 
265.0	1.0	0.0	2.65596	10.22642	-9.15348	23.73935	184.92034	0.0712992	14.0254	62.36996	65.44705	23.25208	0.34117	 	8.129688311E8	 	3.23085E-9	 	6323.15	27.3706	 
260.0	1.0	0.0	2.65698	10.22248	-9.18848	23.68877	185.06996	0.0705797	14.16839	62.58695	65.56579	23.33757	0.34091	 	1.076604863E9	 	2.41702E-9	 	6186.576	27.3148	 
255.0	1.0	0.0	2.658	10.21856	-9.22333	23.63822	185.21577	0.0698627	14.31379	62.80277	65.68368	23.42262	0.34064	 	1.43333728E9	 	1.79844E-9	 	6050.282	27.2588	 
250.0	1.0	0.0	2.65902	10.21465	-9.25804	23.5877	185.35765	0.0691483	14.46166	63.01743	65.80074	23.50725	0.34038	 	1.918740737E9	 	1.33075E-9	 	5914.267	27.203	 
245.0	1.0	0.0	2.66003	10.21076	-9.29262	23.53722	185.49549	0.0684366	14.61207	63.23092	65.91697	23.59143	0.34012	 	2.583026214E9	 	9.79069E-10	 	5778.532	27.147	 
240.0	1.0	0.0	2.66104	10.20688	-9.32707	23.48676	185.62918	0.0677274	14.76508	63.44325	66.03238	23.67518	0.33987	 	3.497497469E9	 	7.161E-10	 	5643.077	27.091	 
235.0	1.0	0.0	2.66205	10.20302	-9.36137	23.43634	185.75858	0.0670207	14.92076	63.65441	66.14699	23.75849	0.33961	 	4.764050465E9	 	5.20598E-10	 	5507.903	27.0348	 
230.0	1.0	0.0	2.66306	10.19917	-9.39554	23.38595	185.88357	0.0663166	15.07917	63.86441	66.2608	23.84137	0.33936	 	6.529243581E9	 	3.76116E-10	 	5373.01	26.9786	 
225.0	1.0	0.0	2.66406	10.19534	-9.42957	23.33558	186.00402	0.0656151	15.24039	64.07324	66.37382	23.92381	0.33911	 	9.005281349E9	 	2.69991E-10	 	5238.399	26.9222	 
220.0	1.0	0.0	2.66505	10.19152	-9.46347	23.28525	186.11978	0.0649161	15.40449	64.28092	66.48605	24.00582	0.33886	 	1.2501499999999998E10	 	1.92532E-10	 	5104.071	26.8656	 
215.0	1.0	0.0	2.66605	10.18772	-9.49722	23.23495	186.23071	0.0642197	15.57155	64.48743	66.59751	24.08739	0.33861	 	1.74722E10	 	1.36362E-10	 	4970.026	26.809	 
210.0	1.0	0.0	2.66704	10.18394	-9.53085	23.18468	186.33666	0.0635257	15.74165	64.69278	66.70821	24.16852	0.33837	 	2.4588999999999996E10	 	9.5902E-11	 	4836.265	26.7522	 
205.0	1.0	0.0	2.66803	10.18017	-9.56433	23.13445	186.43748	0.0628343	15.91487	64.89698	66.81815	24.24921	0.33813	 	3.48528E10	 	6.69596E-11	 	4702.79	26.695	 
200.0	1.0	0.0	2.66901	10.17642	-9.59768	23.08424	186.53299	0.0621454	16.09128	65.10001	66.92734	24.32947	0.33788	 	4.976649999999999E10	 	4.64033E-11	 	4569.6	26.638	 
195.0	1.0	0.0	2.66999	10.17268	-9.6309	23.03406	186.62303	0.0614591	16.271	65.30189	67.03579	24.40929	0.33764	 	7.16045E10	 	3.19103E-11	 	4436.698	26.5804	 
190.0	1.0	0.0	2.67097	10.16895	-9.66397	22.98392	186.70741	0.0607752	16.45409	65.50262	67.14351	24.48867	0.33741	 	1.03838E11	 	2.17697E-11	 	4304.084	26.5228	 
185.0	1.0	0.0	2.67194	10.16524	-9.69692	22.9338	186.78596	0.0600938	16.64066	65.70219	67.2505	24.56762	0.33717	 	1.51807E11	 	1.473E-11	 	4171.759	26.465	 
180.0	1.0	0.0	2.67291	10.16155	-9.72972	22.88372	186.85848	0.0594149	16.8308	65.9006	67.35678	24.64612	0.33694	 	2.23806E11	 	9.8823E-12	 	4039.726	26.4066	 
175.0	1.0	0.0	2.67388	10.15787	-9.76239	22.83367	186.92476	0.0587385	17.02462	66.09786	67.46234	24.72419	0.3367	 	3.32821E11	 	6.57203E-12	 	3907.986	26.348	 
170.0	1.0	0.0	2.67485	10.15421	-9.79493	22.78364	186.9846	0.0580645	17.22221	66.29397	67.5672	24.80182	0.33647	 	4.99389E11	 	4.33111E-12	 	3776.54	26.2892	 
165.0	1.0	0.0	2.67581	10.15056	-9.82733	22.73365	187.03776	0.0573931	17.4237	66.48893	67.67137	24.87901	0.33625	 	7.56291E11	 	2.82762E-12	 	3645.39	26.23	 
160.0	1.0	0.0	2.67677	10.14693	-9.8596	22.68369	187.08403	0.0567241	17.62919	66.68274	67.77485	24.95576	0.33602	 	1.15638E12	 	1.8282E-12	 	3514.538	26.1704	 
155.0	1.0	0.0	2.67772	10.14332	-9.89173	22.63376	187.12314	0.0560576	17.83879	66.8754	67.87765	25.03207	0.33579	 	1.78575E12	 	1.17021E-12	 	3383.987	26.1102	 
150.0	1.0	0.0	2.67867	10.13971	-9.92372	22.58387	187.15486	0.0553936	18.05264	67.06691	67.97978	25.10794	0.33557	 	2.78612E12	 	7.41279E-13	 	3253.738	26.0498	 
145.0	1.0	0.0	2.67962	10.13613	-9.95558	22.534	187.1789	0.054732	18.27085	67.25727	68.08124	25.18338	0.33535	 	4.39337E12	 	4.64538E-13	 	3123.794	25.9888	 
140.0	1.0	0.0	2.68056	10.13256	-9.98731	22.48416	187.19499	0.0540729	18.49355	67.44648	68.18204	25.25837	0.33513	 	7.00461E12	 	2.87879E-13	 	2994.158	25.9272	 
135.0	1.0	0.0	2.6815	10.129	-10.0189	22.43436	187.20284	0.0534163	18.72089	67.63455	68.28219	25.33292	0.33491	 	1.12962E13	 	1.76349E-13	 	2864.831	25.8654	 
130.0	1.0	0.0	2.68244	10.12546	-10.05036	22.38458	187.20213	0.0527621	18.953	67.82147	68.38169	25.40703	0.3347	 	1.84345E13	 	1.06739E-13	 	2735.819	25.8024	 
125.0	1.0	0.0	2.68338	10.12193	-10.08169	22.33484	187.19254	0.0521104	19.19003	68.00725	68.48056	25.48071	0.33449	 	3.0456E13	 	6.38059E-14	 	2607.122	25.7394	 
120.0	1.0	0.0	2.68431	10.11842	-10.11287	22.28513	187.17372	0.0514612	19.43213	68.19189	68.57879	25.55394	0.33427	 	5.09634E13	 	3.76518E-14	 	2478.746	25.6752	 
115.0	1.0	0.0	2.68524	10.11493	-10.14393	22.23545	187.14531	0.0508144	19.67946	68.37538	68.6764	25.62673	0.33406	 	8.64182E13	 	2.1922E-14	 	2350.693	25.6106	 
110.0	1.0	0.0	2.68616	10.11144	-10.17485	22.18579	187.10693	0.0501701	19.93219	68.55774	68.77339	25.69908	0.33386	 	1.48572E14	 	1.25869E-14	 	2222.968	25.545	 
105.0	1.0	0.0	2.68708	10.10798	-10.20564	22.13617	187.05818	0.0495283	20.19047	68.73895	68.86977	25.77099	0.33365	 	2.5911499999999997E14	 	7.12291E-15	 	2095.574	25.4788	 
100.0	1.0	0.0	2.688	10.10453	-10.2363	22.08658	186.99863	0.048889	20.4545	68.91902	68.96554	25.84246	0.33345	 	4.58693E14	 	3.97052E-15	 	1968.517	25.4114	 
95.0	1.0	0.0	2.68891	10.10109	-10.26682	22.03703	186.92784	0.0482522	20.72445	69.09796	69.06072	25.91348	0.33324	 	8.24686E14	 	2.17883E-15	 	1841.8	25.3434	 
90.0	1.0	0.0	2.68982	10.09767	-10.2972	21.9875	186.84533	0.0476179	21.00052	69.27576	69.1553	25.98407	0.33304	 	1.50685E15	 	1.17626E-15	 	1715.43	25.274	 
85.0	1.0	0.0	2.69073	10.09427	-10.32746	21.938	186.7506	0.0469861	21.28291	69.45242	69.24929	26.05421	0.33284	 	2.80002E15	 	6.24296E-16	 	1589.411	25.2038	 
80.0	1.0	0.0	2.69164	10.09088	-10.35758	21.88854	186.64312	0.0463568	21.57182	69.62795	69.3427	26.12391	0.33265	 	5.29507E15	 	3.25517E-16	 	1463.75	25.1322	 
75.0	1.0	0.0	2.69254	10.0875	-10.38757	21.8391	186.52233	0.04573	21.86746	69.80234	69.43554	26.19317	0.33245	 	1.01984E16	 	1.66618E-16	 	1338.452	25.0596	 
70.0	1.0	0.0	2.69343	10.08414	-10.41742	21.7897	186.38763	0.0451059	22.17007	69.9756	69.52781	26.26199	0.33226	 	2.0021E16	 	8.36539E-17	 	1213.525	24.9854	 
65.0	1.0	0.0	2.69433	10.08079	-10.44715	21.74033	186.23838	0.0444843	22.47987	70.14773	69.61952	26.33037	0.33207	 	4.00961E16	 	4.11617E-17	 	1088.976	24.9098	 
60.0	1.0	0.0	2.69522	10.07746	-10.47674	21.69098	186.07391	0.0438652	22.7971	70.31873	69.71068	26.39831	0.33188	 	8.19924E16	 	1.98314E-17	 	964.812	24.8328	 
55.0	1.0	0.0	2.69611	10.07415	-10.5062	21.64167	185.8935	0.0432488	23.12202	70.4886	69.80128	26.4658	0.33169	 	1.71361E17	 	9.34646E-18	 	841.041	24.7542	 
50.0	1.0	0.0	2.69699	10.07084	-10.53552	21.5924	185.69639	0.042635	23.45488	70.65734	69.89134	26.53285	0.33151	 	3.66401E17	 	4.30461E-18	 	717.673	24.6736	 
45.0	1.0	0.0	2.69787	10.06756	-10.56471	21.54314	185.48177	0.0420239	23.79596	70.82495	69.98086	26.59946	0.33132	 	8.02373E17	 	1.93527E-18	 	594.716	24.5914	 
40.0	1.0	0.0	2.69875	10.06429	-10.59378	21.49392	185.24877	0.0414155	24.14553	70.99144	70.06985	26.66563	0.33114	 	1.80163E18	 	8.48346E-19	 	472.182	24.5068	 
35.0	1.0	0.0	2.69962	10.06103	-10.62271	21.44473	184.99645	0.0408098	24.5039	71.1568	70.15832	26.73136	0.33096	 	4.15295E18	 	3.62153E-19	 	350.08	24.4204	 
30.0	1.0	0.0	2.70049	10.05779	-10.6515	21.39559	184.72383	0.0402069	24.87134	71.32105	70.24626	26.79664	0.33078	 	9.84034E18	 	1.50361E-19	 	228.423	24.3314	 
25.0	1.0	0.0	2.70136	10.05456	-10.68017	 	184.42984	0.0396068	25.24819	71.48417	70.33369	26.86149	0.33061	 	2.4001E19	 	6.06305E-20	 	107.222	 	 
