T (C)	Fraction solid (wt)-TOTAL	Fraction liquid (wt)-LIQUID	Density (g/(cm)^3)-TOTAL	Molar volume (cm^3)-TOTAL	Volume change (%)-  	Average expansion coeff. (10e-6 1/K)-  	Thermal conductivity (W/(m*K))-TOTAL	Electrical resistivity (10e-6 Ohm*m)-TOTAL	Electrical conductivity (10e6 1/(Ohm*m))-TOTAL	Young's modulus (GPa)-TOTAL	Bulk modulus (GPa)-TOTAL	Shear modulus(GPa)-TOTAL	Poisson's ratio-TOTAL	Liquid viscosity (mPa s)-  	Total viscosity (mPa s)-  	Liquid diffusivity (10e-9 (m^2)/s)-  	Total diffusivity (10e-9 (m^2)/s)-  	Surface Tension (mN/m)-  	Enthalpy (J/mole)-TOTAL	Specific heat (J/(mole K))-TOTAL	Latent heat (J/mole)-TOTAL
700.0	0.0	1.0	2.42372	11.2366	0.0	55.78907	84.32926	0.28273	3.53698	0.0	50.62357	0.0	0.5	1.33295	1.33295	3.5633	3.5633	898.85694	31470.217	 	0.0
695.0	0.0	1.0	2.4254	11.2288	-0.0694571	55.82081	84.16871	0.28181	3.54848	0.0	50.68656	0.0	0.5	1.34765	1.34765	3.50632	3.50632	900.58644	31313.613	31.3208	0.0
690.0	0.0	1.0	2.42709	11.22101	-0.13871	55.85418	84.00816	0.28089	3.56009	0.0	50.74955	0.0	0.5	1.36267	1.36267	3.44976	3.44976	902.31608	31157.019	31.3188	0.0
685.0	0.0	1.0	2.42877	11.21326	-0.20775	55.88924	83.84761	0.27997	3.57183	0.0	50.81254	0.0	0.5	1.37802	1.37802	3.39363	3.39363	904.04589	31000.436	31.3166	0.0
680.0	0.0	1.0	2.43044	11.20552	-0.27658	55.92601	83.68706	0.27904	3.58369	0.0	50.87554	0.0	0.5	1.39371	1.39371	3.33793	3.33793	905.77587	30843.863	31.3146	0.0
675.0	0.0	1.0	2.43212	11.19781	-0.3452	55.96454	83.52651	0.27811	3.59568	0.0	50.93853	0.0	0.5	1.40974	1.40974	3.28266	3.28266	907.50602	30687.3	31.3126	0.0
670.0	0.0	1.0	2.43379	11.19012	-0.41362	56.00486	83.36596	0.27718	3.6078	0.0	51.00152	0.0	0.5	1.42613	1.42613	3.22782	3.22782	909.23632	30530.748	31.3104	0.0
665.0	0.0	1.0	2.43545	11.18246	-0.48183	56.04702	83.20542	0.27624	3.62004	0.0	51.06451	0.0	0.5	1.44288	1.44288	3.17342	3.17342	910.96679	30374.207	31.3082	0.0
660.0	0.0	1.0	2.43712	11.17482	-0.54982	56.09106	83.04487	0.2753	3.63241	0.0	51.1275	0.0	0.5	1.46002	1.46002	3.11946	3.11946	912.69741	30217.666	31.3082	0.0
655.0	0.0	1.0	2.43878	11.1672	-0.61761	56.13703	82.88432	0.27435	3.64492	0.0	51.19049	0.0	0.5	1.47755	1.47755	3.06594	3.06594	914.4282	30061.323	31.2686	0.0
650.0	0.0	1.0	2.44044	11.15961	-0.6852	56.18496	82.72377	0.27341	3.65756	0.0	51.25348	0.0	0.5	1.49548	1.49548	3.01286	3.01286	916.15914	29905.304	31.2038	0.0
645.0	0.0	1.0	2.4421	11.15204	-0.75257	56.23492	82.56322	0.27245	3.67035	0.0	51.31647	0.0	0.5	1.51383	1.51383	2.96022	2.96022	917.89023	29749.61	31.1388	0.0
640.0	0.0	1.0	2.44375	11.14449	-0.81974	56.28695	82.40267	0.2715	3.68327	0.0	51.37947	0.0	0.5	1.5326	1.5326	2.90803	2.90803	919.62148	29594.242	31.0736	0.0
637.34	0.0	1.0	2.44463	11.14048	-0.85545	56.31555	82.3171	0.27099	3.69021	0.0	51.41304	0.0	0.5	1.54279	1.54279	2.8804	2.8804	920.54427	29511.564	31.024	0.0010
635.0	2.1E-4	0.99979	2.44546	11.13658	-0.89015	56.32004	82.24298	0.27054	3.69637	1.06755E-13	51.43794	3.55867E-14	0.49993	1.55168	1.55168	2.85655	2.85655	921.35304	29432.135	34.0163	7.066
630.0	6.4E-4	0.99936	2.44723	11.12858	-0.96131	56.34919	82.08604	0.26956	3.70974	8.45207E-12	51.49334	2.81775E-12	0.49979	1.57107	1.57107	2.80576	2.80576	923.08481	29263.454	33.7362	21.032
625.0	0.00101	0.99899	2.44898	11.12067	-1.03174	56.38328	81.92881	0.26858	3.72325	5.5001E-11	51.54962	1.83377E-11	0.49967	1.59096	1.59096	2.75535	2.75535	924.81673	29096.572	33.3764	33.526
620.0	0.00135	0.99865	2.45072	11.11271	-1.10256	56.41551	81.77031	0.26761	3.73685	1.74746E-10	51.60621	5.8266E-11	0.49955	1.61135	1.61135	2.70534	2.70534	926.54881	28931.362	33.042	44.671
619.27	0.0014	0.9986	2.45097	11.11165	-1.11196	56.42622	81.74794	0.26746	3.73888	2.00039E-10	51.615	6.67001E-11	0.49954	1.61437	1.61437	2.69806	2.69806	926.80195	28907.347	 	46.195
615.0	0.00414	0.99586	2.45292	11.10283	-1.19049	56.34068	81.62591	0.26658	3.75125	1.84811E-9	51.65109	6.16496E-10	0.49888	1.63001	1.63001	2.6594	2.6594	928.28403	28720.88	42.0964	101.417
610.0	0.0071	0.9929	2.45515	11.09273	-1.28036	56.25228	81.48146	0.26555	3.76581	2.83227E-8	51.70839	9.45248E-9	0.49816	1.64891	1.64891	2.61411	2.61411	930.01965	28507.866	42.6028	161.019
608.93	0.00769	0.99231	2.45562	11.0906	-1.2993	56.23474	81.45035	0.26533	3.76892	4.20741E-8	51.72133	1.40432E-8	0.49802	1.65303	1.65303	2.60444	2.60444	930.38999	28463.135	 	173.055
605.0	0.0832403	0.91676	2.46899	11.03052	-1.83403	53.19574	84.81171	0.25368	3.94204	9.93197E-4	51.80277	3.33622E-4	0.48851	1.67938	2.21271	2.55215	1.93701	931.74228	27507.007	200.172	1008.791
600.0	0.16451	0.83549	2.48373	10.96508	-2.41639	49.9009	88.56978	0.24153	4.14029	0.019443	52.03093	0.00657685	0.47814	1.71436	8.0603	2.48585	0.52872	933.4654	26460.331	209.335	1902.705
595.0	0.23234	0.76766	2.49636	10.90961	-2.91005	47.12561	91.89334	0.23146	4.32039	0.0855998	52.25515	0.0291281	0.46937	1.75073	28.86525	2.42025	0.14679	935.19286	25565.659	178.934	2644.931
590.0	0.2897	0.7103	2.50732	10.8619	-3.33464	44.75467	94.8914	0.22286	4.48719	0.22068	52.47267	0.075479	0.46185	1.78841	74.24806	2.35562	0.0567398	936.92414	24788.838	155.364	3269.633
585.0	0.33881	0.66119	2.51694	10.82036	-3.70429	42.70542	97.63446	0.21534	4.6438	0.43302	52.68397	0.14877	0.45532	1.82735	152.68512	2.29207	0.0274317	938.65872	24104.68	136.832	3801.992
580.0	0.38128	0.61872	2.52549	10.78377	-4.02999	40.91299	100.16835	0.20867	4.79225	0.72168	52.88948	0.24892	0.4496	1.86753	271.91505	2.22968	0.0153137	940.39616	23494.486	122.039	4260.706
575.46	0.41512	0.58488	2.53247	10.75401	-4.29481	39.46544	102.31047	0.20321	4.9209	1.04429	53.07151	0.36135	0.44497	1.9051	421.82246	2.1741	0.00981899	941.97493	22993.093	 	4624.916
575.0	0.67389	0.32611	2.55528	10.65807	-5.14858	33.73976	120.71081	0.17214	5.80908	8.39224	54.39636	2.98442	0.40601	1.91255	2953.23726	2.16445	0.00140172	941.09739	19448.449	809.207	8155.58
574.17	0.82746	0.17254	2.56915	10.60044	-5.66153	30.32525	135.99423	0.15265	6.55095	20.97019	55.18255	7.58418	0.3825	1.92711	6842.35975	2.146	6.04409E-4	939.74094	17342.186	 	10236.922
570.0	1.0	0.0	2.58612	10.53101	-6.27943	26.35141	158.73711	0.13013	7.68436	48.80025	56.17944	18.00448	0.35523	 	16025.65491	 	2.56789E-4	 	14897.582	910.173	12555.602
565.0	1.0	0.0	2.5873	10.52618	-6.32239	26.3002	159.00023	0.12915	7.74301	49.09594	56.37754	18.11846	0.35486	 	17961.38847	 	2.27755E-4	 	14643.77	50.7624	 
560.0	1.0	0.0	2.58849	10.52137	-6.36522	26.24903	159.26292	0.12817	7.80235	49.39031	56.57384	18.23199	0.3545	 	20158.51078	 	2.01721E-4	 	14488.189	31.1162	 
555.0	1.0	0.0	2.58967	10.51657	-6.4079	26.19788	159.52518	0.12719	7.86238	49.68337	56.76837	18.34507	0.35413	 	22655.94447	 	1.78408E-4	 	14333.108	31.0162	 
550.0	1.0	0.0	2.59084	10.51179	-6.45044	26.14677	159.78698	0.12621	7.92312	49.97511	56.96115	18.4577	0.35377	 	25498.93916	 	1.57559E-4	 	14178.512	30.9192	 
545.0	1.0	0.0	2.59202	10.50702	-6.49284	26.09568	160.04832	0.12524	7.98458	50.26554	57.1522	18.56988	0.35342	 	28740.18547	 	1.38941E-4	 	14024.396	30.8232	 
540.0	1.0	0.0	2.59319	10.50228	-6.5351	26.04463	160.30916	0.12427	8.04677	50.55467	57.34155	18.68161	0.35306	 	32441.14008	 	1.22338E-4	 	13870.75	30.7292	 
535.0	1.0	0.0	2.59436	10.49754	-6.57722	25.99361	160.56949	0.12331	8.1097	50.84249	57.52922	18.79289	0.35271	 	36673.60477	 	1.07554E-4	 	13717.568	30.6364	 
530.0	1.0	0.0	2.59553	10.49283	-6.61919	25.94261	160.82929	0.12235	8.17339	51.12901	57.71522	18.90373	0.35235	 	41521.61145	 	9.44081E-5	 	13564.841	30.5454	 
525.0	1.0	0.0	2.59669	10.48813	-6.66102	25.89165	161.08855	0.12139	8.23785	51.41423	57.89959	19.01411	0.352	 	47083.67676	 	8.27372E-5	 	13412.562	30.4558	 
520.0	1.0	0.0	2.59785	10.48344	-6.70272	25.84071	161.34724	0.12044	8.3031	51.69815	58.08234	19.12405	0.35165	 	53475.50383	 	7.23914E-5	 	13260.724	30.3676	 
515.0	1.0	0.0	2.59901	10.47877	-6.74427	25.78981	161.60533	0.11949	8.36914	51.98078	58.2635	19.23354	0.35131	 	60833.22593	 	6.32346E-5	 	13109.319	30.281	 
510.0	1.0	0.0	2.60016	10.47412	-6.78567	25.73893	161.86282	0.11854	8.43599	52.26212	58.44308	19.34259	0.35096	 	69317.30848	 	5.51429E-5	 	12958.339	30.196	 
505.0	1.0	0.0	2.60131	10.46948	-6.82694	25.68809	162.11967	0.1176	8.50367	52.54217	58.62111	19.45118	0.35062	 	79117.25252	 	4.80042E-5	 	12807.777	30.1124	 
500.0	1.0	0.0	2.60246	10.46486	-6.86807	25.63727	162.37587	0.11666	8.57219	52.82094	58.7976	19.55933	0.35027	 	90457.27535	 	4.17164E-5	 	12657.625	30.0304	 
495.0	1.0	0.0	2.60361	10.46026	-6.90905	25.58649	162.63138	0.11572	8.64156	53.09842	58.97258	19.66703	0.34993	 	103603.1861	 	3.61876E-5	 	12507.876	29.9498	 
490.0	1.0	0.0	2.60475	10.45567	-6.9499	25.53574	162.8862	0.11479	8.71181	53.37462	59.14606	19.77429	0.3496	 	118870.7244	 	3.13344E-5	 	12358.522	29.8708	 
485.0	1.0	0.0	2.60589	10.45109	-6.99061	25.48501	163.14028	0.11386	8.78294	53.64955	59.31806	19.8811	0.34926	 	136635.6963	 	2.70818E-5	 	12209.555	29.7934	 
480.0	1.0	0.0	2.60703	10.44654	-7.03117	25.43432	163.39361	0.11293	8.85498	53.9232	59.48861	19.98746	0.34893	 	157346.3198	 	2.33621E-5	 	12060.968	29.7174	 
475.0	1.0	0.0	2.60816	10.44199	-7.07159	25.38365	163.64616	0.11201	8.92794	54.19557	59.65772	20.09338	0.34859	 	181538.2974	 	2.01144E-5	 	11912.754	29.6428	 
470.0	1.0	0.0	2.60929	10.43747	-7.11188	25.33302	163.89791	0.11109	9.00183	54.46668	59.82541	20.19885	0.34826	 	209853.2576	 	1.72841E-5	 	11764.904	29.57	 
465.0	1.0	0.0	2.61042	10.43296	-7.15202	25.28242	164.14882	0.11017	9.07668	54.73652	59.99169	20.30387	0.34793	 	243061.3725	 	1.48223E-5	 	11617.412	29.4984	 
460.0	1.0	0.0	2.61155	10.42846	-7.19203	25.23184	164.39887	0.10926	9.1525	55.00509	60.15659	20.40845	0.34761	 	282089.1598	 	1.26851E-5	 	11470.27	29.4284	 
455.0	1.0	0.0	2.61267	10.42398	-7.23189	25.1813	164.64802	0.10835	9.22932	55.26533	60.31241	20.50996	0.34728	 	328053.742	 	1.08333E-5	 	11323.471	29.3598	 
450.0	1.0	0.0	2.61379	10.41952	-7.27162	25.13078	164.89625	0.10744	9.30714	55.53151	60.47474	20.61369	0.34696	 	382305.1642	 	9.23219E-6	 	11177.006	29.293	 
445.0	1.0	0.0	2.6149	10.41507	-7.3112	25.0803	165.14354	0.10654	9.386	55.79643	60.63574	20.71698	0.34663	 	446478.7962	 	7.85057E-6	 	11030.869	29.2274	 
440.0	1.0	0.0	2.61602	10.41064	-7.35065	25.02985	165.38983	0.10564	9.4659	56.06009	60.79542	20.81983	0.34631	 	522560.3867	 	6.66087E-6	 	10885.052	29.1634	 
435.0	1.0	0.0	2.61713	10.40622	-7.38995	24.97942	165.63511	0.10475	9.54687	56.32249	60.95379	20.92222	0.346	 	612967.0343	 	5.63865E-6	 	10739.547	29.101	 
430.0	1.0	0.0	2.61824	10.40182	-7.42912	24.92903	165.87934	0.10385	9.62893	56.58364	61.11088	21.02418	0.34568	 	720648.2341	 	4.76224E-6	 	10594.348	29.0398	 
425.0	1.0	0.0	2.61934	10.39743	-7.46815	24.87866	166.12249	0.10296	9.71211	56.84354	61.26669	21.12568	0.34537	 	849212.3164	 	4.01254E-6	 	10449.448	28.98	 
420.0	1.0	0.0	2.62044	10.39306	-7.50704	24.82833	166.36451	0.10208	9.79642	57.10219	61.42124	21.22674	0.34505	 	1003085.096	 	3.37269E-6	 	10304.837	28.9222	 
415.0	1.0	0.0	2.62154	10.38871	-7.54579	24.77803	166.60538	0.1012	9.88189	57.3596	61.57456	21.32736	0.34474	 	1187709.489	 	2.82787E-6	 	10160.514	28.8646	 
410.0	1.0	0.0	2.62263	10.38437	-7.5844	24.72775	166.84505	0.10032	9.96853	57.61576	61.72664	21.42753	0.34443	 	1409797.403	 	2.36508E-6	 	10016.478	28.8072	 
405.0	1.0	0.0	2.62373	10.38005	-7.62287	24.67751	167.08349	0.0994394	10.05638	57.8687	61.87541	21.52652	0.34413	 	1677648.505	 	1.97293E-6	 	9872.727	28.7502	 
400.0	1.0	0.0	2.62482	10.37574	-7.66121	24.6273	167.32065	0.0985663	10.14546	58.12239	62.02511	21.62581	0.34382	 	2001554.832	 	1.64146E-6	 	9729.262	28.693	 
395.0	1.0	0.0	2.6259	10.37145	-7.6994	24.57711	167.5565	0.0976964	10.23579	58.37485	62.17363	21.72465	0.34352	 	2394315.928	 	1.36201E-6	 	9586.082	28.636	 
390.0	1.0	0.0	2.62699	10.36717	-7.73746	24.52696	167.791	0.0968298	10.3274	58.62607	62.32097	21.82304	0.34321	 	2871896.712	 	1.12701E-6	 	9443.186	28.5792	 
385.0	1.0	0.0	2.62807	10.36291	-7.77538	24.47684	168.02409	0.0959664	10.42031	58.87605	62.46716	21.921	0.34291	 	3454270.315	 	9.29941E-7	 	9300.573	28.5226	 
380.0	1.0	0.0	2.62914	10.35867	-7.81316	24.42674	168.25575	0.0951063	10.51455	59.1248	62.61221	22.0185	0.34262	 	4166501.367	 	7.65117E-7	 	9158.244	28.4658	 
375.0	1.0	0.0	2.63022	10.35444	-7.85081	24.37668	168.48591	0.0942493	10.61016	59.37232	62.75613	22.11556	0.34232	 	5040142.943	 	6.27653E-7	 	9016.197	28.4094	 
370.0	1.0	0.0	2.63129	10.35022	-7.88831	24.32664	168.71453	0.0933955	10.70716	59.61861	62.89893	22.21218	0.34203	 	6115044.073	 	5.13333E-7	 	8874.432	28.353	 
365.0	1.0	0.0	2.63236	10.34602	-7.92568	24.27664	168.94157	0.0925449	10.80557	59.86368	63.04063	22.30835	0.34173	 	7441696.541	 	4.18541E-7	 	8732.948	28.2968	 
360.0	1.0	0.0	2.63342	10.34184	-7.96291	24.22667	169.16697	0.0916974	10.90543	60.10751	63.18124	22.40407	0.34144	 	9084292.655	 	3.40175E-7	 	8591.746	28.2404	 
355.0	1.0	0.0	2.63448	10.33767	-8.00001	24.17673	169.39068	0.0908531	11.00677	60.35012	63.32077	22.49935	0.34115	 	1.112472371E7	 	2.75588E-7	 	8450.824	28.1844	 
350.0	1.0	0.0	2.63554	10.33352	-8.03696	24.12681	169.61265	0.090012	11.10963	60.59151	63.45924	22.59419	0.34087	 	1.366782787E7	 	2.22526E-7	 	8310.182	28.1284	 
345.0	1.0	0.0	2.6366	10.32938	-8.07378	24.07693	169.83282	0.089174	11.21403	60.83168	63.59665	22.68858	0.34058	 	1.68483038E7	 	1.79071E-7	 	8169.82	28.0724	 
340.0	1.0	0.0	2.63765	10.32526	-8.11046	24.02708	170.05114	0.0883392	11.32001	61.07063	63.73302	22.78252	0.3403	 	2.083985393E7	 	1.43601E-7	 	8029.737	28.0166	 
335.0	1.0	0.0	2.6387	10.32115	-8.14701	23.97725	170.26754	0.0875074	11.4276	61.30837	63.86837	22.87602	0.34001	 	2.586732424E7	 	1.14748E-7	 	7889.934	27.9606	 
330.0	1.0	0.0	2.63974	10.31706	-8.18342	23.92746	170.48197	0.0866788	11.53684	61.54488	64.00269	22.96908	0.33973	 	3.222288745E7	 	9.13582E-8	 	7750.409	27.905	 
325.0	1.0	0.0	2.64079	10.31299	-8.21969	23.8777	170.69437	0.0858533	11.64778	61.78019	64.13601	23.06168	0.33946	 	4.028770569E7	 	7.24643E-8	 	7611.162	27.8494	 
320.0	1.0	0.0	2.64183	10.30893	-8.25583	23.82796	170.90466	0.0850309	11.76043	62.01428	64.26833	23.15385	0.33918	 	5.056105069E7	 	5.72579E-8	 	7472.194	27.7936	 
315.0	1.0	0.0	2.64287	10.30488	-8.29183	23.77826	171.11279	0.0842116	11.87485	62.24716	64.39967	23.24556	0.3389	 	6.369961807E7	 	4.50649E-8	 	7333.503	27.7382	 
310.0	1.0	0.0	2.6439	10.30085	-8.32769	23.72859	171.31868	0.0833953	11.99108	62.47883	64.53004	23.33684	0.33863	 	8.057083997E7	 	3.53256E-8	 	7195.091	27.6824	 
305.0	1.0	0.0	2.64493	10.29684	-8.36342	23.67895	171.52227	0.0825821	12.10916	62.7093	64.65945	23.42766	0.33836	 	1.023255087E8	 	2.75768E-8	 	7056.955	27.6272	 
300.0	1.0	0.0	2.64596	10.29284	-8.39901	23.62933	171.72347	0.081772	12.22912	62.93856	64.7879	23.51804	0.33809	 	1.304971668E8	 	2.14365E-8	 	6919.098	27.5714	 
295.0	1.0	0.0	2.64698	10.28885	-8.43446	23.57975	171.92222	0.080965	12.35102	63.16661	64.91541	23.60798	0.33782	 	1.671387769E8	 	1.6591E-8	 	6781.517	27.5162	 
290.0	1.0	0.0	2.648	10.28488	-8.46978	23.5302	172.11843	0.0801609	12.4749	63.39346	65.042	23.69747	0.33756	 	2.150115737E8	 	1.27835E-8	 	6644.214	27.4606	 
285.0	1.0	0.0	2.64902	10.28093	-8.50496	23.48067	172.31203	0.07936	12.60081	63.61911	65.16766	23.78651	0.33729	 	2.778473296E8	 	9.80463E-9	 	6507.189	27.405	 
280.0	1.0	0.0	2.65004	10.27699	-8.54001	23.43118	172.50292	0.078562	12.7288	63.84356	65.29242	23.87511	0.33703	 	3.607144426E8	 	7.48456E-9	 	6370.44	27.3498	 
275.0	1.0	0.0	2.65105	10.27307	-8.57492	23.38172	172.69103	0.0777671	12.85891	64.06681	65.41627	23.96326	0.33677	 	4.705316414E8	 	5.68587E-9	 	6233.969	27.2942	 
270.0	1.0	0.0	2.65206	10.26916	-8.6097	23.33229	172.87626	0.0769751	12.99121	64.28887	65.53924	24.05097	0.33651	 	6.167927278E8	 	4.29801E-9	 	6097.776	27.2386	 
265.0	1.0	0.0	2.65306	10.26527	-8.64434	23.28288	173.05852	0.0761862	13.12573	64.50973	65.66132	24.13823	0.33626	 	8.125947247E8	 	3.23233E-9	 	5961.861	27.183	 
260.0	1.0	0.0	2.65407	10.26139	-8.67885	23.23351	173.23771	0.0754003	13.26255	64.7294	65.78253	24.22505	0.336	 	1.076104757E9	 	2.41814E-9	 	5826.223	27.1276	 
255.0	1.0	0.0	2.65507	10.25753	-8.71322	23.18417	173.41374	0.0746174	13.40171	64.94787	65.90289	24.31141	0.33575	 	1.432665113E9	 	1.79928E-9	 	5690.864	27.0718	 
250.0	1.0	0.0	2.65606	10.25368	-8.74746	23.13486	173.58649	0.0738374	13.54327	65.16515	66.02239	24.39734	0.3355	 	1.917832274E9	 	1.33138E-9	 	5555.783	27.0162	 
245.0	1.0	0.0	2.65705	10.24985	-8.78156	23.08558	173.75587	0.0730604	13.6873	65.38125	66.14104	24.48281	0.33525	 	2.581791346E9	 	9.79537E-10	 	5420.982	26.9602	 
240.0	1.0	0.0	2.65804	10.24603	-8.81553	23.03632	173.92175	0.0722864	13.83386	65.59615	66.25887	24.56784	0.335	 	3.495809007E9	 	7.16446E-10	 	5286.46	26.9044	 
235.0	1.0	0.0	2.65903	10.24223	-8.84936	22.9871	174.08402	0.0715153	13.98302	65.80987	66.37587	24.65242	0.33475	 	4.761727764E9	 	5.20852E-10	 	5152.218	26.8484	 
230.0	1.0	0.0	2.66001	10.23845	-8.88306	22.93791	174.24257	0.0707472	14.13483	66.0224	66.49205	24.73656	0.33451	 	6.526028404E9	 	3.76301E-10	 	5018.257	26.7922	 
225.0	1.0	0.0	2.66099	10.23467	-8.91662	22.88875	174.39726	0.069982	14.28938	66.23375	66.60742	24.82025	0.33427	 	9.000802078E9	 	2.70126E-10	 	4884.577	26.736	 
220.0	1.0	0.0	2.66197	10.23092	-8.95006	22.83961	174.54797	0.0692198	14.44673	66.44392	66.722	24.90349	0.33403	 	1.2495199999999998E10	 	1.92629E-10	 	4751.179	26.6796	 
215.0	1.0	0.0	2.66295	10.22718	-8.98335	22.79051	174.69456	0.0684605	14.60697	66.6529	66.83579	24.98629	0.33379	 	1.74633E10	 	1.36431E-10	 	4618.064	26.623	 
210.0	1.0	0.0	2.66392	10.22345	-9.01651	22.74144	174.83688	0.0677041	14.77015	66.8607	66.94879	25.06864	0.33355	 	2.4576399999999996E10	 	9.59512E-11	 	4485.233	26.5662	 
205.0	1.0	0.0	2.66488	10.21974	-9.04954	22.6924	174.9748	0.0669506	14.93638	67.06733	67.06102	25.15054	0.33332	 	3.48348E10	 	6.69943E-11	 	4352.687	26.5092	 
200.0	1.0	0.0	2.66585	10.21604	-9.08244	22.64339	175.10815	0.0662001	15.10572	67.27278	67.17248	25.232	0.33308	 	4.974039999999999E10	 	4.64276E-11	 	4220.427	26.452	 
195.0	1.0	0.0	2.66681	10.21236	-9.1152	22.5944	175.23678	0.0654524	15.27827	67.47705	67.28319	25.31301	0.33285	 	7.15666E10	 	3.19273E-11	 	4088.454	26.3946	 
190.0	1.0	0.0	2.66777	10.20869	-9.14783	22.54545	175.36053	0.0647077	15.45411	67.68014	67.39315	25.39357	0.33262	 	1.03782E11	 	2.17814E-11	 	3956.769	26.337	 
185.0	1.0	0.0	2.66872	10.20504	-9.18032	22.49653	175.47921	0.0639658	15.63334	67.88207	67.50236	25.47369	0.3324	 	1.51725E11	 	1.47379E-11	 	3825.375	26.2788	 
180.0	1.0	0.0	2.66967	10.20141	-9.21269	22.44764	175.59264	0.0632269	15.81606	68.08282	67.61085	25.55335	0.33217	 	2.23683E11	 	9.88771E-12	 	3694.271	26.2208	 
175.0	1.0	0.0	2.67062	10.19779	-9.24492	22.39878	175.70064	0.0624908	16.00235	68.28239	67.7186	25.63257	0.33195	 	3.32636E11	 	6.57567E-12	 	3563.461	26.162	 
170.0	1.0	0.0	2.67156	10.19418	-9.27701	22.34995	175.80301	0.0617576	16.19233	68.4808	67.82564	25.71135	0.33172	 	4.99109E11	 	4.33353E-12	 	3432.946	26.103	 
165.0	1.0	0.0	2.67251	10.19059	-9.30898	22.30114	175.89954	0.0610273	16.38611	68.67804	67.93196	25.78967	0.3315	 	7.55863E11	 	2.82922E-12	 	3302.727	26.0438	 
160.0	1.0	0.0	2.67344	10.18701	-9.34081	22.25237	175.99001	0.0602999	16.58378	68.87412	68.03758	25.86755	0.33128	 	1.15572E12	 	1.82925E-12	 	3172.808	25.9838	 
155.0	1.0	0.0	2.67438	10.18345	-9.37251	22.20363	176.07419	0.0595753	16.78548	69.06902	68.1425	25.94498	0.33107	 	1.78471E12	 	1.17088E-12	 	3043.189	25.9238	 
150.0	1.0	0.0	2.67531	10.1799	-9.40407	22.15492	176.15186	0.0588536	16.99131	69.26277	68.24674	26.02196	0.33085	 	2.78448E12	 	7.41714E-13	 	2913.874	25.863	 
145.0	1.0	0.0	2.67624	10.17637	-9.43551	22.10624	176.22274	0.0581348	17.2014	69.45534	68.35029	26.0985	0.33064	 	4.39076E12	 	4.64813E-13	 	2784.865	25.8018	 
140.0	1.0	0.0	2.67717	10.17285	-9.46681	22.05758	176.28659	0.0574189	17.41588	69.64676	68.45316	26.17458	0.33043	 	7.00041E12	 	2.88052E-13	 	2656.164	25.7402	 
135.0	1.0	0.0	2.67809	10.16935	-9.49798	22.00896	176.34313	0.0567058	17.63489	69.83701	68.55537	26.25022	0.33022	 	1.12894E13	 	1.76456E-13	 	2527.775	25.6778	 
130.0	1.0	0.0	2.67901	10.16586	-9.52901	21.96037	176.39207	0.0559956	17.85855	70.02611	68.65691	26.32542	0.33001	 	1.84232E13	 	1.06804E-13	 	2399.701	25.6148	 
125.0	1.0	0.0	2.67992	10.16239	-9.55992	21.91181	176.4331	0.0552882	18.08703	70.21404	68.7578	26.40016	0.3298	 	3.0437E13	 	6.38457E-14	 	2271.945	25.5512	 
120.0	1.0	0.0	2.68083	10.15893	-9.59069	21.86328	176.4659	0.0545838	18.32046	70.40082	68.85805	26.47445	0.3296	 	5.09313E13	 	3.76756E-14	 	2144.511	25.4868	 
115.0	1.0	0.0	2.68174	10.15549	-9.62134	21.81478	176.49014	0.0538822	18.55901	70.58645	68.95765	26.5483	0.3294	 	8.6363E13	 	2.19361E-14	 	2017.402	25.4218	 
110.0	1.0	0.0	2.68265	10.15206	-9.65185	21.76631	176.50545	0.0531835	18.80283	70.77091	69.05661	26.6217	0.3292	 	1.48476E14	 	1.2595E-14	 	1890.623	25.3558	 
105.0	1.0	0.0	2.68355	10.14865	-9.68223	21.71787	176.51146	0.0524877	19.05209	70.95423	69.15495	26.69465	0.329	 	2.5894499999999997E14	 	7.12759E-15	 	1764.177	25.2892	 
100.0	1.0	0.0	2.68445	10.14525	-9.71248	21.66946	176.50778	0.0517947	19.30698	71.13639	69.25266	26.76716	0.3288	 	4.58388E14	 	3.97317E-15	 	1638.071	25.2212	 
95.0	1.0	0.0	2.68535	10.14186	-9.74259	21.62107	176.49399	0.0511047	19.56767	71.3174	69.34976	26.83921	0.3286	 	8.2413E14	 	2.1803E-15	 	1512.307	25.1528	 
90.0	1.0	0.0	2.68624	10.13849	-9.77258	21.57272	176.46963	0.0504176	19.83434	71.49726	69.44625	26.91082	0.32841	 	1.50582E15	 	1.17706E-15	 	1386.893	25.0828	 
85.0	1.0	0.0	2.68713	10.13514	-9.80244	21.5244	176.43425	0.0497334	20.10721	71.67597	69.54214	26.98198	0.32822	 	2.79808E15	 	6.24729E-16	 	1261.833	25.012	 
80.0	1.0	0.0	2.68801	10.1318	-9.83216	21.47611	176.38734	0.0490521	20.38647	71.85353	69.63742	27.05269	0.32803	 	5.29135E15	 	3.25746E-16	 	1137.134	24.9398	 
75.0	1.0	0.0	2.6889	10.12847	-9.86176	21.42785	176.32837	0.0483738	20.67234	72.02995	69.73212	27.12295	0.32784	 	1.01911E16	 	1.66737E-16	 	1012.802	24.8664	 
70.0	1.0	0.0	2.68977	10.12516	-9.89122	21.37962	176.25678	0.0476984	20.96504	72.20522	69.82624	27.19277	0.32765	 	2.00065E16	 	8.37144E-17	 	888.845	24.7914	 
65.0	1.0	0.0	2.69065	10.12187	-9.92056	21.33142	176.17199	0.0470261	21.2648	72.37935	69.91977	27.26213	0.32747	 	4.00667E16	 	4.1192E-17	 	765.268	24.7154	 
60.0	1.0	0.0	2.69152	10.11859	-9.94976	21.28325	176.07334	0.0463567	21.57187	72.55234	70.01273	27.33105	0.32729	 	8.19312E16	 	1.98462E-17	 	642.081	24.6374	 
55.0	1.0	0.0	2.69239	10.11532	-9.97883	21.23511	175.96018	0.0456903	21.88648	72.72418	70.10513	27.39952	0.32711	 	1.71231E17	 	9.35354E-18	 	519.293	24.5576	 
50.0	1.0	0.0	2.69326	10.11207	-10.00778	21.187	175.83177	0.045027	22.2089	72.89489	70.19697	27.46754	0.32693	 	3.6612E17	 	4.30792E-18	 	396.911	24.4764	 
45.0	1.0	0.0	2.69412	10.10883	-10.03659	21.13892	175.68735	0.0443667	22.53941	73.06446	70.28825	27.53512	0.32675	 	8.01747E17	 	1.93679E-18	 	274.946	24.393	 
40.0	1.0	0.0	2.69498	10.10561	-10.06527	21.09086	175.52609	0.0437096	22.87827	73.23289	70.37898	27.60225	0.32657	 	1.8002E18	 	8.49019E-19	 	153.408	24.3076	 
35.0	1.0	0.0	2.69584	10.1024	-10.09383	21.04284	175.34713	0.0430556	23.22579	73.40019	70.46917	27.66893	0.3264	 	4.1496E18	 	3.62446E-19	 	32.309	24.2198	 
30.0	1.0	0.0	2.69669	10.0992	-10.12225	20.99487	175.14951	0.0424048	23.58225	73.56636	70.55882	27.73516	0.32623	 	9.83228E18	 	1.50484E-19	 	-88.34	24.1298	 
25.0	1.0	0.0	2.69754	10.09602	-10.15055	 	174.93224	0.0417572	23.94798	73.73139	70.64794	27.80094	0.32606	 	2.3981E19	 	6.06811E-20	 	-208.525	 	 
