T (C)	Fraction solid (wt)-TOTAL	Fraction liquid (wt)-LIQUID	Density (g/(cm)^3)-TOTAL	Molar volume (cm^3)-TOTAL	Volume change (%)-  	Average expansion coeff. (10e-6 1/K)-  	Thermal conductivity (W/(m*K))-TOTAL	Electrical resistivity (10e-6 Ohm*m)-TOTAL	Electrical conductivity (10e6 1/(Ohm*m))-TOTAL	Young's modulus (GPa)-TOTAL	Bulk modulus (GPa)-TOTAL	Shear modulus(GPa)-TOTAL	Poisson's ratio-TOTAL	Liquid viscosity (mPa s)-  	Total viscosity (mPa s)-  	Liquid diffusivity (10e-9 (m^2)/s)-  	Total diffusivity (10e-9 (m^2)/s)-  	Surface Tension (mN/m)-  	Enthalpy (J/mole)-TOTAL	Specific heat (J/(mole K))-TOTAL	Latent heat (J/mole)-TOTAL
700.0	0.00125	0.99875	2.33062	11.5863	0.0	65.50466	87.05683	0.27387	3.65138	6.58022E-11	49.02866	2.19383E-11	0.49971	1.22594	1.22594	3.87433	3.87433	819.11703	29068.438	 	0.0
695.0	0.00143	0.99857	2.33227	11.57816	-0.0702317	65.59774	86.88302	0.27301	3.66291	1.11873E-10	49.09262	3.72993E-11	0.49967	1.23897	1.23897	3.81391	3.81391	820.79864	28905.291	32.6294	3.658
690.0	0.00159	0.99841	2.33391	11.56996	-0.14097	65.68932	86.70829	0.27214	3.67452	1.75021E-10	49.15624	5.83549E-11	0.49963	1.25228	1.25228	3.75388	3.75388	822.47935	28742.337	32.5908	7.123
685.0	0.00175	0.99825	2.33555	11.56192	-0.21041	65.78974	86.53436	0.27128	3.68629	2.56831E-10	49.22049	8.56335E-11	0.49959	1.26588	1.26588	3.69427	3.69427	824.15819	28579.567	32.554	10.406
680.0	0.0019	0.9981	2.33718	11.55381	-0.28037	65.88873	86.35952	0.27041	3.69814	3.58468E-10	49.2844	1.19524E-10	0.49956	1.27978	1.27978	3.63506	3.63506	825.83602	28416.975	32.5184	13.515
675.0	0.00204	0.99796	2.33881	11.54576	-0.34989	65.99174	86.18465	0.26953	3.71011	4.80618E-10	49.34842	1.60257E-10	0.49953	1.294	1.294	3.57627	3.57627	827.51231	28254.552	32.4846	16.457
670.0	0.00217	0.99783	2.34044	11.53774	-0.41912	66.09806	86.0097	0.26866	3.72221	6.23262E-10	49.41255	2.07824E-10	0.49949	1.30853	1.30853	3.5179	3.5179	829.18707	28092.291	32.4522	19.238
665.0	0.0023	0.9977	2.34206	11.52975	-0.48806	66.20777	85.83469	0.26778	3.73443	7.86048E-10	49.47678	2.62109E-10	0.49947	1.32339	1.32339	3.45995	3.45995	830.86026	27930.183	32.4216	21.868
660.0	0.00242	0.99758	2.34368	11.52171	-0.55742	66.31673	85.65881	0.2669	3.74675	9.68229E-10	49.54065	3.22865E-10	0.49943	1.3386	1.3386	3.40243	3.40243	832.5322	27768.214	32.3938	24.353
655.0	0.00253	0.99747	2.34529	11.51382	-0.62555	66.43476	85.48374	0.26601	3.75923	1.1687E-9	49.60509	3.8972E-10	0.49941	1.35415	1.35415	3.34534	3.34534	834.202	27606.575	32.3278	26.7
650.0	0.00263	0.99737	2.34691	11.50596	-0.6934	66.55638	85.3086	0.26512	3.77185	1.38629E-9	49.66962	4.62285E-10	0.49939	1.37006	1.37006	3.28868	3.28868	835.87012	27445.389	32.2372	28.913
645.0	0.00273	0.99727	2.34851	11.49803	-0.76184	66.67634	85.13257	0.26423	3.78457	1.61907E-9	49.73372	5.39919E-10	0.49936	1.38633	1.38633	3.23245	3.23245	837.53697	27284.673	32.1432	31.0
640.0	0.00282	0.99718	2.35012	11.49026	-0.82892	66.8066	84.95737	0.26333	3.79746	1.86536E-9	49.79843	6.2206E-10	0.49934	1.403	1.403	3.17667	3.17667	839.2015	27124.443	32.046	32.965
635.0	0.00291	0.99709	2.35172	11.48241	-0.89661	66.93523	84.78129	0.26244	3.81045	2.12362E-9	49.86269	7.08195E-10	0.49932	1.42005	1.42005	3.12133	3.12133	840.8647	26964.695	31.9496	34.814
630.0	0.00299	0.99701	2.35331	11.4746	-0.96406	67.06749	84.60515	0.26153	3.82359	2.39197E-9	49.92702	7.97696E-10	0.4993	1.43751	1.43751	3.06644	3.06644	842.5261	26805.421	31.8548	36.554
629.94	0.0030	0.997	2.35333	11.47451	-0.96481	67.0699	84.60293	0.26152	3.82376	2.39561E-9	49.92785	7.98908E-10	0.4993	1.43774	1.43774	3.06574	3.06574	842.54719	26803.394	31.816	36.577
629.94	0.0030	0.997	2.35333	11.47451	-0.96481	67.06989	84.60294	0.26152	3.82376	2.3956E-9	49.92785	7.98908E-10	0.4993	1.43774	1.44255	3.06574	3.05552	842.5472	26803.392	 	36.578
628.36	0.02623	0.97377	2.35721	11.45567	-1.12744	66.2279	85.61257	0.25799	3.87617	8.66533E-6	49.97791	2.89492E-6	0.49665	1.44355	1.49557	3.04806	2.94204	842.30594	26513.66	 	276.604
625.0	0.1124	0.8876	2.37113	11.38837	-1.70833	62.94308	89.41449	0.2461	4.06343	0.00390917	50.23139	0.00131513	0.48623	1.45514	2.44755	3.01252	1.79104	840.47733	25505.068	263.017	1179.734
620.0	0.26015	0.73985	2.3951	11.27442	-2.69177	57.23177	96.62216	0.22647	4.41556	0.12841	50.67705	0.0437327	0.4681	1.47463	26.59374	2.95616	0.16392	836.03144	23811.053	338.803	2716.942
615.0	0.37908	0.62092	2.41494	11.18181	-3.49111	52.6017	103.30645	0.21063	4.74761	0.62584	51.08878	0.21534	0.45313	1.49543	125.41188	2.89872	0.0345648	831.44834	22421.665	277.878	3949.884
610.0	0.46968	0.53032	2.43055	11.11	-4.11086	49.05151	109.17178	0.19819	5.04557	1.55874	51.45516	0.54068	0.44145	1.51715	324.71359	2.84114	0.0132746	827.17855	21328.811	218.571	4886.657
605.0	0.53958	0.46042	2.44298	11.05343	-4.5991	46.29621	114.03522	0.18867	5.30035	2.83244	51.78595	0.98882	0.43223	1.53968	626.28066	2.78372	0.00684363	823.26626	20451.902	175.382	5607.843
600.0	0.59473	0.40527	2.45313	11.0077	-4.99381	44.10707	118.41824	0.18065	5.53559	4.32414	52.09015	1.51746	0.4248	1.56299	1026.36782	2.72659	0.00415215	819.67874	19728.601	144.66	6175.778
595.0	0.63919	0.36081	2.46161	10.9698	-5.32089	42.32753	122.21942	0.17403	5.74618	5.93307	52.37406	2.09106	0.41867	1.58706	1523.28288	2.66986	0.00278164	816.37387	19116.479	122.424	6632.891
592.34	0.65928	0.34072	2.46555	10.95225	-5.47241	41.51758	124.01923	0.17098	5.84871	6.80234	52.51813	2.40219	0.41586	1.60019	1825.39497	2.63984	0.00231415	814.7203	18827.704	 	6839.377
592.34	0.65928	0.34072	2.46555	10.95225	-5.47241	41.51757	124.01923	0.17098	5.84872	6.80235	52.51814	2.4022	0.41586	1.60019	1825.40516	2.63983	0.00231414	814.72021	18827.679	 	6839.393
590.0	0.67641	0.32359	2.46891	10.93732	-5.60121	40.82888	125.60372	0.16836	5.9395	7.6193	52.64679	2.69525	0.41347	1.61117	2127.36943	2.61477	0.0019803	813.22625	18578.637	107.568	7016.079
585.0	0.70841	0.29159	2.47537	10.9088	-5.84744	39.53336	128.65293	0.16342	6.11914	9.36051	52.91156	3.32187	0.40892	1.63534	2854.00135	2.56119	0.00146756	810.23204	18095.119	96.7036	7345.297
580.0	0.73507	0.26493	2.48096	10.88421	-6.05966	38.44584	131.28111	0.15922	6.28074	11.05069	53.16414	3.93247	0.40506	1.6605	3694.07721	2.50768	0.00112721	807.47195	17667.515	85.5208	7618.952
575.72	0.75452	0.24548	2.48521	10.86559	-6.22032	37.64351	133.24619	0.15608	6.40692	12.44059	53.37224	4.43618	0.40217	1.68286	4511.98737	2.46194	9.18244E-4	805.27346	17336.472	 	7818.372
575.0	0.76078	0.23922	2.48632	10.86077	-6.26199	37.40645	133.88647	0.1552	6.44315	12.91797	53.43485	4.6095	0.40123	1.68572	4740.324	2.4557	8.73276E-4	804.59794	17239.886	85.5258	7892.979
570.0	0.79627	0.20373	2.49286	10.83227	-6.50792	36.04595	137.55997	0.15017	6.65919	15.92338	53.81883	5.70388	0.39584	1.7068	6376.58168	2.41106	6.45362E-4	800.28699	16669.495	114.078	8310.116
565.0	0.8212	0.1788	2.49787	10.81056	-6.69528	35.06975	140.19212	0.14648	6.82709	18.3795	54.13712	6.60216	0.39193	1.7296	8092.98555	2.36517	5.05475E-4	796.53643	16228.29	88.241	8598.41
560.0	0.83991	0.16009	2.50195	10.7929	-6.84774	34.32164	142.18072	0.14356	6.96549	20.44278	54.41709	7.35934	0.3889	1.75387	9947.16733	2.31853	4.088E-4	793.20781	15862.572	73.1436	8811.56
555.0	0.85461	0.14539	2.50545	10.77786	-6.97753	33.72088	143.73897	0.14116	7.08434	22.21674	54.67239	8.01214	0.38644	1.77947	11989.88722	2.27147	3.37117E-4	790.21354	15545.277	63.459	8976.624
550.0	0.86653	0.13347	2.50852	10.76463	-7.09173	33.22075	144.99168	0.13909	7.18949	23.7708	54.91052	8.58539	0.38437	1.8063	14270.31901	2.22421	2.81535E-4	787.49431	15261.159	56.8236	9108.849
545.0	0.87645	0.12355	2.51129	10.75275	-7.19422	32.79602	146.01948	0.13727	7.2847	25.15398	55.13634	9.09667	0.38259	1.83433	16840.75528	2.17691	2.37114E-4	785.00417	15000.918	52.0482	9217.529
540.0	0.88487	0.11513	2.51384	10.74188	-7.28805	32.42659	146.8748	0.13564	7.37243	26.40129	55.35265	9.5586	0.38102	1.86353	19757.72929	2.12971	2.00872E-4	782.71155	14758.529	48.4778	9308.688
535.0	0.89213	0.10787	2.5162	10.73181	-7.37498	32.10098	147.59386	0.13415	7.45436	27.53773	55.56146	9.98019	0.37962	1.89389	23084.70586	2.08268	1.70865E-4	780.59036	14529.901	45.7256	9386.412
530.0	0.89847	0.10153	2.51842	10.72235	-7.45664	31.80826	148.20245	0.13277	7.53169	28.58272	55.764	10.36848	0.37835	1.92541	26894.21259	2.03592	1.45755E-4	778.62225	14312.15	43.5502	9453.584
525.0	0.90407	0.09593	2.52052	10.71339	-7.53393	31.54275	148.72296	0.13148	7.60549	29.55347	55.96158	10.72972	0.37718	1.9581	31273.3063	1.98946	1.24565E-4	776.78871	14103.179	41.7942	9512.297
520.0	0.90906	0.090937	2.52253	10.70487	-7.60749	31.30029	149.16754	0.13027	7.67632	30.45923	56.15471	11.06726	0.3761	1.99198	36318.78811	1.94337	1.06589E-4	775.07664	13901.422	40.3514	9564.112
515.0	0.91355	0.086447	2.52445	10.69672	-7.67789	31.07724	149.5487	0.12912	7.74475	31.31042	56.34406	11.38489	0.37509	2.02708	42147.73599	1.89769	9.12686E-5	773.4739	13705.685	39.1474	9610.221
510.0	0.91762	0.082382	2.52631	10.68886	-7.74572	30.86958	149.87518	0.12802	7.81122	32.11435	56.53002	11.68526	0.37414	2.06343	48896.58938	1.85243	7.81723E-5	771.97176	13515.039	38.1292	9651.548
505.0	0.92132	0.078676	2.52811	10.68124	-7.81142	30.67441	150.1543	0.12697	7.87605	32.87802	56.71292	11.97096	0.37324	2.10106	56727.77436	1.80764	6.69506E-5	770.56233	13328.75	37.2578	9688.825
500.0	0.92472	0.075279	2.52985	10.67387	-7.87502	30.49174	150.39189	0.12595	7.93953	33.60581	56.8931	12.24354	0.37239	2.14002	65832.82548	1.76333	5.73202E-5	769.23623	13146.228	36.5044	9722.637
495.0	0.92785	0.072148	2.53155	10.66672	-7.93681	30.31979	150.59227	0.12497	8.00185	34.30224	57.07076	12.50468	0.37158	2.18035	76439.65495	1.71952	4.90472E-5	767.98739	12966.994	35.8468	9753.46
490.0	0.93075	0.069249	2.53321	10.65971	-7.99728	30.15482	150.75993	0.12402	8.06325	34.97163	57.24602	12.75596	0.3708	2.2221	88820.60228	1.67623	4.19356E-5	766.81216	12790.653	35.2682	9781.683
485.0	0.93345	0.066553	2.53484	10.65287	-8.05629	29.99828	150.89799	0.12309	8.12386	35.61629	57.41913	12.99822	0.37005	2.26533	103299.2703	1.63347	3.58216E-5	765.70285	12616.878	34.755	9807.632
480.0	0.93597	0.064035	2.53643	10.64618	-8.11405	29.84867	151.00852	0.12219	8.18378	36.23949	57.59017	13.23265	0.36932	2.3101	120264.3031	1.59125	3.05655E-5	764.65558	12445.392	34.2972	9831.576
475.0	0.93833	0.061673	2.538	10.63961	-8.17072	29.70482	151.09468	0.12131	8.24317	36.8434	57.75929	13.46005	0.36862	2.35647	140181.2644	1.54958	2.60487E-5	763.66605	12275.963	33.8858	9853.746
470.0	0.94055	0.059451	2.53954	10.63316	-8.22641	29.56612	151.15774	0.12045	8.3021	37.43029	57.92656	13.68127	0.36794	2.40452	163609.6989	1.50846	2.21694E-5	762.7305	12108.391	33.5144	9874.337
465.0	0.94265	0.057352	2.54106	10.62681	-8.28127	29.43137	151.2006	0.11961	8.3607	38.00205	58.09211	13.89698	0.36728	2.45431	191224.7938	1.46792	1.88403E-5	761.84513	11942.503	33.1776	9893.516
460.0	0.94464	0.055362	2.54256	10.62055	-8.33528	29.30086	151.22258	0.11878	8.41895	38.56034	58.25593	14.10781	0.36663	2.50594	223839.3974	1.42794	1.59861E-5	761.00653	11778.15	32.8706	9911.429
455.0	0.94653	0.05347	2.54403	10.61438	-8.38854	29.17398	151.22686	0.11797	8.477	39.10642	58.4182	14.31421	0.366	2.55949	262439.4886	1.38852	1.35419E-5	760.21049	11615.202	32.5896	9928.201
450.0	0.94834	0.051664	2.54549	10.60829	-8.44109	29.05039	151.21243	0.11717	8.53479	39.64207	58.57885	14.51685	0.36538	2.61505	308220.7378	1.34969	1.14513E-5	759.45447	11453.541	32.3322	9943.946
445.87	0.94977	0.050234	2.54669	10.60332	-8.48402	28.95043	151.18825	0.11652	8.58246	40.07686	58.71047	14.68146	0.36488	2.66255	352483.6997	1.31804	9.95607E-6	758.85727	11320.886	 	9956.23
445.0	0.96504	0.03496	2.54874	10.5948	-8.55753	28.34946	151.92589	0.11581	8.63477	44.00813	58.74127	16.18644	0.35941	2.69357	386743.2961	1.30129	9.06315E-6	759.76819	11168.092	57.0898	10083.733
443.79	0.97945	0.020555	2.55076	10.5864	-8.62996	27.77805	152.62595	0.11509	8.68914	47.96614	58.78145	17.70906	0.35428	2.73639	426714.4511	1.27878	8.2004E-6	761.01506	11012.297	 	10204.451
440.0	1.0	0.0	2.55413	10.57242	-8.7507	26.93366	153.59526	0.11375	8.79085	54.08255	58.9159	20.07509	0.34701	 	523029.9938	 	6.65489E-6	 	10726.666	88.2852	10379.745
435.0	1.0	0.0	2.55529	10.56761	-8.79219	26.88007	153.43227	0.11308	8.84352	54.34825	59.07905	20.17862	0.34668	 	613521.8186	 	5.63355E-6	 	10579.688	29.3956	 
430.0	1.0	0.0	2.55645	10.56282	-8.83353	26.82652	153.26584	0.1124	8.89675	54.61277	59.24089	20.28173	0.34635	 	721305.1668	 	4.7579E-6	 	10430.746	29.7884	 
425.0	1.0	0.0	2.55761	10.55805	-8.87473	26.773	153.09594	0.11173	8.95053	54.87609	59.40144	20.38442	0.34603	 	849992.0502	 	4.00886E-6	 	10284.453	29.2586	 
420.0	1.0	0.0	2.55876	10.55329	-8.91578	26.7195	152.92256	0.11105	9.00489	55.13823	59.56072	20.48669	0.34571	 	1004012.828	 	3.36957E-6	 	10138.459	29.1988	 
415.0	1.0	0.0	2.55991	10.54855	-8.95669	26.66604	152.74566	0.11038	9.05982	55.39919	59.71874	20.58854	0.34539	 	1188816.043	 	2.82524E-6	 	9992.761	29.1396	 
410.0	1.0	0.0	2.56106	10.54383	-8.99745	26.6126	152.56523	0.10971	9.11535	55.65895	59.87551	20.68998	0.34507	 	1411120.584	 	2.36286E-6	 	9847.358	29.0806	 
405.0	1.0	0.0	2.5622	10.53912	-9.03807	26.5592	152.38123	0.10903	9.17148	55.91754	60.03104	20.79099	0.34475	 	1679234.811	 	1.97107E-6	 	9702.25	29.0216	 
400.0	1.0	0.0	2.56334	10.53443	-9.07855	26.50582	152.19363	0.10836	9.22823	56.17493	60.18536	20.89159	0.34444	 	2003461.614	 	1.6399E-6	 	9557.435	28.963	 
395.0	1.0	0.0	2.56448	10.52976	-9.11888	26.45248	152.00241	0.10769	9.28561	56.43114	60.33846	20.99176	0.34413	 	2396614.119	 	1.3607E-6	 	9412.914	28.9042	 
390.0	1.0	0.0	2.56561	10.5251	-9.15906	26.39916	151.80753	0.10702	9.34363	56.68617	60.49037	21.09151	0.34381	 	2874674.308	 	1.12593E-6	 	9268.684	28.846	 
385.0	1.0	0.0	2.56674	10.52046	-9.19911	26.34588	151.60898	0.10636	9.4023	56.94001	60.6411	21.19084	0.34351	 	3457636.801	 	9.29035E-7	 	9124.746	28.7876	 
380.0	1.0	0.0	2.56787	10.51584	-9.239	26.29262	151.4067	0.10569	9.46163	57.19267	60.79065	21.28974	0.3432	 	4170593.384	 	7.64367E-7	 	8981.099	28.7294	 
375.0	1.0	0.0	2.569	10.51123	-9.27876	26.2394	151.20068	0.10502	9.52165	57.44414	60.93905	21.38822	0.34289	 	5045131.554	 	6.27032E-7	 	8837.741	28.6716	 
370.0	1.0	0.0	2.57012	10.50664	-9.31837	26.1862	150.99087	0.10436	9.58236	57.69443	61.0863	21.48628	0.34259	 	6121144.119	 	5.12822E-7	 	8694.672	28.6138	 
365.0	1.0	0.0	2.57124	10.50207	-9.35784	26.13304	150.77725	0.10369	9.64377	57.94354	61.23242	21.58391	0.34229	 	7449178.727	 	4.1812E-7	 	8551.892	28.556	 
360.0	1.0	0.0	2.57236	10.49752	-9.39716	26.0799	150.55977	0.10303	9.70591	58.19146	61.37741	21.68112	0.34198	 	9093499.214	 	3.3983E-7	 	8409.4	28.4984	 
355.0	1.0	0.0	2.57347	10.49298	-9.43634	26.0268	150.3384	0.10237	9.76878	58.4382	61.52129	21.7779	0.34169	 	1.113608879E7	 	2.75307E-7	 	8267.195	28.441	 
350.0	1.0	0.0	2.57458	10.48845	-9.47538	25.97372	150.1131	0.1017	9.83241	58.68376	61.66407	21.87426	0.34139	 	1.368190412E7	 	2.22297E-7	 	8125.276	28.3838	 
345.0	1.0	0.0	2.57568	10.48395	-9.51427	25.92068	149.88382	0.10104	9.8968	58.92814	61.80576	21.97019	0.34109	 	1.686579726E7	 	1.78885E-7	 	7983.644	28.3264	 
340.0	1.0	0.0	2.57679	10.47946	-9.55302	25.86766	149.65054	0.10038	9.96198	59.17133	61.94638	22.06569	0.3408	 	2.086166993E7	 	1.43451E-7	 	7842.297	28.2694	 
335.0	1.0	0.0	2.57789	10.47498	-9.59163	25.81468	149.4132	0.0997213	10.02795	59.41334	62.08593	22.16076	0.34051	 	2.589462795E7	 	1.14627E-7	 	7701.234	28.2126	 
330.0	1.0	0.0	2.57899	10.47053	-9.63009	25.76172	149.17175	0.0990615	10.09474	59.65417	62.22442	22.2554	0.34022	 	3.225718425E7	 	9.12611E-8	 	7560.456	28.1556	 
325.0	1.0	0.0	2.58008	10.46609	-9.66842	25.70879	148.92616	0.0984023	10.16237	59.89382	62.36187	22.34962	0.33993	 	4.033094818E7	 	7.23866E-8	 	7419.962	28.0988	 
320.0	1.0	0.0	2.58117	10.46166	-9.7066	25.6559	148.67638	0.0977437	10.23084	60.13229	62.49828	22.4434	0.33964	 	5.061578171E7	 	5.7196E-8	 	7279.751	28.0422	 
315.0	1.0	0.0	2.58226	10.45726	-9.74463	25.60303	148.42235	0.0970856	10.30019	60.36958	62.63366	22.53676	0.33936	 	6.376916284E7	 	4.50157E-8	 	7139.824	27.9854	 
310.0	1.0	0.0	2.58334	10.45287	-9.78253	25.55019	148.16402	0.0964281	10.37042	60.60568	62.76803	22.62968	0.33907	 	8.065956521E7	 	3.52867E-8	 	7000.178	27.9292	 
305.0	1.0	0.0	2.58442	10.44849	-9.82028	25.49739	147.90134	0.0957711	10.44156	60.84061	62.9014	22.72218	0.33879	 	1.024391737E8	 	2.75462E-8	 	6860.815	27.8726	 
300.0	1.0	0.0	2.5855	10.44413	-9.85789	25.44461	147.63425	0.0951146	10.51363	61.07436	63.03377	22.81424	0.33851	 	1.306434014E8	 	2.14125E-8	 	6721.734	27.8162	 
295.0	1.0	0.0	2.58658	10.43979	-9.89536	25.39186	147.36271	0.0944586	10.58665	61.30692	63.16516	22.90586	0.33824	 	1.673277349E8	 	1.65723E-8	 	6582.934	27.76	 
290.0	1.0	0.0	2.58765	10.43547	-9.93269	25.33915	147.08663	0.0938031	10.66063	61.53831	63.29557	22.99706	0.33796	 	2.152568315E8	 	1.27689E-8	 	6444.415	27.7038	 
285.0	1.0	0.0	2.58872	10.43116	-9.96988	25.28646	146.80597	0.0931479	10.73561	61.76852	63.42501	23.08782	0.33769	 	2.781671266E8	 	9.79336E-9	 	6306.178	27.6474	 
280.0	1.0	0.0	2.58978	10.42687	-10.00692	25.2338	146.52066	0.0924933	10.8116	61.99755	63.5535	23.17815	0.33741	 	3.611334037E8	 	7.47587E-9	 	6168.221	27.5914	 
275.0	1.0	0.0	2.59085	10.42259	-10.04382	25.18118	146.23063	0.091839	10.88862	62.2254	63.68104	23.26804	0.33714	 	4.710831809E8	 	5.67922E-9	 	6030.545	27.5352	 
270.0	1.0	0.0	2.59191	10.41833	-10.08058	25.12858	145.93581	0.0911851	10.9667	62.45207	63.80764	23.3575	0.33687	 	6.175224218E8	 	4.29293E-9	 	5893.149	27.4792	 
265.0	1.0	0.0	2.59296	10.41409	-10.1172	25.07601	145.63613	0.0905316	11.04586	62.67756	63.93332	23.44652	0.33661	 	8.135650696E8	 	3.22848E-9	 	5756.034	27.423	 
260.0	1.0	0.0	2.59401	10.40986	-10.15368	25.02348	145.3315	0.0898785	11.12613	62.90187	64.05807	23.5351	0.33634	 	1.077401921E9	 	2.41523E-9	 	5619.2	27.3668	 
255.0	1.0	0.0	2.59506	10.40565	-10.19002	24.97097	145.02187	0.0892257	11.20754	63.12501	64.18191	23.62325	0.33608	 	1.434408571E9	 	1.7971E-9	 	5482.646	27.3108	 
250.0	1.0	0.0	2.59611	10.40146	-10.22622	24.91849	144.70713	0.0885732	11.2901	63.34697	64.30484	23.71096	0.33582	 	1.920188639E9	 	1.32975E-9	 	5346.373	27.2546	 
245.0	1.0	0.0	2.59715	10.39728	-10.26228	24.86604	144.38721	0.0879211	11.37384	63.56775	64.42688	23.79824	0.33556	 	2.584994354E9	 	9.78324E-10	 	5210.381	27.1984	 
240.0	1.0	0.0	2.59819	10.39312	-10.29819	24.81363	144.06201	0.0872692	11.4588	63.78736	64.54804	23.88507	0.3353	 	3.500188564E9	 	7.15549E-10	 	5074.669	27.1424	 
235.0	1.0	0.0	2.59923	10.38897	-10.33397	24.76124	143.73145	0.0866176	11.545	64.00578	64.66832	23.97147	0.33504	 	4.767752443E9	 	5.20194E-10	 	4939.24	27.0858	 
230.0	1.0	0.0	2.60026	10.38485	-10.3696	24.70888	143.39542	0.0859663	11.63246	64.22303	64.78772	24.05743	0.33479	 	6.534368042E9	 	3.75821E-10	 	4804.091	27.0298	 
225.0	1.0	0.0	2.60129	10.38073	-10.4051	24.65655	143.05383	0.0853153	11.72123	64.43911	64.90627	24.14294	0.33453	 	9.012420612E9	 	2.69777E-10	 	4669.225	26.9732	 
220.0	1.0	0.0	2.60232	10.37664	-10.44045	24.60425	142.70656	0.0846645	11.81133	64.65401	65.02396	24.22802	0.33428	 	1.2511499999999998E10	 	1.92378E-10	 	4534.641	26.9168	 
215.0	1.0	0.0	2.60334	10.37256	-10.47567	24.55198	142.35352	0.0840139	11.90279	64.86773	65.1408	24.31266	0.33403	 	1.74863E10	 	1.36251E-10	 	4400.341	26.86	 
210.0	1.0	0.0	2.60436	10.36849	-10.51074	24.49975	141.99458	0.0833636	11.99565	65.08027	65.25681	24.39685	0.33378	 	2.4609099999999996E10	 	9.58237E-11	 	4266.324	26.8034	 
205.0	1.0	0.0	2.60538	10.36445	-10.54567	24.44754	141.62962	0.0827135	12.08993	65.29164	65.37199	24.48061	0.33354	 	3.48816E10	 	6.69043E-11	 	4132.591	26.7466	 
200.0	1.0	0.0	2.6064	10.36041	-10.58047	24.39536	141.25852	0.0820635	12.18568	65.50184	65.48634	24.56392	0.33329	 	4.980799999999999E10	 	4.63646E-11	 	3999.144	26.6894	 
195.0	1.0	0.0	2.60741	10.3564	-10.61513	24.34321	140.88115	0.0814138	12.28292	65.71086	65.59988	24.64678	0.33305	 	7.16649E10	 	3.18834E-11	 	3865.983	26.6322	 
190.0	1.0	0.0	2.60841	10.3524	-10.64964	24.29109	140.49737	0.0807643	12.3817	65.9187	65.7126	24.72921	0.33281	 	1.03926E11	 	2.17512E-11	 	3733.108	26.575	 
185.0	1.0	0.0	2.60942	10.34842	-10.68402	24.239	140.10703	0.080115	12.48206	66.12538	65.82453	24.81119	0.33257	 	1.51938E11	 	1.47173E-11	 	3600.522	26.5172	 
180.0	1.0	0.0	2.61042	10.34445	-10.71826	24.18695	139.70999	0.0794659	12.58402	66.33087	65.93567	24.89273	0.33233	 	2.24001E11	 	9.87369E-12	 	3468.226	26.4592	 
175.0	1.0	0.0	2.61142	10.3405	-10.75236	24.13492	139.30609	0.0788169	12.68763	66.53519	66.04601	24.97382	0.3321	 	3.33114E11	 	6.56624E-12	 	3336.22	26.4012	 
170.0	1.0	0.0	2.61241	10.33656	-10.78631	24.08292	138.89516	0.0781681	12.79294	66.73834	66.15558	25.05447	0.33187	 	4.99834E11	 	4.32725E-12	 	3204.506	26.3428	 
165.0	1.0	0.0	2.6134	10.33265	-10.82014	24.03095	138.47704	0.0775195	12.89997	66.94032	66.26438	25.13467	0.33163	 	7.56974E11	 	2.82507E-12	 	3073.085	26.2842	 
160.0	1.0	0.0	2.61439	10.32874	-10.85382	23.97901	138.05153	0.0768711	13.00879	67.14112	66.3724	25.21442	0.3314	 	1.15744E12	 	1.82653E-12	 	2941.96	26.225	 
155.0	1.0	0.0	2.61537	10.32486	-10.88736	23.9271	137.61845	0.0762229	13.11942	67.34075	66.47967	25.29373	0.33117	 	1.7874E12	 	1.16913E-12	 	2811.132	26.1656	 
150.0	1.0	0.0	2.61635	10.32099	-10.92077	23.87522	137.17761	0.0755748	13.23192	67.5392	66.58619	25.37259	0.33095	 	2.78872E12	 	7.40587E-13	 	2680.603	26.1058	 
145.0	1.0	0.0	2.61733	10.31713	-10.95403	23.82337	136.72878	0.074927	13.34633	67.73649	66.69196	25.45101	0.33072	 	4.39753E12	 	4.64099E-13	 	2550.376	26.0454	 
140.0	1.0	0.0	2.6183	10.31329	-10.98716	23.77155	136.27176	0.0742793	13.4627	67.9326	66.79699	25.52898	0.3305	 	7.01132E12	 	2.87604E-13	 	2420.451	25.985	 
135.0	1.0	0.0	2.61927	10.30947	-11.02015	23.71976	135.8063	0.0736319	13.58107	68.12753	66.90129	25.60649	0.33028	 	1.13072E13	 	1.76178E-13	 	2290.833	25.9236	 
130.0	1.0	0.0	2.62024	10.30566	-11.053	23.668	135.33217	0.0729847	13.70151	68.3213	67.00487	25.68356	0.33006	 	1.84526E13	 	1.06634E-13	 	2161.524	25.8618	 
125.0	1.0	0.0	2.62121	10.30187	-11.08572	23.61627	134.84911	0.0723377	13.82405	68.5139	67.10772	25.76018	0.32984	 	3.04862E13	 	6.37426E-14	 	2032.526	25.7996	 
120.0	1.0	0.0	2.62217	10.2981	-11.1183	23.56457	134.35685	0.071691	13.94876	68.70532	67.20986	25.83636	0.32962	 	5.10147E13	 	3.7614E-14	 	1903.842	25.7368	 
115.0	1.0	0.0	2.62312	10.29434	-11.15073	23.5129	133.8551	0.0710445	14.07568	68.89558	67.31129	25.91208	0.32941	 	8.65063E13	 	2.18997E-14	 	1775.477	25.673	 
110.0	1.0	0.0	2.62408	10.2906	-11.18304	23.46126	133.34358	0.0703984	14.20487	69.08466	67.41202	25.98735	0.3292	 	1.48726E14	 	1.25739E-14	 	1647.432	25.609	 
105.0	1.0	0.0	2.62503	10.28687	-11.2152	23.40965	132.82195	0.0697526	14.33638	69.27257	67.51205	26.06217	0.32899	 	2.5938699999999997E14	 	7.11547E-15	 	1519.713	25.5438	 
100.0	1.0	0.0	2.62598	10.28316	-11.24723	23.35807	132.28988	0.0691071	14.47029	69.45931	67.6114	26.13654	0.32878	 	4.5918E14	 	3.96632E-15	 	1392.324	25.4778	 
95.0	1.0	0.0	2.62692	10.27947	-11.27912	23.30652	131.74703	0.0684621	14.60663	69.64489	67.71006	26.21045	0.32857	 	8.25572E14	 	2.17649E-15	 	1265.268	25.4112	 
90.0	1.0	0.0	2.62786	10.27579	-11.31087	23.255	131.19303	0.0678174	14.74547	69.82929	67.80804	26.28392	0.32837	 	1.50849E15	 	1.17498E-15	 	1138.55	25.3436	 
85.0	1.0	0.0	2.6288	10.27212	-11.34248	23.20351	130.62746	0.0671733	14.88687	70.01253	67.90535	26.35693	0.32816	 	2.80311E15	 	6.23607E-16	 	1012.176	25.2748	 
80.0	1.0	0.0	2.62973	10.26848	-11.37396	23.15204	130.04993	0.0665296	15.03089	70.1946	68.002	26.4295	0.32796	 	5.30101E15	 	3.25153E-16	 	886.151	25.205	 
75.0	1.0	0.0	2.63066	10.26485	-11.40531	23.10061	129.45998	0.0658866	15.1776	70.3755	68.09798	26.5016	0.32776	 	1.021E16	 	1.66429E-16	 	760.48	25.1342	 
70.0	1.0	0.0	2.63159	10.26123	-11.43651	23.04921	128.85715	0.0652441	15.32705	70.55523	68.19331	26.57326	0.32756	 	2.0044E16	 	8.35575E-17	 	635.171	25.0618	 
65.0	1.0	0.0	2.63251	10.25763	-11.46758	22.99785	128.24094	0.0646024	15.4793	70.73379	68.28799	26.64446	0.32736	 	4.01431E16	 	4.11136E-17	 	510.228	24.9886	 
60.0	1.0	0.0	2.63343	10.25405	-11.49851	22.9465	127.61082	0.0639615	15.63441	70.91119	68.38203	26.71521	0.32717	 	8.20898E16	 	1.98078E-17	 	385.66	24.9136	 
55.0	1.0	0.0	2.63435	10.25048	-11.52931	22.89518	126.96623	0.0633214	15.79246	71.08742	68.47542	26.7855	0.32698	 	1.71568E17	 	9.3352E-18	 	261.474	24.8372	 
50.0	1.0	0.0	2.63526	10.24693	-11.55997	22.84391	126.30657	0.0626822	15.95349	71.26249	68.56819	26.85534	0.32678	 	3.6685E17	 	4.29934E-18	 	137.679	24.759	 
45.0	1.0	0.0	2.63617	10.24339	-11.59049	22.79265	125.6312	0.0620441	16.11757	71.43639	68.66033	26.92472	0.32659	 	8.03372E17	 	1.93287E-18	 	14.282	24.6794	 
40.0	1.0	0.0	2.63708	10.23987	-11.62088	22.74142	124.93945	0.0614071	16.28475	71.60913	68.75184	26.99365	0.32641	 	1.80391E18	 	8.47274E-19	 	-108.706	24.5976	 
35.0	1.0	0.0	2.63798	10.23636	-11.65114	22.69025	124.23059	0.0607715	16.45509	71.7807	68.84274	27.06213	0.32622	 	4.15828E18	 	3.61689E-19	 	-231.275	24.5138	 
30.0	1.0	0.0	2.63888	10.23287	-11.68125	22.63906	123.50385	0.0601372	16.62864	71.95111	68.93303	27.13015	0.32604	 	9.8532E18	 	1.50164E-19	 	-353.415	24.428	 
25.0	1.0	0.0	2.63978	10.2294	-11.71123	 	122.7584	0.0595045	16.80546	72.12036	69.02271	27.19771	0.32585	 	2.40329E19	 	6.05501E-20	 	-475.113	 	 
