T (C)	Fraction solid (wt)-TOTAL	Fraction liquid (wt)-LIQUID	Density (g/(cm)^3)-TOTAL	Molar volume (cm^3)-TOTAL	Volume change (%)-  	Average expansion coeff. (10e-6 1/K)-  	Thermal conductivity (W/(m*K))-TOTAL	Electrical resistivity (10e-6 Ohm*m)-TOTAL	Electrical conductivity (10e6 1/(Ohm*m))-TOTAL	Young's modulus (GPa)-TOTAL	Bulk modulus (GPa)-TOTAL	Shear modulus(GPa)-TOTAL	Poisson's ratio-TOTAL	Liquid viscosity (mPa s)-  	Total viscosity (mPa s)-  	Liquid diffusivity (10e-9 (m^2)/s)-  	Total diffusivity (10e-9 (m^2)/s)-  	Surface Tension (mN/m)-  	Enthalpy (J/mole)-TOTAL	Specific heat (J/(mole K))-TOTAL	Latent heat (J/mole)-TOTAL
700.0	0.00168	0.99832	2.50271	11.39987	0.0	67.81452	88.29372	0.27003	3.70326	1.71958E-10	49.20642	5.7333E-11	0.49964	1.28469	1.28469	3.69717	3.69717	720.98041	29386.08	 	0.0
695.0	0.00182	0.99818	2.50446	11.39191	-0.0698731	67.92524	88.11734	0.26918	3.71495	2.36445E-10	49.28203	7.88355E-11	0.49961	1.2983	1.2983	3.63961	3.63961	721.98223	29225.228	32.1704	2.39
690.0	0.00195	0.99805	2.50622	11.38384	-0.14059	68.03281	87.94006	0.26833	3.72672	3.13926E-10	49.35715	1.04671E-10	0.49958	1.3122	1.3122	3.58245	3.58245	722.98374	29064.481	32.1494	4.671
685.0	0.00207	0.99793	2.50797	11.37596	-0.20972	68.15113	87.76382	0.26748	3.73866	4.04714E-10	49.43284	1.34945E-10	0.49955	1.32641	1.32641	3.52567	3.52567	723.98477	28903.835	32.1292	6.853
680.0	0.00219	0.99781	2.50971	11.368	-0.27957	68.26709	87.58671	0.26662	3.75069	5.09147E-10	49.50805	1.69769E-10	0.49953	1.34093	1.34093	3.4693	3.4693	724.98547	28743.286	32.1098	8.938
675.0	0.0023	0.9977	2.51145	11.36019	-0.34811	68.39245	87.41056	0.26575	3.76288	6.26991E-10	49.5838	2.09066E-10	0.49951	1.35577	1.35577	3.41333	3.41333	725.98571	28582.828	32.0916	10.933
670.0	0.00241	0.99759	2.51319	11.35229	-0.41738	68.51546	87.23354	0.26489	3.77517	7.58121E-10	49.65905	2.52795E-10	0.49948	1.37094	1.37094	3.35776	3.35776	726.98562	28422.459	32.0738	12.838
665.0	0.00251	0.99749	2.51492	11.34445	-0.48618	68.64323	87.0566	0.26402	3.78759	9.02196E-10	49.73436	3.00841E-10	0.49946	1.38645	1.38645	3.3026	3.3026	727.98511	28262.174	32.057	14.661
660.0	0.00261	0.99739	2.51665	11.33674	-0.55378	68.78014	86.88056	0.26314	3.80019	1.05886E-9	49.81018	3.53085E-10	0.49944	1.40231	1.40231	3.24784	3.24784	728.98413	28101.959	32.043	16.405
655.0	0.0027	0.9973	2.51838	11.32896	-0.62203	68.91528	86.70369	0.26227	3.81288	1.22754E-9	49.88551	4.0934E-10	0.49942	1.41853	1.41853	3.19351	3.19351	729.98281	27942.009	31.99	18.071
650.0	0.00279	0.99721	2.5201	11.32122	-0.68997	69.05454	86.52687	0.26139	3.82572	1.40741E-9	49.96087	4.69325E-10	0.4994	1.43512	1.43512	3.13958	3.13958	730.98107	27782.451	31.9116	19.665
645.0	0.00288	0.99712	2.52181	11.3135	-0.75763	69.19766	86.35003	0.26051	3.83869	1.59803E-9	50.03614	5.32897E-10	0.49938	1.45209	1.45209	3.08608	3.08608	731.96145	27623.292	31.8318	21.189
640.0	0.00296	0.99704	2.52353	11.30583	-0.82492	69.34549	86.1733	0.25962	3.85181	1.79838E-9	50.11154	5.99715E-10	0.49936	1.46946	1.46946	3.033	3.033	732.95984	27464.54	31.7504	22.646
635.0	0.00303	0.99697	2.52523	11.29817	-0.89211	69.49632	85.9965	0.25873	3.86507	2.00817E-9	50.18692	6.69684E-10	0.49934	1.48723	1.48723	2.98034	2.98034	733.95778	27306.192	31.6696	24.04
630.05	0.0031	0.9969	2.52692	11.29064	-0.95814	69.65095	85.82162	0.25784	3.87834	2.22393E-9	50.26147	7.41641E-10	0.49933	1.50523	1.50523	2.92866	2.92866	734.94494	27149.878	31.5897	25.36
630.05	0.00311	0.99689	2.52692	11.29064	-0.95818	69.65073	85.82186	0.25784	3.87835	2.22397E-9	50.26136	7.41657E-10	0.49933	1.50523	1.50969	2.92865	2.92001	734.94495	27149.816	 	25.415
630.0	0.0041	0.9959	2.5271	11.28982	-0.96534	69.61179	85.86443	0.2577	3.8805	2.25933E-9	50.2478	7.53508E-10	0.4992	1.50548	1.51198	2.92801	2.91541	734.9484	27137.384	241.477	36.234
625.0	0.13992	0.86008	2.55147	11.18198	-1.91136	64.21448	92.66342	0.23747	4.21108	0.0129551	50.48192	0.00437022	0.4822	1.5356	3.98418	2.85467	1.10026	734.90133	25501.713	327.134	1515.631
620.0	0.26684	0.73316	2.57467	11.08122	-2.7952	59.12263	99.73442	0.2194	4.55779	0.18595	50.73655	0.0634249	0.46588	1.57058	33.74372	2.77557	0.12919	734.70742	23968.1	306.723	2893.309
615.0	0.36986	0.63014	2.59396	10.99871	-3.51899	54.97291	106.30956	0.20468	4.88562	0.71806	50.97639	0.24722	0.45229	1.60847	131.50113	2.69501	0.0329643	734.52606	22698.341	253.952	4007.473
610.0	0.45094	0.54906	2.60955	10.93287	-4.09653	51.70005	112.22096	0.19281	5.18649	1.63873	51.20298	0.56847	0.44134	1.64837	318.2746	2.61497	0.0135431	734.41136	21669.448	205.779	4881.108
605.0	0.51515	0.48485	2.62221	10.87979	-4.56215	49.10228	117.4166	0.18323	5.45751	2.86259	51.41954	0.99918	0.43247	1.68991	598.21	2.53625	0.00716476	734.37266	20824.887	168.912	5570.747
600.0	0.56678	0.43322	2.63268	10.83626	-4.94399	47.01173	122.02457	0.17531	5.70417	4.28236	51.62939	1.50238	0.42519	1.73297	970.20777	2.45915	0.00439249	734.40712	20117.426	141.492	6123.622
595.0	0.60894	0.39106	2.64146	10.79983	-5.26356	45.29864	126.05829	0.16873	5.92667	5.80686	51.83392	2.04593	0.41913	1.77748	1433.61391	2.38384	0.00295562	734.50896	19512.828	120.92	6573.968
591.27	0.63552	0.36448	2.64715	10.77634	-5.46965	44.21748	128.7317	0.16451	6.07849	6.96965	51.98483	2.46237	0.41523	1.81164	1839.50619	2.32883	0.00229355	734.62523	19114.242	 	6857.615
590.0	0.64474	0.35526	2.64912	10.76823	-5.54078	43.83941	129.66807	0.16309	6.1317	7.40987	52.03519	2.62045	0.41386	1.82291	2000.94724	2.31104	0.00210541	734.66179	18975.126	107.54	6957.751
585.0	0.67739	0.32261	2.6562	10.73899	-5.79731	42.49415	133.06294	0.15801	6.32889	9.15201	52.23078	3.24789	0.40892	1.86848	2709.64292	2.24161	0.00154574	734.84577	18468.084	101.408	7311.205
580.0	0.70461	0.29539	2.66231	10.71382	-6.01809	41.36889	136.00124	0.15369	6.50656	10.84903	52.42536	3.86163	0.40472	1.91571	3532.08369	2.17361	0.00117891	735.08934	18020.399	89.537	7605.631
575.0	0.72756	0.27244	2.66763	10.69185	-6.21076	40.41694	138.54772	0.14998	6.66746	12.47497	52.61887	4.45183	0.40111	1.96459	4477.82256	2.10711	9.24469E-4	735.38673	17619.408	80.1982	7853.692
570.0	0.7471	0.2529	2.67234	10.67246	-6.3809	39.60418	140.76403	0.14675	6.81429	14.01837	52.81157	5.01384	0.39797	2.01512	5561.25732	2.04216	7.39978E-4	735.73257	17255.61	72.7596	8064.886
565.0	0.76388	0.23612	2.67654	10.65509	-6.53323	38.90144	142.6996	0.1439	6.9492	15.47468	53.00319	5.54565	0.39521	2.06729	6800.26939	1.97882	6.01565E-4	736.12234	16921.814	66.7592	8246.399
560.0	0.7784	0.2216	2.68033	10.63941	-6.67083	38.29	144.39742	0.14136	7.07408	16.84438	53.1939	6.04711	0.39276	2.12111	8217.04087	1.91711	4.94874E-4	736.55194	16612.509	61.861	8403.745
555.0	0.79107	0.20893	2.68379	10.62509	-6.79639	37.75308	145.89109	0.13907	7.19041	18.12981	53.38355	6.5188	0.39058	2.17658	9837.57429	1.85704	4.10873E-4	737.01794	16323.406	57.8206	8541.207
550.0	0.80221	0.19779	2.68696	10.61193	-6.91184	37.27897	147.21149	0.13699	7.29956	19.33639	53.57221	6.96248	0.38861	2.23371	11693.98269	1.79862	3.43561E-4	737.5172	16051.126	54.456	8662.162
545.0	0.81204	0.18796	2.68989	10.59974	-7.01875	36.858	148.38276	0.13509	7.4026	20.46952	53.75982	7.37996	0.38683	2.29252	13823.5485	1.74183	2.88868E-4	738.04703	15792.979	51.6294	8769.297
540.0	0.8208	0.1792	2.69263	10.58839	-7.11837	36.48246	149.42545	0.13333	7.50046	21.53486	53.94643	7.77317	0.3852	2.35305	16270.12295	1.68666	2.43931E-4	738.60507	15546.8	49.2358	8864.775
535.0	0.82862	0.17138	2.6952	10.5777	-7.21215	36.14303	150.35699	0.13168	7.59391	22.53875	54.13183	8.14432	0.38371	2.41533	19086.01306	1.63306	2.06663E-4	739.18944	15310.835	47.193	8950.349
530.0	0.83565	0.16435	2.69762	10.56759	-7.30081	35.83529	151.19278	0.13015	7.68366	23.48706	54.31615	8.49548	0.38233	2.47942	22333.04721	1.581	1.75524E-4	739.79826	15083.643	45.4384	9027.453
525.0	0.842	0.158	2.69992	10.558	-7.38491	35.55598	151.94199	0.1287	7.77011	24.38273	54.49929	8.82764	0.38105	2.54536	26081.12273	1.53046	1.49364E-4	740.42991	14864.042	43.9202	9097.268
520.0	0.84776	0.15224	2.70211	10.54885	-7.46518	35.30043	152.61885	0.12732	7.85393	25.23349	54.6813	9.14359	0.37985	2.61322	30418.60561	1.48138	1.27263E-4	741.08292	14651.05	42.5984	9160.774
517.03	0.85093	0.14907	2.70337	10.54361	-7.51113	35.1593	152.989	0.12654	7.90254	25.71761	54.78883	9.32357	0.37917	2.65443	33310.78456	1.45293	1.15779E-4	741.48014	14527.428	 	9195.805
515.0	0.85381	0.14619	2.70428	10.53973	-7.54515	35.04189	153.31875	0.12594	7.94	26.15603	54.8704	9.48658	0.37858	2.68535	35579.11095	1.4325	1.08119E-4	741.79139	14430.847	44.0406	9231.785
510.0	0.86027	0.13973	2.70643	10.5306	-7.62531	34.77656	154.04756	0.12455	8.02867	27.16974	55.06733	9.86393	0.37723	2.76256	41754.03603	1.38363	9.15447E-5	742.5589	14201.949	45.7796	9311.784
505.0	0.86593	0.13407	2.70845	10.52196	-7.70106	34.54053	154.67715	0.12325	8.11329	28.10069	55.25964	10.21102	0.376	2.84149	48891.88171	1.33661	7.76807E-5	743.33086	13983.69	43.6518	9381.432
500.0	0.87093	0.12907	2.71037	10.51377	-7.77291	34.33064	155.22505	0.12203	8.19468	28.96124	55.44817	10.53231	0.37488	2.92229	57168.07131	1.2913	6.60081E-5	744.10837	13774.126	41.9128	9442.67
495.0	0.87538	0.12462	2.71221	10.50592	-7.84176	34.14057	155.70391	0.12087	8.27346	29.76213	55.63334	10.83174	0.37384	3.00511	66788.71785	1.24759	5.61345E-5	744.89268	13571.758	40.4736	9496.992
490.0	0.87938	0.12062	2.71398	10.4984	-7.90773	33.96983	156.12424	0.11976	8.35015	30.51143	55.81567	11.11224	0.37288	3.09006	77999.88069	1.2054	4.77532E-5	745.68427	13375.417	39.2682	9545.565
487.01	0.88158	0.11842	2.71501	10.49401	-7.94624	33.87384	156.35198	0.11911	8.39525	30.93823	55.92354	11.27217	0.37233	3.14202	85589.46249	1.18081	4.33481E-5	746.16208	13260.411	 	9572.262
487.01	0.88158	0.11842	2.71501	10.49401	-7.94624	33.87384	156.35198	0.11911	8.39525	30.93823	55.92354	11.27217	0.37233	3.14202	85589.46249	1.18081	4.33481E-5	746.16208	13260.411	 	9572.262
485.0	0.88299	0.11701	2.71569	10.49112	-7.9716	33.81263	156.49521	0.11869	8.42519	31.21661	55.99541	11.37655	0.37197	3.1773	91094.21277	1.16462	4.0621E-5	746.48323	13184.12	38.2594	9589.368
480.0	0.8863	0.1137	2.71736	10.48404	-8.03367	33.66702	156.82387	0.11766	8.49894	31.88656	56.17278	11.62795	0.37112	3.26693	106431.2705	1.1252	3.45381E-5	747.2894	12997.032	37.4176	9629.231
478.29	0.88736	0.11264	2.71792	10.48169	-8.05431	33.6213	156.92721	0.11732	8.52387	32.10661	56.23295	11.71058	0.37084	3.29815	112253.9578	1.11202	3.26724E-5	747.56694	12934.04	 	9641.987
475.0	0.89976	0.10024	2.72047	10.47037	-8.15363	33.0305	157.94816	0.11605	8.61707	33.96716	56.3636	12.40676	0.3689	3.34427	129477.5459	1.09188	2.82021E-5	748.29664	12703.319	58.7426	9775.985
474.68	0.90085	0.0991484	2.72069	10.46934	-8.16268	32.97787	158.03788	0.11593	8.62568	34.13588	56.37623	12.46996	0.36872	3.34879	131238.0363	1.08994	2.78118E-5	748.36884	12682.059	 	9787.782
470.0	0.98665	0.0133455	2.73778	10.39628	-8.80352	27.86505	164.73505	0.11052	9.04781	47.10131	56.44154	17.36588	0.35615	3.57703	201150.3219	1.01401	1.80319E-5	753.96011	11731.976	194.269	10600.628
465.0	0.99614	0.00385711	2.73983	10.38502	-8.90226	27.3309	165.36879	0.10936	9.14414	48.95122	56.59333	18.07059	0.35444	3.77176	240249.0886	0.95518	1.49958E-5	757.74961	11494.103	47.5746	10692.059
460.0	1.0	0.0	2.74096	10.37808	-8.96322	27.11379	165.55518	0.1085	9.21688	49.86759	56.75174	18.42103	0.35355	 	282294.5418	 	1.26758E-5	 	11309.546	36.9114	10730.428
455.0	1.0	0.0	2.74222	10.37331	-9.00505	27.06032	165.46835	0.10781	9.2753	50.13507	56.92088	18.5246	0.3532	 	328294.248	 	1.08254E-5	 	11110.142	39.8808	 
450.0	1.0	0.0	2.74347	10.36856	-9.04673	27.00689	165.37797	0.10713	9.33433	50.40136	57.08859	18.62776	0.35286	 	382587.4028	 	9.22538E-6	 	10962.104	29.6076	 
445.0	1.0	0.0	2.74473	10.36382	-9.08826	26.95348	165.28399	0.10645	9.39398	50.66648	57.25491	18.73051	0.35251	 	446810.7313	 	7.84473E-6	 	10814.408	29.5392	 
440.0	1.0	0.0	2.74598	10.3591	-9.12965	26.90011	165.1864	0.10577	9.45425	50.93041	57.41984	18.83285	0.35217	 	522951.6382	 	6.65589E-6	 	10667.046	29.4724	 
435.0	1.0	0.0	2.74722	10.3544	-9.1709	26.84677	165.08515	0.1051	9.51517	51.19316	57.58341	18.93478	0.35183	 	613429.2507	 	5.6344E-6	 	10520.012	29.4068	 
430.0	1.0	0.0	2.74847	10.34971	-9.212	26.79346	164.98022	0.10442	9.57674	51.45472	57.74562	19.03629	0.35149	 	721195.5547	 	4.75863E-6	 	10373.298	29.3428	 
425.0	1.0	0.0	2.74971	10.34505	-9.25296	26.74019	164.87157	0.10375	9.63898	51.7151	57.9065	19.13739	0.35115	 	849861.9479	 	4.00947E-6	 	10226.901	29.2794	 
420.0	1.0	0.0	2.75095	10.34039	-9.29378	26.68694	164.75918	0.10307	9.70189	51.97431	58.06605	19.23808	0.35082	 	1003858.031	 	3.37009E-6	 	10080.81	29.2182	 
415.0	1.0	0.0	2.75218	10.33576	-9.33445	26.63373	164.64301	0.1024	9.76549	52.23233	58.2243	19.33835	0.35049	 	1188631.408	 	2.82568E-6	 	9935.021	29.1578	 
410.0	1.0	0.0	2.75341	10.33114	-9.37497	26.58056	164.52303	0.10173	9.8298	52.48917	58.38126	19.43821	0.35015	 	1410899.803	 	2.36323E-6	 	9789.53	29.0982	 
405.0	1.0	0.0	2.75464	10.32653	-9.41536	26.52741	164.3992	0.10106	9.89482	52.74483	58.53694	19.53766	0.34982	 	1678970.125	 	1.97138E-6	 	9644.336	29.0388	 
400.0	1.0	0.0	2.75586	10.32195	-9.4556	26.47429	164.27148	0.1004	9.96057	52.9993	58.69136	19.63669	0.3495	 	2003143.453	 	1.64016E-6	 	9499.438	28.9796	 
395.0	1.0	0.0	2.75708	10.31737	-9.4957	26.42121	164.13983	0.0997301	10.02707	53.2526	58.84453	19.7353	0.34917	 	2396230.648	 	1.36092E-6	 	9354.834	28.9208	 
390.0	1.0	0.0	2.7583	10.31282	-9.53565	26.36816	164.00423	0.0990656	10.09432	53.50472	58.99646	19.83349	0.34885	 	2874210.843	 	1.12611E-6	 	9210.525	28.8618	 
385.0	1.0	0.0	2.75952	10.30828	-9.57546	26.31515	163.86462	0.0984024	10.16235	53.75565	59.14718	19.93127	0.34853	 	3457075.073	 	9.29186E-7	 	9066.509	28.8032	 
380.0	1.0	0.0	2.76073	10.30376	-9.61513	26.26216	163.72097	0.0977405	10.23117	54.00541	59.29669	20.02862	0.34821	 	4169910.593	 	7.64492E-7	 	8922.785	28.7448	 
375.0	1.0	0.0	2.76193	10.29925	-9.65465	26.20921	163.57324	0.0970799	10.30079	54.25399	59.445	20.12556	0.34789	 	5044299.156	 	6.27136E-7	 	8779.354	28.6862	 
370.0	1.0	0.0	2.76314	10.29476	-9.69404	26.15629	163.42138	0.0964205	10.37124	54.50138	59.59214	20.22208	0.34757	 	6120126.263	 	5.12907E-7	 	8636.212	28.6284	 
365.0	1.0	0.0	2.76434	10.29029	-9.73328	26.1034	163.26535	0.0957624	10.44252	54.7476	59.7381	20.31818	0.34726	 	7447930.243	 	4.1819E-7	 	8493.362	28.57	 
360.0	1.0	0.0	2.76554	10.28583	-9.77238	26.05054	163.1051	0.0951054	10.51465	54.99263	59.88291	20.41385	0.34694	 	9091962.995	 	3.39888E-7	 	8350.8	28.5124	 
355.0	1.0	0.0	2.76673	10.28139	-9.81133	25.99772	162.94059	0.0944496	10.58766	55.23649	60.02658	20.50911	0.34663	 	1.113419239E7	 	2.75354E-7	 	8208.527	28.4546	 
350.0	1.0	0.0	2.76792	10.27697	-9.85015	25.94493	162.77176	0.093795	10.66155	55.47917	60.16912	20.60394	0.34632	 	1.367955532E7	 	2.22335E-7	 	8066.542	28.397	 
345.0	1.0	0.0	2.76911	10.27256	-9.88882	25.89217	162.59857	0.0931415	10.73635	55.72067	60.31054	20.69835	0.34602	 	1.686287825E7	 	1.78916E-7	 	7924.845	28.3394	 
340.0	1.0	0.0	2.7703	10.26817	-9.92735	25.83944	162.42096	0.0924891	10.81208	55.96099	60.45085	20.79233	0.34571	 	2.085802963E7	 	1.43476E-7	 	7783.434	28.2822	 
335.0	1.0	0.0	2.77148	10.26379	-9.96573	25.78674	162.23889	0.0918379	10.88875	56.20013	60.59007	20.88589	0.34541	 	2.589007194E7	 	1.14647E-7	 	7642.31	28.2248	 
330.0	1.0	0.0	2.77266	10.25943	-10.00398	25.73408	162.05228	0.0911877	10.96639	56.43809	60.72821	20.97903	0.34511	 	3.225146132E7	 	9.12773E-8	 	7501.471	28.1678	 
325.0	1.0	0.0	2.77383	10.25509	-10.04209	25.68145	161.8611	0.0905386	11.04501	56.67487	60.86527	21.07174	0.34481	 	4.032373249E7	 	7.23996E-8	 	7360.917	28.1108	 
320.0	1.0	0.0	2.775	10.25076	-10.08005	25.62885	161.66528	0.0898905	11.12464	56.91048	61.00127	21.16402	0.34451	 	5.060664896E7	 	5.72063E-8	 	7220.647	28.054	 
315.0	1.0	0.0	2.77617	10.24645	-10.11787	25.57629	161.46475	0.0892435	11.2053	57.1449	61.13623	21.25587	0.34421	 	6.375755813E7	 	4.50239E-8	 	7080.661	27.9972	 
310.0	1.0	0.0	2.77733	10.24215	-10.15555	25.52375	161.25946	0.0885974	11.28701	57.37815	61.27015	21.3473	0.34392	 	8.064475985E7	 	3.52932E-8	 	6940.959	27.9404	 
305.0	1.0	0.0	2.77849	10.23787	-10.19309	25.47125	161.04933	0.0879524	11.36979	57.61022	61.40304	21.4383	0.34363	 	1.024202067E8	 	2.75513E-8	 	6801.54	27.8838	 
300.0	1.0	0.0	2.77965	10.23361	-10.23049	25.41878	160.83431	0.0873083	11.45366	57.84111	61.53491	21.52888	0.34334	 	1.306189994E8	 	2.14165E-8	 	6662.404	27.8272	 
295.0	1.0	0.0	2.78081	10.22936	-10.26775	25.36634	160.61432	0.0866652	11.53865	58.07082	61.66577	21.61902	0.34305	 	1.672962036E8	 	1.65754E-8	 	6523.551	27.7706	 
290.0	1.0	0.0	2.78196	10.22513	-10.30487	25.31394	160.38928	0.086023	11.62479	58.29936	61.79564	21.70873	0.34276	 	2.152159053E8	 	1.27713E-8	 	6384.979	27.7144	 
285.0	1.0	0.0	2.7831	10.22091	-10.34185	25.26156	160.15913	0.0853818	11.7121	58.52672	61.92453	21.79801	0.34248	 	2.781137618E8	 	9.79524E-9	 	6246.689	27.658	 
280.0	1.0	0.0	2.78425	10.21671	-10.37869	25.20922	159.92378	0.0847415	11.8006	58.7529	62.05244	21.88686	0.3422	 	3.61063491E8	 	7.47732E-9	 	6108.68	27.6018	 
275.0	1.0	0.0	2.78539	10.21253	-10.41539	25.15692	159.68316	0.084102	11.89032	58.9779	62.17938	21.97528	0.34191	 	4.709911442E8	 	5.68033E-9	 	5970.953	27.5454	 
270.0	1.0	0.0	2.78653	10.20836	-10.45194	25.10464	159.43718	0.0834634	11.98129	59.20173	62.30536	22.06327	0.34164	 	6.174006554E8	 	4.29378E-9	 	5833.508	27.489	 
265.0	1.0	0.0	2.78766	10.20421	-10.48836	25.0524	159.18574	0.0828257	12.07354	59.42438	62.4304	22.15082	0.34136	 	8.134031443E8	 	3.22912E-9	 	5696.343	27.433	 
260.0	1.0	0.0	2.78879	10.20008	-10.52464	25.00018	158.92878	0.0821889	12.1671	59.64585	62.55451	22.23794	0.34108	 	1.077185457E9	 	2.41571E-9	 	5559.459	27.3768	 
255.0	1.0	0.0	2.78992	10.19596	-10.56078	24.948	158.66617	0.0815528	12.26199	59.86614	62.67768	22.32463	0.34081	 	1.43411763E9	 	1.79746E-9	 	5422.856	27.3206	 
250.0	1.0	0.0	2.79104	10.19185	-10.59677	24.89586	158.39784	0.0809176	12.35825	60.08526	62.79994	22.41088	0.34054	 	1.919795418E9	 	1.33002E-9	 	5286.534	27.2644	 
245.0	1.0	0.0	2.79216	10.18776	-10.63263	24.84374	158.12368	0.0802832	12.45591	60.3032	62.92128	22.49669	0.34027	 	2.584459845E9	 	9.78526E-10	 	5150.494	27.208	 
240.0	1.0	0.0	2.79328	10.18369	-10.66835	24.79166	157.84358	0.0796496	12.55499	60.51996	63.04173	22.58207	0.34	 	3.499457712E9	 	7.15699E-10	 	5014.734	27.152	 
235.0	1.0	0.0	2.79439	10.17964	-10.70393	24.73961	157.55744	0.0790167	12.65555	60.73555	63.16128	22.66701	0.33973	 	4.766747051E9	 	5.20303E-10	 	4879.256	27.0956	 
230.0	1.0	0.0	2.7955	10.1756	-10.73938	24.68759	157.26513	0.0783847	12.7576	60.94996	63.27995	22.75152	0.33947	 	6.532976325E9	 	3.75901E-10	 	4744.06	27.0392	 
225.0	1.0	0.0	2.7966	10.17157	-10.77468	24.6356	156.96654	0.0777534	12.86118	61.16319	63.39775	22.83559	0.33921	 	9.010481704E9	 	2.69835E-10	 	4609.146	26.9828	 
220.0	1.0	0.0	2.79771	10.16756	-10.80984	24.58365	156.66156	0.0771228	12.96634	61.37525	63.51468	22.91922	0.33895	 	1.2508799999999998E10	 	1.9242E-10	 	4474.514	26.9264	 
215.0	1.0	0.0	2.79881	10.16357	-10.84487	24.53173	156.35003	0.0764929	13.0731	61.58613	63.63075	23.00241	0.33869	 	1.74825E10	 	1.36281E-10	 	4340.165	26.8698	 
210.0	1.0	0.0	2.7999	10.15959	-10.87975	24.47984	156.03184	0.0758638	13.18151	61.79584	63.74597	23.08516	0.33843	 	2.4603699999999996E10	 	9.58449E-11	 	4206.1	26.813	 
205.0	1.0	0.0	2.80099	10.15563	-10.9145	24.42798	155.70685	0.0752355	13.29161	62.00437	63.86035	23.16747	0.33818	 	3.48738E10	 	6.69193E-11	 	4072.318	26.7564	 
200.0	1.0	0.0	2.80208	10.15169	-10.94911	24.37616	155.3749	0.0746078	13.40343	62.21172	63.9739	23.24934	0.33792	 	4.979669999999999E10	 	4.63751E-11	 	3938.822	26.6992	 
195.0	1.0	0.0	2.80317	10.14776	-10.98358	24.32436	155.03584	0.0739808	13.51702	62.4179	64.08662	23.33077	0.33767	 	7.16485E10	 	3.18907E-11	 	3805.611	26.6422	 
190.0	1.0	0.0	2.80425	10.14384	-11.01792	24.2726	154.68952	0.0733545	13.63243	62.6229	64.19853	23.41176	0.33742	 	1.03902E11	 	2.17562E-11	 	3672.686	26.585	 
185.0	1.0	0.0	2.80533	10.13994	-11.05211	24.22088	154.33577	0.0727289	13.74969	62.82672	64.30962	23.49231	0.33718	 	1.51903E11	 	1.47207E-11	 	3540.049	26.5274	 
180.0	1.0	0.0	2.8064	10.13606	-11.08617	24.16918	153.97441	0.072104	13.86885	63.02938	64.41992	23.57241	0.33693	 	2.23948E11	 	9.87602E-12	 	3407.7	26.4698	 
175.0	1.0	0.0	2.80747	10.1322	-11.12009	24.11751	153.60526	0.0714798	13.98996	63.23085	64.52941	23.65207	0.33669	 	3.33034E11	 	6.56782E-12	 	3275.641	26.4118	 
170.0	1.0	0.0	2.80854	10.12834	-11.15388	24.06588	153.22813	0.0708563	14.11308	63.43115	64.63812	23.73129	0.33645	 	4.99713E11	 	4.32829E-12	 	3143.873	26.3536	 
165.0	1.0	0.0	2.8096	10.12451	-11.18752	24.01428	152.84283	0.0702334	14.23824	63.63027	64.74605	23.81006	0.33621	 	7.56788E11	 	2.82576E-12	 	3012.398	26.295	 
160.0	1.0	0.0	2.81067	10.12069	-11.22103	23.96272	152.44914	0.0696112	14.36549	63.82822	64.85321	23.88839	0.33597	 	1.15715E12	 	1.82699E-12	 	2881.216	26.2364	 
155.0	1.0	0.0	2.81172	10.11688	-11.2544	23.91118	152.04684	0.0689898	14.49491	64.025	64.9596	23.96627	0.33573	 	1.78695E12	 	1.16942E-12	 	2750.33	26.1772	 
150.0	1.0	0.0	2.81278	10.1131	-11.28763	23.85968	151.63572	0.068369	14.62652	64.2206	65.06523	24.04371	0.3355	 	2.78801E12	 	7.40775E-13	 	2619.741	26.1178	 
145.0	1.0	0.0	2.81383	10.10932	-11.32073	23.80821	151.21551	0.0677488	14.7604	64.41502	65.17011	24.1207	0.33526	 	4.3964E12	 	4.64218E-13	 	2489.452	26.0578	 
140.0	1.0	0.0	2.81487	10.10556	-11.35369	23.75677	150.78598	0.0671294	14.8966	64.60827	65.27425	24.19724	0.33503	 	7.0095E12	 	2.87679E-13	 	2359.464	25.9976	 
135.0	1.0	0.0	2.81591	10.10182	-11.38652	23.70536	150.34686	0.0665107	15.03518	64.80034	65.37764	24.27334	0.33481	 	1.13042E13	 	1.76224E-13	 	2229.78	25.9368	 
130.0	1.0	0.0	2.81695	10.0981	-11.4192	23.65399	149.89788	0.0658927	15.17619	64.99124	65.48031	24.34898	0.33458	 	1.84477E13	 	1.06662E-13	 	2100.403	25.8754	 
125.0	1.0	0.0	2.81799	10.09439	-11.45176	23.60265	149.43873	0.0652754	15.3197	65.18097	65.58225	24.42418	0.33435	 	3.0478E13	 	6.37598E-14	 	1971.334	25.8138	 
120.0	1.0	0.0	2.81902	10.09069	-11.48417	23.55134	148.96911	0.0646589	15.46578	65.36952	65.68347	24.49893	0.33413	 	5.10008E13	 	3.76243E-14	 	1842.578	25.7512	 
115.0	1.0	0.0	2.82005	10.08701	-11.51645	23.50006	148.4887	0.0640431	15.61449	65.5569	65.78398	24.57323	0.33391	 	8.64824E13	 	2.19058E-14	 	1714.136	25.6884	 
110.0	1.0	0.0	2.82107	10.08335	-11.54859	23.44882	147.99715	0.0634281	15.76589	65.7431	65.88378	24.64708	0.33369	 	1.48684E14	 	1.25774E-14	 	1586.013	25.6246	 
105.0	1.0	0.0	2.8221	10.0797	-11.5806	23.3976	147.49412	0.0628139	15.92005	65.92813	65.98289	24.72048	0.33347	 	2.5931299999999997E14	 	7.11749E-15	 	1458.212	25.5602	 
100.0	1.0	0.0	2.82311	10.07606	-11.61247	23.34642	146.97921	0.0622005	16.07705	66.11199	66.0813	24.79343	0.33326	 	4.59048E14	 	3.96746E-15	 	1330.736	25.4952	 
95.0	1.0	0.0	2.82413	10.07245	-11.64421	23.29528	146.45204	0.0615879	16.23695	66.29467	66.17902	24.86593	0.33304	 	8.25332E14	 	2.17712E-15	 	1203.591	25.429	 
90.0	1.0	0.0	2.82514	10.06884	-11.67581	23.24416	145.91217	0.0609762	16.39983	66.47617	66.27606	24.93798	0.33283	 	1.50805E15	 	1.17532E-15	 	1076.779	25.3624	 
85.0	1.0	0.0	2.82614	10.06526	-11.70727	23.19307	145.35916	0.0603655	16.56576	66.65651	66.37243	25.00957	0.33262	 	2.80227E15	 	6.23794E-16	 	950.307	25.2944	 
80.0	1.0	0.0	2.82715	10.06169	-11.7386	23.14202	144.79255	0.0597557	16.73481	66.83567	66.46812	25.08071	0.33241	 	5.29939E15	 	3.25252E-16	 	824.179	25.2256	 
75.0	1.0	0.0	2.82815	10.05813	-11.7698	23.091	144.21182	0.0591469	16.90707	67.01366	66.56316	25.1514	0.33221	 	1.02068E16	 	1.6648E-16	 	698.4	25.1558	 
70.0	1.0	0.0	2.82914	10.05459	-11.80086	23.04001	143.61646	0.0585391	17.08261	67.19047	66.65753	25.22163	0.332	 	2.00378E16	 	8.35836E-17	 	572.977	25.0846	 
65.0	1.0	0.0	2.83014	10.05106	-11.83178	22.98906	143.0059	0.0579324	17.2615	67.36611	66.75125	25.29141	0.3318	 	4.01303E16	 	4.11267E-17	 	447.915	25.0124	 
60.0	1.0	0.0	2.83112	10.04755	-11.86257	22.93814	142.37955	0.0573269	17.44382	67.54058	66.84433	25.36074	0.3316	 	8.20633E16	 	1.98142E-17	 	323.222	24.9386	 
55.0	1.0	0.0	2.83211	10.04406	-11.89323	22.88725	141.73677	0.0567226	17.62966	67.71388	66.93676	25.42961	0.3314	 	1.71512E17	 	9.33825E-18	 	198.905	24.8634	 
50.0	1.0	0.0	2.83309	10.04058	-11.92375	22.83639	141.0769	0.0561196	17.8191	67.886	67.02856	25.49802	0.3312	 	3.66728E17	 	4.30077E-18	 	74.971	24.7868	 
45.0	1.0	0.0	2.83407	10.03712	-11.95413	22.78555	140.39923	0.0555179	18.0122	68.05695	67.11973	25.56598	0.33101	 	8.03101E17	 	1.93352E-18	 	-48.572	24.7086	 
40.0	1.0	0.0	2.83504	10.03367	-11.98439	22.73475	139.70299	0.0549178	18.20905	68.22673	67.21028	25.63348	0.33081	 	1.80329E18	 	8.47565E-19	 	-171.713	24.6282	 
35.0	1.0	0.0	2.83601	10.03023	-12.0145	22.68399	138.98737	0.0543191	18.40972	68.39533	67.3002	25.70053	0.33062	 	4.15683E18	 	3.61815E-19	 	-294.445	24.5464	 
30.0	1.0	0.0	2.83698	10.02682	-12.04449	22.63328	138.2515	0.0537222	18.61428	68.56277	67.38951	25.76711	0.33043	 	9.84971E18	 	1.50218E-19	 	-416.755	24.462	 
25.0	1.0	0.0	2.83794	10.02341	-12.07434	 	137.49448	0.053127	18.82281	68.72903	67.47821	25.83324	0.33024	 	2.40243E19	 	6.05719E-20	 	-538.634	 	 
