T (C)	Fraction solid (wt)-TOTAL	Fraction liquid (wt)-LIQUID	Density (g/(cm)^3)-TOTAL	Molar volume (cm^3)-TOTAL	Volume change (%)-  	Average expansion coeff. (10e-6 1/K)-  	Thermal conductivity (W/(m*K))-TOTAL	Electrical resistivity (10e-6 Ohm*m)-TOTAL	Electrical conductivity (10e6 1/(Ohm*m))-TOTAL	Young's modulus (GPa)-TOTAL	Bulk modulus (GPa)-TOTAL	Shear modulus(GPa)-TOTAL	Poisson's ratio-TOTAL	Liquid viscosity (mPa s)-  	Total viscosity (mPa s)-  	Liquid diffusivity (10e-9 (m^2)/s)-  	Total diffusivity (10e-9 (m^2)/s)-  	Surface Tension (mN/m)-  	Enthalpy (J/mole)-TOTAL	Specific heat (J/(mole K))-TOTAL	Latent heat (J/mole)-TOTAL
1500.0	0.0	1.0	6.95698	7.86773	0.0	26.96646	31.32201	1.84465	0.54211	0.0	106.03939	0.0	0.49975	6.73595	6.73595	1.28479	1.28479	1766.82499	64818.711	 	0.0
1495.0	0.0	1.0	6.96088	7.86332	-0.0559907	26.91607	31.24643	1.8439	0.54233	0.0	106.22499	0.0	0.49975	6.79476	6.79476	1.27008	1.27008	1768.61068	64596.867	44.3688	0.0
1490.0	0.0	1.0	6.96477	7.85893	-0.11183	26.86573	31.17085	1.84314	0.54255	0.0	106.41058	0.0	0.49975	6.85443	6.85443	1.25546	1.25546	1770.39316	64375.534	44.2666	0.0
1485.0	0.0	1.0	6.96865	7.85455	-0.1675	26.81545	31.09527	1.84238	0.54278	0.0	106.59618	0.0	0.49975	6.91496	6.91496	1.24095	1.24095	1772.1724	64154.71	44.1648	0.0
1480.0	0.0	1.0	6.97253	7.85018	-0.22303	26.76522	31.01969	1.84162	0.543	0.0	106.78178	0.0	0.49975	6.97638	6.97638	1.22652	1.22652	1773.94837	63934.391	44.0638	0.0
1475.0	0.0	1.0	6.9764	7.84582	-0.2784	26.71504	30.94411	1.84085	0.54323	0.0	106.96737	0.0	0.49975	7.0387	7.0387	1.2122	1.2122	1775.72102	63714.574	43.9634	0.0
1470.0	0.0	1.0	6.98027	7.84148	-0.33361	26.66492	30.86853	1.84008	0.54345	0.0	107.15297	0.0	0.49975	7.10194	7.10194	1.19797	1.19797	1777.49032	63495.255	43.8638	0.0
1465.0	0.0	1.0	6.98412	7.83715	-0.38866	26.61485	30.79295	1.8393	0.54368	0.0	107.33856	0.0	0.49975	7.16611	7.16611	1.18383	1.18383	1779.25623	63276.431	43.7648	0.0
1460.0	0.0	1.0	6.98798	7.83283	-0.44356	26.56484	30.71736	1.83853	0.54391	0.0	107.52416	0.0	0.49975	7.23124	7.23124	1.1698	1.1698	1781.0187	63058.099	43.6664	0.0
1455.0	0.0	1.0	6.99182	7.82852	-0.49831	26.51489	30.64178	1.83774	0.54415	0.0	107.70975	0.0	0.49975	7.29735	7.29735	1.15585	1.15585	1782.77771	62840.256	43.5686	0.0
1450.0	0.0	1.0	6.99566	7.82423	-0.5529	26.465	30.5662	1.83696	0.54438	0.0	107.89535	0.0	0.49975	7.36444	7.36444	1.14201	1.14201	1784.5332	62622.924	43.4664	0.0
1445.0	0.0	1.0	6.99949	7.81994	-0.60733	26.41516	30.49062	1.83617	0.54461	0.0	108.08094	0.0	0.49975	7.43255	7.43255	1.12826	1.12826	1786.28514	62406.144	43.356	0.0
1442.1	0.0	1.0	7.00171	7.81747	-0.63879	26.3863	30.44685	1.83571	0.54475	0.0	108.18842	0.0	0.49975	7.47247	7.47247	1.12034	1.12034	1787.29804	62280.854	43.2712	0.0040
1440.0	0.0878305	0.91217	7.01739	7.79992	-0.86184	25.8374	30.75642	1.815	0.55096	0.00329448	104.82509	0.00110784	0.4869	7.48788	8.60637	1.11667	0.97154	1786.50423	61406.476	415.472	783.428
1435.0	0.26026	0.73974	7.0489	7.7651	-1.3044	24.75793	31.37894	1.7738	0.56376	0.26032	98.28874	0.0890586	0.46148	7.52501	27.18934	1.10791	0.30663	1784.74719	59657.588	349.778	2316.62
1431.39	0.35458	0.64542	7.0667	7.74553	-1.55314	24.16155	31.72461	1.75077	0.57118	0.91032	94.77474	0.31445	0.44745	7.55223	71.21144	1.10159	0.11683	1783.57809	58667.237	 	3151.703
1430.0	0.40869	0.59131	7.0761	7.73526	-1.68372	23.83873	31.86133	1.74183	0.57411	1.43255	93.56585	0.49747	0.43984	7.56143	130.54395	1.09935	0.063677	1782.3236	58042.597	322.998	3716.451
1425.0	0.56351	0.43649	7.10357	7.70536	-2.0637	22.9112	32.2513	1.71572	0.58285	4.85895	90.38292	1.71347	0.41787	7.59446	546.3515	1.09135	0.0151702	1778.24605	56218.315	364.856	5326.107
1420.0	0.66465	0.33535	7.12251	7.68496	-2.32306	22.29964	32.49188	1.698	0.58893	10.24675	88.54026	3.65086	0.40333	7.62831	1170.42039	1.08331	0.00706058	1774.5992	54963.034	251.056	6367.29
1415.0	0.73415	0.26585	7.13645	7.67005	-2.51255	21.87121	32.64195	1.6852	0.5934	16.61133	87.44761	5.9615	0.39322	7.66269	1889.10672	1.07527	0.00436155	1771.32466	54041.675	184.272	7075.078
1410.0	0.78393	0.21607	7.14723	7.6586	-2.65799	21.55836	32.73395	1.67549	0.59684	23.04386	86.80995	8.3138	0.38588	7.69819	2637.02051	1.06714	0.00311527	1768.36624	53327.835	142.768	7575.868
1405.0	0.82078	0.17922	7.15597	7.64936	-2.77543	21.31896	32.78693	1.66781	0.59959	29.03339	86.46283	10.51652	0.38037	7.73438	3385.03661	1.05899	0.00241966	1765.68317	52749.535	115.66	7941.634
1400.0	0.84881	0.15119	7.16332	7.64165	-2.87349	21.13039	32.81294	1.66153	0.60186	34.38412	86.31042	12.49318	0.37612	7.77125	4123.27775	1.05083	0.00198052	1763.23566	52263.306	97.2458	8215.845
1395.0	0.87064	0.12936	7.16965	7.63503	-2.95768	20.97823	32.81963	1.65622	0.60378	39.07569	86.29314	14.23265	0.37275	7.80935	4851.397	1.04257	0.00167824	1760.99129	51841.777	84.3058	8425.865
1390.0	0.88795	0.11205	7.17525	7.62921	-3.03163	20.85293	32.81236	1.65163	0.60546	43.16791	86.37208	15.7544	0.37003	7.84867	5573.57213	1.03424	0.00145641	1758.92121	51467.051	74.9452	8589.591
1385.0	0.90199	0.0980074	7.18034	7.6239	-3.0991	20.7445	32.79459	1.64755	0.60696	46.75673	86.51994	17.0923	0.36777	7.88844	6297.17903	1.02593	0.00128518	1757.01292	51126.314	68.1474	8719.831
1380.0	0.91363	0.0863689	7.18508	7.61901	-3.16119	20.65007	32.76919	1.64386	0.60833	49.93718	86.71995	18.28043	0.36586	7.92932	7030.82454	1.01757	0.00114761	1755.23858	50810.696	63.1236	8825.455
1376.09	0.92148	0.0785153	7.18861	7.61538	-3.20739	20.58225	32.74562	1.64115	0.60933	52.20323	86.90063	19.12835	0.36455	7.96215	7617.25361	1.01097	0.00105675	1753.92566	50577.358	 	8894.89
1375.0	0.92457	0.0754326	7.19002	7.61395	-3.22557	20.54864	32.74259	1.64022	0.60968	53.09199	86.92805	19.46117	0.36405	7.9755	7818.33524	1.00862	0.00102889	1753.8806	50502.271	61.685	8924.382
1370.0	0.93686	0.0631446	7.19595	7.60786	-3.30292	20.41044	32.72234	1.63625	0.61115	56.78285	87.09639	20.84524	0.36201	8.03661	8736.08481	0.99791	9.18009E-4	1753.74436	50177.652	64.9238	9039.997
1365.0	0.94662	0.0533809	7.20125	7.60248	-3.37138	20.29599	32.69358	1.63271	0.61248	59.91252	87.32204	22.02113	0.36034	8.09943	9651.00317	0.98716	8.28453E-4	1753.66383	49880.732	59.384	9128.404
1360.0	0.95458	0.0454209	7.2061	7.59756	-3.43388	20.19731	32.65863	1.62947	0.6137	62.62408	87.58862	23.04156	0.35894	8.16293	10577.98594	0.97649	7.53546E-4	1753.63947	49603.66	55.4144	9197.453
1355.0	0.96118	0.0388197	7.21063	7.59302	-3.49163	20.11124	32.61903	1.62645	0.61484	65.00799	87.88631	23.93988	0.35773	8.22821	11527.3084	0.96577	6.89371E-4	1753.65631	49341.528	52.4264	9252.047
1350.0	0.96673	0.0332667	7.21491	7.58874	-3.54603	20.03395	32.57576	1.62361	0.61591	67.13196	88.20765	24.74116	0.35669	8.29426	12507.87359	0.95514	6.33376E-4	1753.71876	49090.898	50.126	9295.622
1345.0	0.97146	0.0285373	7.219	7.58468	-3.59754	19.96423	32.52965	1.6209	0.61694	69.04645	88.54769	25.46414	0.35576	8.36213	13527.50877	0.94447	5.83832E-4	1753.81121	48849.297	48.3202	9330.645
1340.0	0.97553	0.0244695	7.22293	7.58079	-3.647	19.8998	32.48115	1.61831	0.61793	70.78913	88.90271	26.12282	0.35493	8.43076	14593.38934	0.93389	5.39517E-4	1753.94221	48614.947	46.87	9358.895
1335.0	0.97907	0.0209336	7.22674	7.57704	-3.69469	19.83992	32.43077	1.6158	0.61889	72.39186	89.26966	26.72907	0.35418	8.50089	15712.74571	0.92331	4.9953E-4	1754.1008	48386.439	45.7016	9381.776
1330.0	0.98217	0.017835	7.23045	7.5734	-3.74096	19.78366	32.37883	1.61336	0.61983	73.87799	89.64651	27.29162	0.35349	8.57261	16892.47704	0.91274	4.63199E-4	1754.2846	48162.739	44.74	9400.321
1325.0	0.9849	0.0150976	7.23408	7.56985	-3.78606	19.73032	32.32558	1.61098	0.62074	75.26619	90.03156	27.81744	0.35286	8.64549	18139.42149	0.90222	4.30012E-4	1754.4923	47943.043	43.9392	9415.328
1320.0	0.98733	0.0126658	7.23765	7.56638	-3.83022	19.67925	32.27123	1.60864	0.62164	76.57189	90.42334	28.31231	0.35227	8.71962	19460.58015	0.89176	3.99565E-4	1754.72472	47726.722	43.2642	9427.425
1315.0	0.98951	0.0104901	7.24115	7.56297	-3.87352	19.63031	32.21595	1.60634	0.62253	77.8066	90.82097	28.78052	0.35172	8.79536	20863.10648	0.8813	3.71535E-4	1754.97154	47513.273	42.6898	9437.112
1310.0	0.99146	0.00853553	7.2446	7.55962	-3.91613	19.58295	32.15986	1.60408	0.62341	78.98078	91.22339	29.22602	0.35121	8.87231	22354.7145	0.87091	3.45652E-4	1755.23962	47302.294	42.1958	9444.788
1305.0	0.99323	0.00676799	7.24801	7.55631	-3.95812	19.53705	32.10307	1.60184	0.62428	80.10251	91.63019	29.65182	0.35072	8.95096	23943.36952	0.86053	3.21699E-4	1755.51992	47093.457	41.7674	9450.779
1300.0	0.99484	0.00516481	7.25139	7.55305	-3.99962	19.49224	32.04566	1.59963	0.62515	81.17892	92.04048	30.06061	0.35025	9.03093	25637.64067	0.85021	2.99488E-4	1755.819	46886.493	41.3928	9455.35
1295.0	0.9963	0.00370224	7.25473	7.54982	-4.04064	19.44847	31.98772	1.59743	0.62601	82.21576	92.45398	30.45455	0.34981	9.11256	27446.5123	0.83991	2.78861E-4	1756.12818	46681.179	41.0628	9458.723
1290.0	0.99764	0.00236379	7.25805	7.54663	-4.08126	19.40553	31.9293	1.59525	0.62686	83.21822	92.87031	30.83559	0.34939	9.19557	29380.03791	0.82968	2.59678E-4	1756.44951	46477.329	40.77	9461.08
1285.0	0.99887	0.00113394	7.26134	7.54346	-4.12152	19.3633	31.87052	1.59308	0.62771	84.19008	93.28886	31.20516	0.34898	9.28033	31448.15098	0.81947	2.41825E-4	1756.78233	46274.787	40.5084	9462.574
1280.0	1.0	0.0	7.26461	7.54031	-4.16148	19.32165	31.81151	1.59091	0.62857	85.13565	93.70963	31.56487	0.34858	 	33662.88125	 	2.2519E-4	 	46073.423	40.2728	9463.334
1275.0	1.0	0.0	7.26702	7.53782	-4.19317	19.30435	31.74859	1.58894	0.62935	85.64279	94.13973	31.75775	0.34838	 	35865.95397	 	2.10677E-4	 	45840.446	46.5954	 
1270.0	1.0	0.0	7.26942	7.53533	-4.22481	19.28705	31.68567	1.58695	0.63014	86.15123	94.5701	31.95117	0.34817	 	38229.70554	 	1.97013E-4	 	45647.041	38.681	 
1265.0	1.0	0.0	7.27182	7.53285	-4.2564	19.26977	31.62275	1.58495	0.63093	86.66094	95.00069	32.14511	0.34796	 	40767.01011	 	1.84152E-4	 	45453.906	38.627	 
1260.0	1.0	0.0	7.27421	7.53036	-4.28795	19.25248	31.55983	1.58295	0.63173	87.17189	95.43147	32.33959	0.34776	 	43491.86316	 	1.72053E-4	 	45261.044	38.5724	 
1255.0	1.0	0.0	7.27661	7.52789	-4.31944	19.23521	31.4969	1.58094	0.63253	87.68407	95.86243	32.53457	0.34755	 	46419.48687	 	1.60676E-4	 	45068.458	38.5172	 
1250.0	1.0	0.0	7.279	7.52541	-4.35089	19.21793	31.43398	1.57892	0.63334	88.19744	96.29354	32.73006	0.34735	 	49566.44597	 	1.49983E-4	 	44876.145	38.4626	 
1245.0	1.0	0.0	7.28139	7.52294	-4.38229	19.20067	31.37105	1.5769	0.63416	88.71199	96.72477	32.92604	0.34714	 	52950.77546	 	1.39936E-4	 	44684.106	38.4078	 
1240.0	1.0	0.0	7.28378	7.52047	-4.41364	19.18341	31.30812	1.57486	0.63498	89.22769	97.15608	33.12251	0.34693	 	56592.1212	 	1.30501E-4	 	44492.336	38.354	 
1235.0	1.0	0.0	7.28616	7.51801	-4.44495	19.16615	31.24519	1.57282	0.6358	89.74452	97.58747	33.31946	0.34673	 	60511.895	 	1.21644E-4	 	44300.832	38.3008	 
1230.0	1.0	0.0	7.28855	7.51555	-4.4762	19.1489	31.18226	1.57077	0.63663	90.26245	98.01889	33.51688	0.34652	 	64733.44568	 	1.13334E-4	 	44109.593	38.2478	 
1225.0	1.0	0.0	7.29093	7.5131	-4.50741	19.13166	31.11932	1.56871	0.63747	90.78146	98.45033	33.71477	0.34632	 	69282.24779	 	1.05541E-4	 	43918.619	38.1948	 
1220.0	1.0	0.0	7.29331	7.51065	-4.53857	19.11442	31.05639	1.56664	0.63831	91.30152	98.88177	33.9131	0.34611	 	74186.11016	 	9.82353E-5	 	43727.908	38.1422	 
1215.0	1.0	0.0	7.29569	7.5082	-4.56968	19.09719	30.99345	1.56457	0.63915	91.82262	99.31316	34.11188	0.3459	 	79475.40621	 	9.13904E-5	 	43537.458	38.09	 
1210.0	1.0	0.0	7.29806	7.50575	-4.60074	19.07996	30.93051	1.56248	0.64001	92.34474	99.7445	34.3111	0.3457	 	85183.32868	 	8.49801E-5	 	43347.269	38.0378	 
1205.0	1.0	0.0	7.30044	7.50331	-4.63176	19.06274	30.86757	1.56039	0.64086	92.86784	100.17575	34.51074	0.34549	 	91346.17137	 	7.89796E-5	 	43157.338	37.9862	 
1200.0	1.0	0.0	7.30281	7.50088	-4.66272	19.04553	30.80463	1.55829	0.64173	93.3919	100.60689	34.7108	0.34529	 	98003.64105	 	7.33654E-5	 	42967.666	37.9344	 
1195.0	1.0	0.0	7.30518	7.49845	-4.69364	19.02832	30.74169	1.55618	0.6426	93.91691	101.0379	34.91128	0.34508	 	105199.2029	 	6.81153E-5	 	42778.25	37.8832	 
1190.0	1.0	0.0	7.30754	7.49602	-4.72451	19.01112	30.67874	1.55406	0.64347	94.44283	101.46875	35.11216	0.34487	 	112980.4635	 	6.3208E-5	 	42589.089	37.8322	 
1185.0	1.0	0.0	7.30991	7.49359	-4.75534	18.99392	30.6158	1.55194	0.64436	94.96965	101.89943	35.31343	0.34467	 	121399.5952	 	5.86235E-5	 	42400.181	37.7816	 
1180.0	1.0	0.0	7.31227	7.49117	-4.78611	18.97673	30.55285	1.5498	0.64524	95.49735	102.3299	35.51509	0.34446	 	130513.8075	 	5.43426E-5	 	42211.526	37.731	 
1175.0	1.0	0.0	7.31463	7.48875	-4.81684	18.95954	30.4899	1.54766	0.64614	96.0259	102.76014	35.71713	0.34426	 	140385.87	 	5.03474E-5	 	42023.122	37.6808	 
1170.0	1.0	0.0	7.31699	7.48634	-4.84752	18.94236	30.42694	1.54551	0.64704	96.55528	103.19014	35.91954	0.34405	 	151084.6936	 	4.66206E-5	 	41834.968	37.6308	 
1165.0	1.0	0.0	7.31935	7.48393	-4.87815	18.92518	30.36399	1.54335	0.64794	97.08547	103.61986	36.12231	0.34384	 	162685.9772	 	4.3146E-5	 	41647.061	37.5814	 
1160.0	1.0	0.0	7.3217	7.48152	-4.90874	18.90801	30.30104	1.54117	0.64886	97.61644	104.04929	36.32544	0.34364	 	175272.9258	 	3.99083E-5	 	41459.401	37.532	 
1155.0	1.0	0.0	7.32405	7.47912	-4.93927	18.89085	30.23808	1.539	0.64977	98.14818	104.4784	36.52891	0.34343	 	188937.0513	 	3.6893E-5	 	41271.986	37.483	 
1150.0	1.0	0.0	7.3264	7.47672	-4.96976	18.87369	30.17512	1.53681	0.6507	98.68066	104.90717	36.73272	0.34323	 	203779.0638	 	3.40861E-5	 	41084.815	37.4342	 
1145.0	1.0	0.0	7.32875	7.47433	-5.0002	18.85654	30.11216	1.53461	0.65163	99.21385	105.33558	36.93687	0.34302	 	219909.8652	 	3.14749E-5	 	40897.885	37.386	 
1140.0	1.0	0.0	7.3311	7.47193	-5.0306	18.83939	30.04919	1.5324	0.65257	99.74775	105.76361	37.14133	0.34281	 	237451.6577	 	2.90469E-5	 	40711.196	37.3378	 
1135.0	1.0	0.0	7.33344	7.46955	-5.06094	18.82225	29.98623	1.53019	0.65351	100.28233	106.19124	37.34611	0.34261	 	256539.1807	 	2.67906E-5	 	40524.745	37.2902	 
1130.0	1.0	0.0	7.33578	7.46716	-5.09124	18.80512	29.92326	1.52796	0.65447	100.81755	106.61845	37.5512	0.3424	 	277321.0928	 	2.46949E-5	 	40338.532	37.2426	 
1125.0	1.0	0.0	7.33812	7.46478	-5.12149	18.78799	29.8603	1.52573	0.65542	101.35342	107.0452	37.75658	0.3422	 	299961.5162	 	2.27497E-5	 	40152.553	37.1958	 
1120.0	1.0	0.0	7.34046	7.46241	-5.1517	18.77086	29.79733	1.52349	0.65639	101.8899	107.4715	37.96226	0.34199	 	324641.7644	 	2.0945E-5	 	39966.809	37.1488	 
1115.0	1.0	0.0	7.34279	7.46003	-5.18185	18.75374	29.73435	1.52123	0.65736	102.42696	107.8973	38.16822	0.34178	 	351562.2752	 	1.92717E-5	 	39781.296	37.1026	 
1110.0	1.0	0.0	7.34512	7.45767	-5.21196	18.73663	29.67138	1.51897	0.65834	102.9646	108.3226	38.37446	0.34158	 	380944.7772	 	1.77212E-5	 	39596.014	37.0564	 
1105.0	1.0	0.0	7.34745	7.4553	-5.24202	18.71952	29.6084	1.5167	0.65933	103.50279	108.74738	38.58096	0.34137	 	413034.7165	 	1.62853E-5	 	39410.959	37.011	 
1100.0	1.0	0.0	7.34978	7.45294	-5.27203	18.70242	29.54543	1.51442	0.66032	104.04151	109.1716	38.78773	0.34117	 	448103.9807	 	1.49564E-5	 	39226.131	36.9656	 
1095.0	1.0	0.0	7.35211	7.45058	-5.302	18.68533	29.48245	1.51213	0.66132	104.58073	109.59526	38.99475	0.34096	 	486453.9547	 	1.37271E-5	 	39041.528	36.9206	 
1090.0	1.0	0.0	7.35443	7.44823	-5.33192	18.66824	29.41946	1.50983	0.66233	105.12044	110.01834	39.20201	0.34075	 	528418.955	 	1.25908E-5	 	38857.147	36.8762	 
1085.0	1.0	0.0	7.35675	7.44588	-5.36179	18.65115	29.35648	1.50751	0.66334	105.66062	110.44081	39.40951	0.34055	 	574370.0899	 	1.1541E-5	 	38672.987	36.832	 
1080.0	1.0	0.0	7.35907	7.44353	-5.39161	18.63407	29.29349	1.50519	0.66437	106.20125	110.86265	39.61725	0.34034	 	624719.6022	 	1.05718E-5	 	38489.046	36.7882	 
1075.0	1.0	0.0	7.36139	7.44119	-5.42139	18.617	29.23051	1.50286	0.6654	106.74229	111.28385	39.8252	0.34014	 	679925.7595	 	9.67751E-6	 	38305.321	36.745	 
1070.0	1.0	0.0	7.3637	7.43885	-5.45112	18.59993	29.16752	1.50052	0.66643	107.28375	111.70439	40.03337	0.33993	 	740498.3642	 	8.85293E-6	 	38121.81	36.7022	 
1065.0	1.0	0.0	7.36601	7.43651	-5.4808	18.58287	29.10453	1.49817	0.66748	107.82559	112.12425	40.24174	0.33972	 	807004.9663	 	8.09311E-6	 	37938.512	36.6596	 
1060.0	1.0	0.0	7.36832	7.43418	-5.51043	18.56582	29.04153	1.49581	0.66853	108.36779	112.54341	40.45032	0.33952	 	880077.8762	 	7.39341E-6	 	37755.424	36.6176	 
1055.0	1.0	0.0	7.37063	7.43185	-5.54002	18.54877	28.97854	1.49344	0.66959	108.91033	112.96185	40.65909	0.33931	 	960422.0846	 	6.7495E-6	 	37572.543	36.5762	 
1050.0	1.0	0.0	7.37294	7.42953	-5.56956	18.53172	28.91554	1.49106	0.67066	109.4532	113.37955	40.86804	0.33911	 	1048824.215	 	6.15734E-6	 	37389.868	36.535	 
1045.0	1.0	0.0	7.37524	7.42721	-5.59905	18.51468	28.85254	1.48867	0.67174	109.99638	113.79651	41.07717	0.3389	 	1146162.652	 	5.61313E-6	 	37207.397	36.4942	 
1040.0	1.0	0.0	7.37754	7.42489	-5.6285	18.49765	28.78954	1.48627	0.67283	110.53983	114.21269	41.28648	0.33869	 	1253419.01	 	5.11334E-6	 	37025.126	36.4542	 
1035.0	1.0	0.0	7.37984	7.42258	-5.65789	18.48062	28.72653	1.48386	0.67392	111.08355	114.62808	41.49594	0.33849	 	1371691.124	 	4.65466E-6	 	36843.054	36.4144	 
1030.0	1.0	0.0	7.38214	7.42027	-5.68724	18.4636	28.66353	1.48143	0.67502	111.62752	115.04266	41.70556	0.33828	 	1502207.791	 	4.234E-6	 	36661.177	36.3754	 
1025.0	1.0	0.0	7.38443	7.41797	-5.71655	18.44658	28.60052	1.479	0.67613	112.1717	115.45643	41.91533	0.33807	 	1646345.498	 	3.84849E-6	 	36479.493	36.3368	 
1020.0	1.0	0.0	7.38672	7.41566	-5.7458	18.42957	28.53751	1.47656	0.67725	112.7161	115.86935	42.12524	0.33787	 	1805647.426	 	3.49545E-6	 	36298.0	36.2986	 
1015.0	1.0	0.0	7.38901	7.41337	-5.77501	18.41257	28.4745	1.4741	0.67838	113.26067	116.28141	42.33528	0.33766	 	1981845.059	 	3.17237E-6	 	36116.695	36.261	 
1010.0	1.0	0.0	7.3913	7.41107	-5.80418	18.39557	28.41148	1.47164	0.67951	113.80542	116.6926	42.54545	0.33746	 	2176882.778	 	2.87693E-6	 	35935.575	36.224	 
1005.0	1.0	0.0	7.39359	7.40878	-5.83329	18.37858	28.34847	1.46916	0.68066	114.35031	117.1029	42.75574	0.33725	 	2392945.875	 	2.60697E-6	 	35754.637	36.1876	 
1000.0	1.0	0.0	7.39587	7.40649	-5.86236	18.36159	28.28545	1.46668	0.68181	114.89532	117.51229	42.96614	0.33704	 	2632492.491	 	2.36047E-6	 	35573.879	36.1516	 
995.0	1.0	0.0	7.39815	7.40421	-5.89138	18.34461	28.22243	1.46418	0.68298	115.44044	117.92075	43.17664	0.33684	 	2898290.059	 	2.13558E-6	 	35393.297	36.1164	 
990.0	1.0	0.0	7.40043	7.40193	-5.92035	18.32763	28.1594	1.46167	0.68415	115.98565	118.32828	43.38725	0.33663	 	3193456.937	 	1.93055E-6	 	35212.887	36.082	 
985.0	1.0	0.0	7.40271	7.39965	-5.94928	18.31066	28.09638	1.45915	0.68533	116.53093	118.73485	43.59794	0.33643	 	3521509.99	 	1.74377E-6	 	35032.648	36.0478	 
980.0	1.0	0.0	7.40498	7.39738	-5.97816	18.29369	28.03335	1.45662	0.68652	117.07625	119.14044	43.80872	0.33622	 	3886419.056	 	1.57377E-6	 	34852.576	36.0144	 
975.0	1.0	0.0	7.40725	7.39511	-6.007	18.27673	27.97032	1.45408	0.68772	117.62161	119.54505	44.01957	0.33601	 	4292669.319	 	1.41914E-6	 	34672.667	35.9818	 
970.0	1.0	0.0	7.40952	7.39285	-6.03578	18.25978	27.90729	1.45152	0.68893	118.16697	119.94866	44.23049	0.33581	 	4745332.827	 	1.27863E-6	 	34492.918	35.9498	 
965.0	1.0	0.0	7.41179	7.39059	-6.06452	18.24283	27.84425	1.44896	0.69015	118.71233	120.35124	44.44147	0.3356	 	5250150.563	 	1.15103E-6	 	34313.325	35.9186	 
960.0	1.0	0.0	7.41405	7.38833	-6.09321	18.22589	27.78122	1.44638	0.69138	119.25766	120.75279	44.65251	0.3354	 	5813626.724	 	1.03527E-6	 	34133.885	35.888	 
955.0	1.0	0.0	7.41631	7.38608	-6.12186	18.20895	27.71818	1.44379	0.69262	119.80294	121.15329	44.8636	0.33519	 	6443137.139	 	9.30338E-7	 	33954.594	35.8582	 
950.0	1.0	0.0	7.41857	7.38383	-6.15046	18.19202	27.65514	1.44119	0.69387	120.34816	121.55273	45.07473	0.33498	 	7147054.055	 	8.35294E-7	 	33775.449	35.829	 
945.0	1.0	0.0	7.42083	7.38158	-6.17901	18.1751	27.5921	1.43858	0.69513	120.8933	121.95109	45.28589	0.33478	 	7934889.917	 	7.49284E-7	 	33596.444	35.801	 
940.0	1.0	0.0	7.42309	7.37934	-6.20752	18.15818	27.52905	1.43596	0.6964	121.43833	122.34835	45.49707	0.33457	 	8817463.215	 	6.71518E-7	 	33417.576	35.7736	 
935.0	1.0	0.0	7.42534	7.3771	-6.23598	18.14126	27.466	1.43332	0.69768	121.98324	122.7445	45.70828	0.33437	 	9807089.959	 	6.01267E-7	 	33238.841	35.747	 
930.0	1.0	0.0	7.42759	7.37486	-6.26439	18.12436	27.40295	1.43067	0.69897	122.52801	123.13953	45.9195	0.33416	 	1.0917805E7	 	5.37862E-7	 	33060.234	35.7214	 
925.0	1.0	0.0	7.42984	7.37263	-6.29275	18.10745	27.3399	1.42801	0.70027	123.07262	123.53341	46.13072	0.33396	 	1.21656181E7	 	4.80688E-7	 	32881.752	35.6964	 
920.0	1.0	0.0	7.43209	7.3704	-6.32107	18.09056	27.27685	1.42534	0.70159	123.61706	123.92615	46.34195	0.33375	 	1.356881055E7	 	4.2918E-7	 	32703.388	35.6728	 
915.0	1.0	0.0	7.43433	7.36818	-6.34934	18.07367	27.2138	1.42266	0.70291	124.1613	124.31772	46.55316	0.33354	 	1.514827911E7	 	3.8282E-7	 	32525.139	35.6498	 
910.0	1.0	0.0	7.43657	7.36596	-6.37757	18.05678	27.15074	1.41996	0.70425	124.70532	124.70811	46.76437	0.33334	 	1.692793526E7	 	3.41132E-7	 	32346.999	35.628	 
905.0	1.0	0.0	7.43881	7.36374	-6.40575	18.0399	27.08768	1.41725	0.70559	125.24912	125.0973	46.97554	0.33313	 	1.893516922E7	 	3.03681E-7	 	32168.963	35.6072	 
900.0	1.0	0.0	7.44105	7.36153	-6.43388	18.02303	27.02462	1.41453	0.70695	125.79266	125.48528	47.18669	0.33293	 	2.120138978E7	 	2.7007E-7	 	31991.026	35.5874	 
895.0	1.0	0.0	7.44328	7.35932	-6.46197	18.00616	26.96156	1.41179	0.70832	126.33593	125.87204	47.39781	0.33272	 	2.376265309E7	 	2.39933E-7	 	31813.183	35.5686	 
890.0	1.0	0.0	7.44551	7.35711	-6.49001	17.9893	26.8985	1.40905	0.7097	126.87891	126.25755	47.60888	0.33251	 	2.666039592E7	 	2.12939E-7	 	31635.426	35.5514	 
885.0	1.0	0.0	7.44774	7.35491	-6.518	17.97244	26.83543	1.40629	0.71109	127.42158	126.64182	47.8199	0.33231	 	2.994229179E7	 	1.88785E-7	 	31457.752	35.5348	 
880.0	1.0	0.0	7.44997	7.35271	-6.54595	17.95559	26.77237	1.40351	0.7125	127.96393	127.02482	48.03086	0.3321	 	3.366325156E7	 	1.67192E-7	 	31280.153	35.5198	 
875.0	1.0	0.0	7.45219	7.35052	-6.57385	17.93874	26.7093	1.40073	0.71391	128.50593	127.40654	48.24176	0.3319	 	3.788659459E7	 	1.47911E-7	 	31102.622	35.5062	 
870.0	1.0	0.0	7.45442	7.34832	-6.6017	17.9219	26.64623	1.39793	0.71534	129.04757	127.78697	48.45259	0.33169	 	4.268542082E7	 	1.3071E-7	 	30925.154	35.4936	 
865.0	1.0	0.0	7.45664	7.34614	-6.62951	17.90507	26.58316	1.39512	0.71679	129.58883	128.16609	48.66334	0.33148	 	4.814422056E7	 	1.15383E-7	 	30747.741	35.4826	 
860.0	1.0	0.0	7.45885	7.34395	-6.65727	17.88824	26.52009	1.39229	0.71824	130.12969	128.54389	48.874	0.33128	 	5.436076531E7	 	1.01739E-7	 	30570.377	35.4728	 
855.0	1.0	0.0	7.46107	7.34177	-6.68498	17.87141	26.45702	1.38945	0.71971	130.67013	128.92036	49.08457	0.33107	 	6.144833158E7	 	8.96073E-8	 	30393.052	35.465	 
850.0	1.0	0.0	7.46328	7.3396	-6.71265	17.8546	26.39395	1.3866	0.72119	131.21014	129.29549	49.29505	0.33087	 	6.953831964E7	 	7.88316E-8	 	30215.761	35.4582	 
845.0	1.0	0.0	7.46549	7.33742	-6.74027	17.83779	26.33088	1.38373	0.72268	131.74969	129.66925	49.50542	0.33066	 	7.878334132E7	 	6.92711E-8	 	30038.493	35.4536	 
840.0	1.0	0.0	7.4677	7.33525	-6.76785	17.82098	26.26781	1.38085	0.72419	132.28877	130.04164	49.71567	0.33045	 	8.936086574E7	 	6.07985E-8	 	29861.242	35.4502	 
835.0	1.0	0.0	7.46991	7.33309	-6.79537	17.80418	26.20474	1.37796	0.72571	132.82736	130.41265	49.92581	0.33025	 	1.014775293E8	 	5.32985E-8	 	29683.997	35.449	 
830.0	1.0	0.0	7.47211	7.33092	-6.82286	17.78738	26.14167	1.37505	0.72725	133.36544	130.78226	50.13582	0.33004	 	1.153742382E8	 	4.66673E-8	 	29506.75	35.4494	 
825.0	1.0	0.0	7.47431	7.32877	-6.85029	17.7706	26.0786	1.37213	0.72879	133.90299	131.15047	50.3457	0.32984	 	1.313322164E8	 	4.0811E-8	 	29329.49	35.452	 
820.0	1.0	0.0	7.47651	7.32661	-6.87768	17.75381	26.01553	1.36919	0.73036	134.44001	131.51725	50.55544	0.32963	 	1.496801862E8	 	3.56453E-8	 	29152.208	35.4564	 
815.0	1.0	0.0	7.4787	7.32446	-6.90503	17.73704	25.95247	1.36624	0.73193	134.97645	131.88259	50.76503	0.32942	 	1.708029025E8	 	3.10943E-8	 	28974.892	35.4632	 
810.0	1.0	0.0	7.4809	7.32231	-6.93233	17.72026	25.8894	1.36328	0.73353	135.51232	132.24649	50.97447	0.32922	 	1.951513131E8	 	2.70897E-8	 	28797.531	35.4722	 
805.0	1.0	0.0	7.48309	7.32017	-6.95958	17.7035	25.82634	1.3603	0.73513	136.0476	132.60894	51.18375	0.32901	 	2.2325467E8	 	2.35703E-8	 	28620.113	35.4836	 
800.0	1.0	0.0	7.48528	7.31803	-6.98678	17.68674	25.76327	1.3573	0.73675	136.58226	132.96991	51.39287	0.32881	 	2.557349891E8	 	2.04813E-8	 	28442.626	35.4974	 
795.0	1.0	0.0	7.48746	7.31589	-7.01394	17.66998	25.70021	1.35429	0.73839	137.11628	133.3294	51.60181	0.3286	 	2.933243376E8	 	1.77734E-8	 	28265.055	35.5142	 
790.0	1.0	0.0	7.48965	7.31376	-7.04106	17.65323	25.63716	1.35127	0.74004	137.64966	133.6874	51.81057	0.32839	 	3.368855332E8	 	1.54028E-8	 	28087.388	35.5334	 
785.0	1.0	0.0	7.49183	7.31163	-7.06812	17.63649	25.5741	1.34823	0.74171	138.18236	134.04389	52.01914	0.32819	 	3.87436967E8	 	1.33301E-8	 	27909.609	35.5558	 
780.0	1.0	0.0	7.49401	7.3095	-7.09515	17.61975	25.51105	1.34518	0.7434	138.71439	134.39886	52.22752	0.32798	 	4.461824148E8	 	1.15203E-8	 	27731.702	35.5814	 
775.0	1.0	0.0	7.49619	7.30738	-7.12212	17.60302	25.448	1.34211	0.7451	139.24571	134.75231	52.4357	0.32778	 	5.145468978E8	 	9.94226E-9	 	27553.651	35.6102	 
770.0	1.0	0.0	7.49836	7.30526	-7.14905	17.58629	25.38495	1.33902	0.74681	139.77631	135.10422	52.64368	0.32757	 	5.942198852E8	 	8.56813E-9	 	27375.438	35.6426	 
765.0	1.0	0.0	7.50053	7.30315	-7.17593	17.56957	25.32191	1.33592	0.74855	140.30617	135.45457	52.85144	0.32736	 	6.872074268E8	 	7.37325E-9	 	27197.043	35.679	 
760.0	1.0	0.0	7.5027	7.30103	-7.20277	17.55286	25.25887	1.33281	0.7503	140.83528	135.80337	53.05898	0.32716	 	7.95895161E8	 	6.33569E-9	 	27018.448	35.719	 
755.0	1.0	0.0	7.50487	7.29893	-7.22956	17.53615	25.19583	1.32968	0.75206	141.36361	136.15059	53.26629	0.32695	 	9.231245943E8	 	5.43604E-9	 	26839.63	35.7636	 
750.0	1.0	0.0	7.50703	7.29682	-7.25631	17.51944	25.1328	1.32653	0.75385	141.89116	136.49623	53.47337	0.32675	 	1.072285598E9	 	4.6571E-9	 	26660.566	35.8128	 
745.0	1.0	0.0	7.50919	7.29472	-7.28301	17.50275	25.06977	1.32336	0.75565	142.4179	136.84027	53.68021	0.32654	 	1.247428759E9	 	3.98366E-9	 	26481.233	35.8666	 
740.0	1.0	0.0	7.51135	7.29262	-7.30966	17.48605	25.00674	1.32018	0.75747	142.94382	137.18271	53.88681	0.32633	 	1.453402084E9	 	3.40232E-9	 	26301.603	35.926	 
735.0	1.0	0.0	7.51351	7.29053	-7.33627	17.46937	24.94372	1.31699	0.75931	143.4689	137.52353	54.09315	0.32613	 	1.696017612E9	 	2.90123E-9	 	26121.648	35.991	 
730.0	1.0	0.0	7.51566	7.28844	-7.36283	17.45269	24.88069	1.31378	0.76117	143.99312	137.86272	54.29924	0.32592	 	1.982254851E9	 	2.46998E-9	 	25941.337	36.0622	 
725.0	1.0	0.0	7.51782	7.28635	-7.38935	17.43601	24.81767	1.31055	0.76304	144.51646	138.20028	54.50505	0.32572	 	2.320509602E9	 	2.09942E-9	 	25760.639	36.1396	 
720.0	1.0	0.0	7.51997	7.28427	-7.41582	17.41934	24.75466	1.3073	0.76493	145.03892	138.53619	54.7106	0.32551	 	2.720898856E9	 	1.78151E-9	 	25579.517	36.2244	 
715.0	1.0	0.0	7.52211	7.28219	-7.44225	17.40268	24.69164	1.30404	0.76685	145.56046	138.87044	54.91587	0.3253	 	3.195635089E9	 	1.50922E-9	 	25397.932	36.317	 
710.0	1.0	0.0	7.52426	7.28012	-7.46863	17.38602	24.62863	1.30076	0.76878	146.08108	139.20303	55.12085	0.3251	 	3.75948658E9	 	1.27637E-9	 	25215.844	36.4176	 
705.0	1.0	0.0	7.5264	7.27804	-7.49496	17.36937	24.56562	1.29746	0.77073	146.60076	139.53393	55.32554	0.32489	 	4.430344616E9	 	1.07759E-9	 	25033.206	36.5276	 
700.0	1.0	0.0	7.52854	7.27598	-7.52125	17.35272	24.50261	1.29415	0.77271	147.11948	139.86315	55.52993	0.32469	 	5.229923719E9	 	9.08178E-10	 	24849.97	36.6472	 
695.0	1.0	0.0	7.53067	7.27391	-7.54749	17.33608	24.4396	1.29082	0.7747	147.63723	140.19067	55.73402	0.32448	 	6.184627774E9	 	7.64039E-10	 	24666.081	36.7778	 
690.0	1.0	0.0	7.53281	7.27185	-7.57369	17.31944	24.37659	1.28747	0.77671	148.15398	140.51649	55.93779	0.32427	 	7.326623472E9	 	6.41618E-10	 	24481.48	36.9202	 
685.0	1.0	0.0	7.53494	7.26979	-7.59984	17.30281	24.31358	1.28411	0.77875	148.66973	140.84058	56.14125	0.32407	 	8.69517333E9	 	5.37826E-10	 	24296.103	37.0754	 
680.0	1.0	0.0	7.53707	7.26774	-7.62594	17.28619	24.25056	1.28073	0.78081	149.18445	141.16295	56.34438	0.32386	 	1.03383E10	 	4.49986E-10	 	24109.878	37.245	 
675.0	1.0	0.0	7.5392	7.26569	-7.65201	17.26957	24.18755	1.27733	0.78288	149.69812	141.48358	56.54719	0.32366	 	1.2314799999999998E10	 	3.75782E-10	 	23922.728	37.43	 
670.0	1.0	0.0	7.54132	7.26364	-7.67802	17.25296	24.12453	1.27391	0.78498	150.21074	141.80246	56.74965	0.32345	 	1.4696999999999998E10	 	3.13212E-10	 	23734.566	37.6324	 
665.0	1.0	0.0	7.54344	7.2616	-7.70399	17.23635	24.06151	1.27048	0.78711	150.72229	142.11959	56.95178	0.32324	 	1.75738E10	 	2.60552E-10	 	23545.297	37.8538	 
660.0	1.0	0.0	7.54556	7.25956	-7.72991	17.21975	23.99848	1.26703	0.78925	151.23274	142.43496	57.15355	0.32304	 	2.10546E10	 	2.16317E-10	 	23354.814	38.0966	 
655.0	1.0	0.0	7.54768	7.25752	-7.75579	17.20315	23.93544	1.26356	0.79142	151.74209	142.74855	57.35497	0.32283	 	2.5275099999999996E10	 	1.79231E-10	 	23163.002	38.3624	 
650.0	1.0	0.0	7.54979	7.25549	-7.78162	17.18656	23.8724	1.26007	0.79361	152.25031	143.06035	57.55603	0.32263	 	3.0402699999999996E10	 	1.482E-10	 	22969.728	38.6548	 
645.0	1.0	0.0	7.55191	7.25346	-7.80741	17.16998	23.80935	1.25656	0.79582	152.75739	143.37037	57.75672	0.32242	 	3.66455E10	 	1.22287E-10	 	22774.847	38.9762	 
640.0	1.0	0.0	7.55402	7.25144	-7.83315	17.1534	23.74629	1.25304	0.79806	153.26332	143.67858	57.95703	0.32222	 	4.42623E10	 	1.00692E-10	 	22578.197	39.33	 
635.0	1.0	0.0	7.55612	7.24942	-7.85885	17.13683	23.68323	1.24949	0.80032	153.76807	143.98498	58.15696	0.32201	 	5.357539999999999E10	 	8.27331E-11	 	22365.011	42.6372	 
630.0	1.0	0.0	7.55823	7.2474	-7.8845	17.12026	23.62015	1.24593	0.80261	154.27164	144.28956	58.35651	0.3218	 	6.498759999999999E10	 	6.78291E-11	 	22152.394	42.5234	 
625.0	1.0	0.0	7.56033	7.24538	-7.91011	17.1037	23.55706	1.24235	0.80492	154.774	144.59232	58.55566	0.3216	 	7.90032E10	 	5.5487E-11	 	21941.783	42.1222	 
620.0	1.0	0.0	7.56243	7.24337	-7.93567	17.08714	23.49395	1.23876	0.80726	155.27514	144.89324	58.75441	0.32139	 	9.625509999999998E10	 	4.52885E-11	 	21733.102	41.7362	 
615.0	1.0	0.0	7.56452	7.24136	-7.96118	17.07059	23.43084	1.23514	0.80962	155.77504	145.19231	58.95276	0.32119	 	1.17539E11	 	3.68799E-11	 	21526.282	41.364	 
610.0	1.0	0.0	7.56662	7.23936	-7.98665	17.05405	23.36771	1.2315	0.81201	156.27369	145.48953	59.15069	0.32098	 	1.4386E11	 	2.99626E-11	 	21321.258	41.0048	 
605.0	1.0	0.0	7.56871	7.23736	-8.01208	17.03751	23.30456	1.22785	0.81443	156.77107	145.78489	59.3482	0.32077	 	1.76487E11	 	2.42852E-11	 	21117.967	40.6582	 
600.0	1.0	0.0	7.5708	7.23536	-8.03746	17.02097	23.2414	1.22418	0.81688	157.26717	146.07838	59.54529	0.32057	 	2.17029E11	 	1.96363E-11	 	20916.35	40.3234	 
595.0	1.0	0.0	7.57288	7.23337	-8.06279	17.00445	23.17822	1.22048	0.81935	157.76197	146.36999	59.74195	0.32036	 	2.67528E11	 	1.58384E-11	 	20716.35	40.0	 
590.0	1.0	0.0	7.57497	7.23138	-8.08808	16.98792	23.11503	1.21677	0.82185	158.25545	146.65971	59.93818	0.32016	 	3.3059E11	 	1.27433E-11	 	20517.914	39.6872	 
585.0	1.0	0.0	7.57705	7.22939	-8.11333	16.97141	23.05182	1.21304	0.82437	158.7476	146.94754	60.13395	0.31995	 	4.0954E11	 	1.02271E-11	 	20320.992	39.3844	 
580.0	1.0	0.0	7.57913	7.22741	-8.13853	16.9549	22.98859	1.20929	0.82693	159.23841	147.23347	60.32928	0.31974	 	5.08635E11	 	8.18664E-12	 	20125.536	39.0912	 
575.0	1.0	0.0	7.5812	7.22543	-8.16368	16.93839	22.92534	1.20552	0.82952	159.72785	147.51748	60.52416	0.31954	 	6.33346E11	 	6.53609E-12	 	19931.5	38.8072	 
570.0	1.0	0.0	7.58328	7.22346	-8.18879	16.92189	22.86207	1.20173	0.83213	160.21591	147.79958	60.71857	0.31933	 	7.90715E11	 	5.20441E-12	 	19738.841	38.5318	 
565.0	1.0	0.0	7.58535	7.22148	-8.21385	16.9054	22.79878	1.19792	0.83478	160.70258	148.07976	60.91252	0.31913	 	9.89834E11	 	4.13282E-12	 	19547.518	38.2646	 
560.0	1.0	0.0	7.58742	7.21952	-8.23887	16.88891	22.73548	1.19409	0.83746	161.18784	148.35799	61.10599	0.31892	 	1.24248E12	 	3.2728E-12	 	19357.492	38.0052	 
555.0	1.0	0.0	7.58948	7.21755	-8.26385	16.87243	22.67215	1.19024	0.84017	161.67168	148.63429	61.29898	0.31871	 	1.56395E12	 	2.58447E-12	 	19168.726	37.7532	 
550.0	1.0	0.0	7.59154	7.21559	-8.28878	16.85595	22.60881	1.18637	0.84291	162.15407	148.90864	61.49149	0.31851	 	1.97417E12	 	2.03508E-12	 	18981.184	37.5084	 
545.0	1.0	0.0	7.5936	7.21363	-8.31366	16.83948	22.54545	1.18247	0.84568	162.63501	149.18104	61.6835	0.3183	 	2.49917E12	 	1.5978E-12	 	18794.834	37.27	 
540.0	1.0	0.0	7.59566	7.21168	-8.3385	16.82302	22.48207	1.17856	0.84849	163.11448	149.45147	61.87502	0.3181	 	3.17308E12	 	1.25077E-12	 	18609.643	37.0382	 
535.0	1.0	0.0	7.59772	7.20973	-8.36329	16.80656	22.41867	1.17463	0.85133	163.59247	149.71993	62.06603	0.31789	 	4.04075E12	 	9.76149E-13	 	18425.58	36.8126	 
530.0	1.0	0.0	7.59977	7.20778	-8.38804	16.7901	22.35526	1.17067	0.85421	164.06895	149.98641	62.25653	0.31768	 	5.16136E12	 	7.59485E-13	 	18242.618	36.5924	 
525.0	1.0	0.0	7.60182	7.20584	-8.41275	16.77365	22.29182	1.16669	0.85712	164.54392	150.25091	62.44652	0.31748	 	6.61318E12	 	5.89062E-13	 	18060.728	36.378	 
520.0	1.0	0.0	7.60387	7.2039	-8.43741	16.75721	22.22837	1.16269	0.86007	165.01736	150.51342	62.63598	0.31727	 	8.50016E12	 	4.55423E-13	 	17879.884	36.1688	 
515.0	1.0	0.0	7.60591	7.20196	-8.46202	16.74078	22.16491	1.15867	0.86306	165.48925	150.77393	62.82492	0.31707	 	1.09607E13	 	3.50958E-13	 	17700.061	35.9646	 
510.0	1.0	0.0	7.60795	7.20003	-8.48659	16.72434	22.10143	1.15463	0.86608	165.95959	151.03244	63.01333	0.31686	 	1.418E13	 	2.6956E-13	 	17521.235	35.7652	 
505.0	1.0	0.0	7.60999	7.1981	-8.51112	16.70792	22.03793	1.15056	0.86914	166.42835	151.28893	63.20119	0.31666	 	1.84061E13	 	2.06343E-13	 	17343.383	35.5704	 
500.0	1.0	0.0	7.61203	7.19617	-8.5356	16.6915	21.97442	1.14647	0.87224	166.89552	151.54341	63.38852	0.31645	 	2.39731E13	 	1.57408E-13	 	17166.484	35.3798	 
495.0	1.0	0.0	7.61406	7.19425	-8.56003	16.67508	21.9109	1.14236	0.87538	167.36108	151.79586	63.57529	0.31624	 	3.13323E13	 	1.19657E-13	 	16990.517	35.1934	 
490.0	1.0	0.0	7.6161	7.19233	-8.58442	16.65868	21.84737	1.13823	0.87856	167.82503	152.04628	63.7615	0.31604	 	4.10958E13	 	9.06356E-14	 	16815.461	35.0112	 
485.0	1.0	0.0	7.61812	7.19041	-8.60877	16.64227	21.78382	1.13407	0.88178	168.28735	152.29467	63.94715	0.31583	 	5.40964E13	 	6.84028E-14	 	16641.298	34.8326	 
480.0	1.0	0.0	7.62015	7.1885	-8.63307	16.62588	21.72027	1.12988	0.88505	168.74802	152.54101	64.13224	0.31563	 	7.14719E13	 	5.14319E-14	 	16468.01	34.6576	 
475.0	1.0	0.0	7.62217	7.18659	-8.65733	16.60949	21.6567	1.12568	0.88835	169.20702	152.78531	64.31675	0.31542	 	9.47832E13	 	3.85251E-14	 	16295.578	34.4864	 
470.0	1.0	0.0	7.6242	7.18469	-8.68154	16.5931	21.59313	1.12145	0.89171	169.66436	153.02755	64.50068	0.31521	 	1.2617899999999998E14	 	2.87458E-14	 	16123.987	34.3182	 
465.0	1.0	0.0	7.62621	7.18279	-8.70571	16.57672	21.52954	1.11719	0.8951	170.12	153.26773	64.68403	0.31501	 	1.68632E14	 	2.13644E-14	 	15953.22	34.1534	 
460.0	1.0	0.0	7.62823	7.18089	-8.72983	16.56035	21.46596	1.11291	0.89854	170.57394	153.50584	64.86678	0.3148	 	2.26267E14	 	1.58146E-14	 	15783.262	33.9916	 
455.0	1.0	0.0	7.63024	7.17899	-8.75391	16.54398	21.40236	1.10861	0.90203	171.02616	153.74188	65.04894	0.3146	 	3.04835E14	 	1.16585E-14	 	15614.098	33.8328	 
450.0	1.0	0.0	7.63225	7.1771	-8.77795	16.52761	21.33876	1.10427	0.90557	171.47665	153.97584	65.2305	0.31439	 	4.12393E14	 	8.55863E-15	 	15445.714	33.6768	 
445.0	1.0	0.0	7.63426	7.17522	-8.80194	16.51126	21.27515	1.09992	0.90916	171.9254	154.20773	65.41145	0.31418	 	5.6026699999999994E14	 	6.25615E-15	 	15278.097	33.5234	 
440.0	1.0	0.0	7.63627	7.17333	-8.82588	16.49491	21.21154	1.09554	0.9128	172.37239	154.43752	65.59179	0.31398	 	7.64461E14	 	4.55315E-15	 	15111.232	33.373	 
435.0	1.0	0.0	7.63827	7.17145	-8.84978	16.47856	21.14793	1.09113	0.91648	172.8176	154.66522	65.77152	0.31377	 	1.04769E15	 	3.29899E-15	 	14945.109	33.2246	 
430.0	1.0	0.0	7.64027	7.16957	-8.87364	16.46222	21.08431	1.08669	0.92022	173.26104	154.89082	65.95061	0.31357	 	1.44233E15	 	2.37942E-15	 	14779.713	33.0792	 
425.0	1.0	0.0	7.64226	7.1677	-8.89745	16.44588	21.0207	1.08223	0.92402	173.70267	155.11433	66.12909	0.31336	 	1.99478E15	 	1.7082E-15	 	14615.035	32.9356	 
420.0	1.0	0.0	7.64426	7.16583	-8.92122	16.42956	20.95708	1.07774	0.92787	174.14249	155.33572	66.30692	0.31315	 	2.77184E15	 	1.22052E-15	 	14451.062	32.7946	 
415.0	1.0	0.0	7.64625	7.16396	-8.94494	16.41323	20.89345	1.07322	0.93177	174.58049	155.555	66.48412	0.31295	 	3.87014E15	 	8.67847E-16	 	14287.784	32.6556	 
410.0	1.0	0.0	7.64824	7.1621	-8.96862	16.39692	20.82983	1.06868	0.93573	175.01666	155.77217	66.66067	0.31274	 	5.4302E15	 	6.14026E-16	 	14125.191	32.5186	 
405.0	1.0	0.0	7.65023	7.16024	-8.99225	16.3806	20.76621	1.06411	0.93975	175.45097	155.98722	66.83658	0.31254	 	7.65743E15	 	4.32244E-16	 	13963.271	32.384	 
400.0	1.0	0.0	7.65221	7.15839	-9.01585	16.3643	20.70258	1.05951	0.94383	175.88342	156.20014	67.01183	0.31233	 	1.08537E16	 	3.02706E-16	 	13802.017	32.2508	 
395.0	1.0	0.0	7.65419	7.15653	-9.03939	16.348	20.63896	1.05488	0.94797	176.314	156.41093	67.18642	0.31213	 	1.54649E16	 	2.1087E-16	 	13641.417	32.12	 
390.0	1.0	0.0	7.65617	7.15468	-9.06289	16.3317	20.57533	1.05023	0.95218	176.74269	156.61959	67.36035	0.31192	 	2.21536E16	 	1.46102E-16	 	13481.464	31.9906	 
385.0	1.0	0.0	7.65814	7.15284	-9.08635	16.31541	20.51171	1.04554	0.95644	177.16948	156.82612	67.53361	0.31171	 	3.19095E16	 	1.00668E-16	 	13322.147	31.8634	 
380.0	1.0	0.0	7.66012	7.151	-9.10976	16.29913	20.44808	1.04083	0.96078	177.59437	157.0305	67.70619	0.31151	 	4.62202E16	 	6.89713E-17	 	13163.46	31.7374	 
375.0	1.0	0.0	7.66209	7.14916	-9.13313	16.28285	20.38445	1.03608	0.96517	178.01733	157.23275	67.8781	0.3113	 	6.7333800000000008E16	 	4.69817E-17	 	13005.393	31.6134	 
370.0	1.0	0.0	7.66405	7.14732	-9.15646	16.26658	20.32083	1.03131	0.96964	178.43835	157.43284	68.04932	0.3111	 	9.86696E16	 	3.18138E-17	 	12847.939	31.4908	 
365.0	1.0	0.0	7.66602	7.14549	-9.17974	16.25031	20.2572	1.0265	0.97418	178.85744	157.63079	68.21985	0.31089	 	1.45459E17	 	2.14125E-17	 	12691.09	31.3698	 
360.0	1.0	0.0	7.66798	7.14366	-9.20298	16.23405	20.19358	1.02167	0.97879	179.27457	157.82659	68.3897	0.31068	 	2.15759E17	 	1.43227E-17	 	12534.838	31.2504	 
355.0	1.0	0.0	7.66994	7.14184	-9.22617	16.2178	20.12995	1.01681	0.98347	179.68973	158.02023	68.55884	0.31048	 	3.22054E17	 	9.51965E-18	 	12379.177	31.1322	 
350.0	1.0	0.0	7.6719	7.14002	-9.24932	16.20155	20.06632	1.01191	0.98823	180.10291	158.21172	68.72728	0.31027	 	4.83825E17	 	6.28625E-18	 	12224.099	31.0156	 
345.0	1.0	0.0	7.67385	7.1382	-9.27242	16.1853	20.00269	1.00699	0.99306	180.51411	158.40105	68.89502	0.31007	 	7.31666E17	 	4.12351E-18	 	12069.598	30.9002	 
340.0	1.0	0.0	7.6758	7.13638	-9.29548	16.16907	19.93906	1.00203	0.99798	180.92331	158.58822	69.06205	0.30986	 	1.11397E18	 	2.68645E-18	 	11915.667	30.7862	 
335.0	1.0	0.0	7.67775	7.13457	-9.3185	16.15283	19.87543	0.99704	1.00297	181.3305	158.77323	69.22837	0.30965	 	1.70782E18	 	1.73802E-18	 	11762.299	30.6736	 
330.0	1.0	0.0	7.67969	7.13277	-9.34147	16.13661	19.81179	0.99202	1.00805	181.73567	158.95607	69.39396	0.30945	 	2.63691E18	 	1.11639E-18	 	11609.489	30.562	 
325.0	1.0	0.0	7.68164	7.13096	-9.3644	16.12039	19.74816	0.98696	1.01321	182.13882	159.13676	69.55884	0.30924	 	4.10116E18	 	7.11852E-19	 	11457.231	30.4516	 
320.0	1.0	0.0	7.68358	7.12916	-9.38729	16.10417	19.68452	0.98188	1.01846	182.53993	159.31527	69.72299	0.30904	 	6.42626E18	 	4.50498E-19	 	11305.518	30.3426	 
315.0	1.0	0.0	7.68551	7.12736	-9.41013	16.08796	19.62088	0.97676	1.02379	182.939	159.49162	69.8864	0.30883	 	1.01469E19	 	2.82907E-19	 	11154.345	30.2346	 
310.0	1.0	0.0	7.68745	7.12557	-9.43292	16.07176	19.55723	0.97161	1.02922	183.33602	159.6658	70.04909	0.30863	 	1.61477E19	 	1.76261E-19	 	11003.707	30.1276	 
305.0	1.0	0.0	7.68938	7.12378	-9.45568	16.05556	19.49358	0.96642	1.03475	183.73098	159.83782	70.21104	0.30842	 	2.59052E19	 	1.08928E-19	 	10853.598	30.0218	 
300.0	1.0	0.0	7.69131	7.12199	-9.47839	16.03937	19.42993	0.9612	1.04036	184.12386	160.00767	70.37225	0.30821	 	4.19034E19	 	6.67584E-20	 	10704.014	29.9168	 
295.0	1.0	0.0	7.69324	7.12021	-9.50105	16.02318	19.36628	0.95595	1.04608	184.51467	160.17536	70.53272	0.30801	 	6.83584E19	 	4.05656E-20	 	10554.949	29.813	 
290.0	1.0	0.0	7.69516	7.11843	-9.52367	16.007	19.30262	0.95066	1.0519	184.9034	160.34088	70.69244	0.3078	 	1.1248999999999998E20	 	2.44342E-20	 	10406.399	29.71	 
285.0	1.0	0.0	7.69708	7.11665	-9.54625	15.99082	19.23895	0.94534	1.05782	185.29004	160.50424	70.85142	0.3076	 	1.86773E20	 	1.45855E-20	 	10258.358	29.6082	 
280.0	1.0	0.0	7.699	7.11488	-9.56879	15.97465	19.17528	0.93998	1.06385	185.67459	160.66544	71.00964	0.30739	 	3.1296899999999997E20	 	8.62636E-21	 	10110.823	29.507	 
275.0	1.0	0.0	7.70091	7.11311	-9.59128	15.95849	19.1116	0.93459	1.06999	186.05703	160.82448	71.16711	0.30718	 	5.2939799999999993E20	 	5.05363E-21	 	9963.789	29.4068	 
270.0	1.0	0.0	7.70283	7.11135	-9.61372	15.94233	19.04792	0.92916	1.07624	186.43737	160.98136	71.32382	0.30698	 	9.042109999999999E20	 	2.93181E-21	 	9817.252	29.3074	 
265.0	1.0	0.0	7.70474	7.10958	-9.63613	15.92618	18.98424	0.92369	1.08261	186.81559	161.13609	71.47977	0.30677	 	1.55984E21	 	1.68387E-21	 	9671.207	29.209	 
260.0	1.0	0.0	7.70664	7.10782	-9.65849	15.91003	18.92054	0.91819	1.0891	187.1917	161.28866	71.63497	0.30657	 	2.71855E21	 	9.5719E-22	 	9525.652	29.111	 
255.0	1.0	0.0	7.70855	7.10607	-9.6808	15.89389	18.85684	0.91265	1.09571	187.5657	161.43909	71.7894	0.30636	 	4.78813E21	 	5.38366E-22	 	9380.582	29.014	 
250.0	1.0	0.0	7.71045	7.10432	-9.70308	15.87775	18.79314	0.90708	1.10244	187.93757	161.58738	71.94306	0.30615	 	8.525040000000001E21	 	2.99514E-22	 	9235.993	28.9178	 
245.0	1.0	0.0	7.71235	7.10257	-9.7253	15.86162	18.72942	0.90146	1.10931	188.30731	161.73353	72.09597	0.30595	 	1.53485E22	 	1.6477E-22	 	9091.883	28.822	 
240.0	1.0	0.0	7.71424	7.10082	-9.74749	15.8455	18.6657	0.89581	1.1163	188.67493	161.87754	72.2481	0.30574	 	2.7952E22	 	8.96022E-23	 	8948.247	28.7272	 
235.0	1.0	0.0	7.71614	7.09908	-9.76963	15.82938	18.60197	0.89012	1.12344	189.04042	162.01943	72.39947	0.30554	 	5.150939999999999E22	 	4.81496E-23	 	8805.083	28.6328	 
230.0	1.0	0.0	7.71803	7.09734	-9.79173	15.81327	18.53823	0.8844	1.13072	189.40378	162.1592	72.55007	0.30533	 	9.608139999999999E22	 	2.55591E-23	 	8662.387	28.5392	 
225.0	1.0	0.0	7.71991	7.09561	-9.81378	15.79716	18.47449	0.87863	1.13814	189.76502	162.29685	72.69991	0.30513	 	1.8148E23	 	1.33973E-23	 	8520.157	28.446	 
220.0	1.0	0.0	7.7218	7.09387	-9.83579	15.78106	18.41074	0.87282	1.14571	190.12413	162.43239	72.84897	0.30492	 	3.47235E23	 	6.93174E-24	 	8378.39	28.3534	 
215.0	1.0	0.0	7.72368	7.09215	-9.85776	15.76496	18.34698	0.86697	1.15344	190.48111	162.56584	72.99727	0.30471	 	6.73274E23	 	3.53874E-24	 	8237.083	28.2614	 
210.0	1.0	0.0	7.72556	7.09042	-9.87969	15.74887	18.2832	0.86109	1.16132	190.83597	162.6972	73.14481	0.30451	 	1.3234700000000002E24	 	1.78178E-24	 	8096.235	28.1696	 
205.0	1.0	0.0	7.72744	7.0887	-9.90157	15.73279	18.21943	0.85516	1.16937	191.18872	162.82648	73.29157	0.3043	 	2.63862E24	 	8.84451E-25	 	7955.842	28.0786	 
200.0	1.0	0.0	7.72931	7.08698	-9.92341	15.71671	18.15564	0.84919	1.17759	191.53935	162.95369	73.43758	0.3041	 	5.33796E24	 	4.32623E-25	 	7815.902	27.988	 
195.0	1.0	0.0	7.73118	7.08527	-9.9452	15.70064	18.09184	0.84318	1.18599	191.88787	163.07884	73.58282	0.30389	 	1.0962600000000001E25	 	2.0843E-25	 	7676.414	27.8976	 
190.0	1.0	0.0	7.73305	7.08356	-9.96695	15.68457	18.02803	0.83713	1.19456	192.23429	163.20194	73.7273	0.30368	 	2.2866400000000002E25	 	9.88577E-26	 	7537.375	27.8078	 
185.0	1.0	0.0	7.73491	7.08185	-9.98866	15.66851	17.96422	0.83103	1.20332	192.57861	163.32302	73.87102	0.30348	 	4.8468E25	 	4.6136E-26	 	7398.785	27.718	 
180.0	1.0	0.0	7.73677	7.08014	-10.01032	15.65245	17.90039	0.82489	1.21228	192.92085	163.44207	74.01399	0.30327	 	1.0445100000000001E26	 	2.11746E-26	 	7260.641	27.6288	 
175.0	1.0	0.0	7.73863	7.07844	-10.03194	15.6364	17.83655	0.81871	1.22143	193.26102	163.55912	74.1562	0.30307	 	2.2898800000000002E26	 	9.55207E-27	 	7122.943	27.5396	 
170.0	1.0	0.0	7.74049	7.07674	-10.05352	15.62036	17.77271	0.81248	1.23079	193.59912	163.67419	74.29767	0.30286	 	5.109830000000001E26	 	4.23283E-27	 	6985.689	27.4508	 
165.0	1.0	0.0	7.74234	7.07505	-10.07506	15.60432	17.70885	0.80621	1.24037	193.93518	163.78728	74.4384	0.30266	 	1.16133E27	 	1.84142E-27	 	6848.878	27.3622	 
160.0	1.0	0.0	7.74419	7.07336	-10.09655	15.58828	17.64498	0.7999	1.25016	194.2692	163.89842	74.57839	0.30245	 	2.6899299999999996E27	 	7.85931E-28	 	6712.51	27.2736	 
155.0	1.0	0.0	7.74604	7.07167	-10.118	15.57226	17.5811	0.79354	1.26018	194.6012	164.00763	74.71765	0.30224	 	6.35397E27	 	3.2888E-28	 	6576.584	27.1852	 
150.0	1.0	0.0	7.74789	7.06999	-10.1394	15.55623	17.51721	0.78713	1.27044	194.9312	164.11493	74.85619	0.30204	 	1.5317E28	 	1.34837E-28	 	6441.1	27.0968	 
145.0	1.0	0.0	7.74973	7.06831	-10.16076	15.54022	17.45331	0.78068	1.28094	195.25922	164.22035	74.99401	0.30183	 	3.77085E28	 	5.41227E-29	 	6306.057	27.0086	 
140.0	1.0	0.0	7.75157	7.06663	-10.18208	15.52421	17.3894	0.77418	1.29169	195.58528	164.3239	75.13112	0.30163	 	9.48806E28	 	2.12528E-29	 	6171.457	26.92	 
135.0	1.0	0.0	7.75341	7.06496	-10.20336	15.5082	17.32548	0.76763	1.30271	195.9094	164.42561	75.26753	0.30142	 	2.4419400000000003E29	 	8.15778E-30	 	6037.298	26.8318	 
130.0	1.0	0.0	7.75524	7.06329	-10.22459	15.4922	17.26154	0.76104	1.314	196.23162	164.52551	75.40325	0.30121	 	6.43392E29	 	3.05828E-30	 	5903.583	26.743	 
125.0	1.0	0.0	7.75707	7.06162	-10.24578	15.47621	17.1976	0.75439	1.32557	196.55195	164.62363	75.53829	0.30101	 	1.73694E30	 	1.11879E-30	 	5770.312	26.6542	 
120.0	1.0	0.0	7.7589	7.05995	-10.26693	15.46022	17.13364	0.7477	1.33744	196.87043	164.71999	75.67266	0.3008	 	4.8091199999999997E30	 	3.99006E-31	 	5637.486	26.5652	 
115.0	1.0	0.0	7.76072	7.05829	-10.28803	15.44424	17.06967	0.74096	1.34961	197.1871	164.81465	75.80637	0.3006	 	1.36691E31	 	1.38594E-31	 	5505.106	26.476	 
110.0	1.0	0.0	7.76255	7.05664	-10.30909	15.42826	17.00568	0.73416	1.3621	197.50198	164.90762	75.93944	0.30039	 	3.9926099999999998E31	 	4.6838E-32	 	5373.175	26.3862	 
105.0	1.0	0.0	7.76437	7.05498	-10.33011	15.41229	16.94169	0.72732	1.37491	197.81513	164.99894	76.07189	0.30019	 	1.19973E32	 	1.53839E-32	 	5241.694	26.2962	 
100.0	1.0	0.0	7.76618	7.05333	-10.35108	15.39632	16.87768	0.72042	1.38807	198.12657	165.08867	76.20372	0.29998	 	3.71294E32	 	4.90515E-33	 	5110.667	26.2054	 
95.0	1.0	0.0	7.768	7.05169	-10.37201	15.38036	16.81366	0.71348	1.40159	198.43636	165.17684	76.33496	0.29977	 	1.18489E33	 	1.51647E-33	 	4980.095	26.1144	 
90.0	1.0	0.0	7.76981	7.05004	-10.3929	15.36441	16.74963	0.70648	1.41547	198.74455	165.26349	76.46562	0.29957	 	3.90405E33	 	4.54001E-34	 	4849.982	26.0226	 
85.0	1.0	0.0	7.77161	7.0484	-10.41375	15.34846	16.68558	0.69943	1.42975	199.05119	165.34867	76.59573	0.29936	 	1.32988E34	 	1.31444E-34	 	4720.331	25.9302	 
80.0	1.0	0.0	7.77342	7.04677	-10.43455	15.33252	16.62152	0.69232	1.44442	199.35633	165.43245	76.7253	0.29916	 	4.690100000000001E34	 	3.67506E-35	 	4591.148	25.8366	 
75.0	1.0	0.0	7.77522	7.04513	-10.45531	15.31658	16.55744	0.68516	1.45952	199.66004	165.51487	76.85437	0.29895	 	1.7150399999999997E35	 	9.90784E-36	 	4462.435	25.7426	 
70.0	1.0	0.0	7.77702	7.0435	-10.47603	15.30065	16.49336	0.67794	1.47505	199.9624	165.59599	76.98295	0.29874	 	6.51292E35	 	2.57155E-36	 	4334.199	25.6472	 
65.0	1.0	0.0	7.77882	7.04188	-10.49671	15.28473	16.42926	0.67067	1.49105	200.26346	165.67588	77.11107	0.29854	 	2.5728599999999998E36	 	6.41476E-37	 	4206.444	25.551	 
60.0	1.0	0.0	7.78061	7.04025	-10.51734	15.26881	16.36514	0.66334	1.50752	200.5633	165.75461	77.23877	0.29833	 	1.0591699999999999E37	 	1.53519E-37	 	4079.177	25.4534	 
55.0	1.0	0.0	7.7824	7.03863	-10.53793	15.25289	16.30101	0.65596	1.52449	200.86202	165.83224	77.36607	0.29813	 	4.5524E37	 	3.51819E-38	 	3952.404	25.3546	 
50.0	1.0	0.0	7.78419	7.03702	-10.55847	15.23698	16.23686	0.64851	1.54199	201.1597	165.90886	77.49302	0.29792	 	2.04698E38	 	7.70508E-39	 	3826.133	25.2542	 
45.0	1.0	0.0	7.78597	7.0354	-10.57898	15.22108	16.1727	0.64101	1.56003	201.45644	165.98456	77.61964	0.29772	 	9.64957E38	 	1.6092E-39	 	3700.372	25.1522	 
40.0	1.0	0.0	7.78776	7.03379	-10.59944	15.20518	16.10853	0.63345	1.57865	201.75235	166.05941	77.74598	0.29751	 	4.7797600000000005E39	 	3.19766E-40	 	3575.13	25.0484	 
35.0	1.0	0.0	7.78954	7.03219	-10.61986	15.18929	16.04434	0.62583	1.59787	202.04753	166.13351	77.87208	0.2973	 	2.49377E40	 	6.03106E-41	 	3450.415	24.943	 
30.0	1.0	0.0	7.79131	7.03058	-10.64024	15.1734	15.98013	0.61815	1.61773	202.34211	166.20698	77.99799	0.2971	 	1.3739500000000001E41	 	1.07689E-41	 	3326.238	24.8354	 
25.0	1.0	0.0	7.79309	7.02898	-10.66057	 	15.91591	0.61041	1.63825	202.63623	166.27991	78.12376	0.29689	 	8.01574E41	 	1.81542E-42	 	3202.612	 	 
