T (C)	Fraction solid (wt)-TOTAL	Fraction liquid (wt)-LIQUID	Density (g/(cm)^3)-TOTAL	Molar volume (cm^3)-TOTAL	Volume change (%)-  	Average expansion coeff. (10e-6 1/K)-  	Thermal conductivity (W/(m*K))-TOTAL	Electrical resistivity (10e-6 Ohm*m)-TOTAL	Electrical conductivity (10e6 1/(Ohm*m))-TOTAL	Young's modulus (GPa)-TOTAL	Bulk modulus (GPa)-TOTAL	Shear modulus(GPa)-TOTAL	Poisson's ratio-TOTAL	Liquid viscosity (mPa s)-  	Total viscosity (mPa s)-  	Liquid diffusivity (10e-9 (m^2)/s)-  	Total diffusivity (10e-9 (m^2)/s)-  	Surface Tension (mN/m)-  	Enthalpy (J/mole)-TOTAL	Specific heat (J/(mole K))-TOTAL	Latent heat (J/mole)-TOTAL
1500.0	0.0	1.0	6.83856	7.90985	0.0	28.13803	30.79675	1.87611	0.53302	0.0	104.43866	0.0	0.49974	6.42021	6.42021	1.34798	1.34798	1728.21594	61948.356	 	0.0
1495.0	0.0	1.0	6.84243	7.90537	-0.0566567	28.08927	30.72351	1.87528	0.53325	0.0	104.62085	0.0	0.49974	6.47566	6.47566	1.33267	1.33267	1730.07156	61728.453	43.9806	0.0
1490.0	0.0	1.0	6.8463	7.9009	-0.11316	28.04057	30.65026	1.87445	0.53349	0.0	104.80305	0.0	0.49974	6.53192	6.53192	1.31745	1.31745	1731.92956	61509.044	43.8818	0.0
1485.0	0.0	1.0	6.85017	7.89644	-0.16951	27.99192	30.57702	1.87361	0.53373	0.0	104.98524	0.0	0.49974	6.58899	6.58899	1.30234	1.30234	1733.78986	61290.128	43.7832	0.0
1480.0	0.0	1.0	6.85403	7.892	-0.22571	27.94334	30.50378	1.87276	0.53397	0.0	105.16743	0.0	0.49974	6.64689	6.64689	1.28732	1.28732	1735.6524	61071.701	43.6854	0.0
1475.0	0.0	1.0	6.85788	7.88757	-0.28176	27.89481	30.43053	1.87192	0.53421	0.0	105.34962	0.0	0.49974	6.70563	6.70563	1.27241	1.27241	1737.51707	60853.759	43.5884	0.0
1470.0	0.0	1.0	6.86173	7.88314	-0.33765	27.84634	30.35729	1.87107	0.53445	0.0	105.53181	0.0	0.49974	6.76523	6.76523	1.25759	1.25759	1739.3838	60636.299	43.492	0.0
1465.0	0.0	1.0	6.86557	7.87873	-0.39339	27.79794	30.28405	1.87021	0.5347	0.0	105.71401	0.0	0.49974	6.82571	6.82571	1.24287	1.24287	1741.25251	60419.319	43.396	0.0
1460.0	0.0	1.0	6.8694	7.87434	-0.44898	27.74959	30.2108	1.86935	0.53494	0.0	105.8962	0.0	0.49974	6.88708	6.88708	1.22825	1.22825	1743.1231	60202.815	43.3008	0.0
1455.0	0.0	1.0	6.87323	7.86995	-0.50441	27.70131	30.13756	1.86849	0.53519	0.0	106.07839	0.0	0.49974	6.94937	6.94937	1.21373	1.21373	1744.99549	59986.785	43.206	0.0
1450.0	0.0	1.0	6.87705	7.86558	-0.5597	27.65309	30.06432	1.86762	0.53544	0.0	106.26058	0.0	0.49974	7.01258	7.01258	1.19931	1.19931	1746.86959	59771.251	43.1068	0.0
1445.0	0.0	1.0	6.88086	7.86122	-0.61483	27.60493	29.99107	1.86675	0.53569	0.0	106.44277	0.0	0.49974	7.07674	7.07674	1.18499	1.18499	1748.7453	59556.256	42.999	0.0
1440.0	0.0	1.0	6.88467	7.85687	-0.6698	27.55684	29.91783	1.86588	0.53594	0.0	106.62497	0.0	0.49974	7.14187	7.14187	1.17077	1.17077	1750.62253	59341.793	42.8926	0.0
1435.0	0.0	1.0	6.88847	7.85253	-0.72463	27.50881	29.84459	1.865	0.53619	0.0	106.80716	0.0	0.49974	7.20799	7.20799	1.15664	1.15664	1752.50119	59127.856	42.7874	0.0
1430.0	0.0	1.0	6.89227	7.84821	-0.7793	27.46085	29.77134	1.86411	0.53645	0.0	106.98935	0.0	0.49974	7.27511	7.27511	1.14262	1.14262	1754.38117	58914.444	42.6824	0.0
1425.0	0.0	1.0	6.89606	7.8439	-0.83382	27.41296	29.6981	1.86322	0.5367	0.0	107.17154	0.0	0.49974	7.34326	7.34326	1.12869	1.12869	1756.26239	58701.552	42.5784	0.0
1420.9	0.0	1.0	6.89916	7.84037	-0.87837	27.37376	29.6381	1.86249	0.53691	0.0	107.32079	0.0	0.49974	7.39986	7.39986	1.11735	1.11735	1757.80427	58527.538	42.4857	0.0060
1420.0	0.02573	0.97427	6.90397	7.83493	-0.94715	27.20669	29.72576	1.85601	0.53879	2.40887E-5	106.3698	8.05122E-6	0.49597	7.40596	7.6639	1.11584	1.07828	1757.46345	58261.819	293.882	227.354
1415.0	0.15421	0.84579	6.92856	7.8071	-1.29902	26.35568	30.1676	1.82343	0.54842	0.0317386	101.65635	0.0107443	0.477	7.43955	12.51005	1.10752	0.65863	1755.70625	56916.867	268.99	1360.445
1410.0	0.25822	0.74178	6.94909	7.78412	-1.58954	25.66455	30.52753	1.79659	0.55661	0.25417	97.91194	0.0869544	0.46151	7.47392	38.91125	1.09916	0.21112	1754.1539	55791.388	225.096	2274.572
1405.0	0.34366	0.65634	6.96654	7.76456	-1.83688	25.08573	30.82355	1.77405	0.56368	0.81068	94.90632	0.2798	0.44868	7.50865	106.30316	1.09083	0.0770498	1752.78697	54832.932	191.691	3022.181
1404.55	0.35052	0.64948	6.96797	7.76294	-1.85732	25.03846	30.847	1.77222	0.56426	0.87851	94.6692	0.30343	0.44765	7.51177	114.69142	1.09008	0.0713952	1752.67148	54754.014	 	3081.956
1400.0	0.44028	0.55972	6.98533	7.74375	-2.09987	24.46001	31.04158	1.75634	0.56937	1.82877	92.91212	0.63727	0.43486	7.53962	308.0934	1.08311	0.0265057	1749.85049	53633.168	239.953	4011.597
1395.0	0.51874	0.48126	7.00109	7.72639	-2.31943	23.94855	31.20349	1.74201	0.57405	3.3921	91.52363	1.1914	0.42358	7.57101	646.80275	1.0754	0.0125878	1747.11894	52615.336	203.566	4819.581
1390.0	0.58133	0.41867	7.01424	7.71199	-2.5015	23.5363	31.32361	1.73012	0.57799	5.48655	90.53152	1.93942	0.41449	7.60309	1102.8607	1.06765	0.00736033	1744.72925	51765.841	169.899	5459.721
1385.0	0.63216	0.36784	7.02545	7.69973	-2.65639	23.19593	31.41018	1.72017	0.58134	8.0386	89.8229	2.85659	0.40703	7.6358	1657.6831	1.05988	0.00488213	1742.64147	51041.039	144.96	5975.659
1380.0	0.67405	0.32595	7.03518	7.68923	-2.78924	22.91402	31.47255	1.71158	0.58425	10.93758	89.32693	3.90398	0.40083	7.66943	2294.825	1.05205	0.003516	1740.8171	50410.726	126.063	6397.597
1375.0	0.70904	0.29096	7.04377	7.67996	-2.90644	22.67348	31.5154	1.70409	0.58682	14.06589	88.99092	5.03941	0.39559	7.70362	3001.64403	1.04421	0.00267993	1739.22827	49853.367	111.472	6747.066
1370.0	0.7386	0.2614	7.05149	7.67166	-3.01134	22.46541	31.54271	1.69745	0.58912	17.31675	88.77918	6.22404	0.39112	7.73837	3769.58003	1.03637	0.00212751	1737.84803	49353.281	100.017	7039.747
1365.0	0.76385	0.23615	7.05848	7.66423	-3.1053	22.2864	31.55779	1.69147	0.5912	20.60378	88.66664	7.42607	0.38726	7.77396	4593.79967	1.02849	0.00174048	1736.64955	48898.829	90.8904	7287.272
1360.0	0.7856	0.2144	7.0649	7.65739	-3.19178	22.12708	31.56245	1.68606	0.5931	23.85922	88.63217	8.62031	0.3839	7.81003	5470.97974	1.02061	0.00145696	1735.6168	48481.223	83.5212	7498.427
1355.0	0.80448	0.19552	7.07085	7.6511	-3.27127	21.98621	31.5588	1.68109	0.59485	27.03976	88.66177	9.79035	0.38094	7.84691	6401.22521	1.0127	0.00124142	1734.7288	48093.731	77.4984	7679.943
1354.63	0.80576	0.19424	7.07127	7.65065	-3.27697	21.97628	31.5582	1.68074	0.59498	27.26763	88.66625	9.87429	0.38074	7.84943	6471.37222	1.01215	0.00122768	1734.66759	48066.305	 	7692.119
1350.0	0.82459	0.17541	7.07798	7.64359	-3.36624	21.80052	31.56216	1.67575	0.59675	30.81432	88.66112	11.18255	0.37779	7.8873	7521.35197	1.00442	0.00105329	1734.05548	47688.611	81.024	7879.557
1345.0	0.84203	0.15797	7.08456	7.63669	-3.45348	21.63535	31.55715	1.67085	0.5985	34.42915	88.72077	12.51959	0.37501	7.92868	8702.6515	0.9961	9.07515E-4	1733.52489	47312.375	75.2472	8050.754
1340.0	0.85701	0.14299	7.09058	7.6304	-3.53293	21.49117	31.54428	1.66637	0.60011	37.80745	88.83523	13.7723	0.37259	7.97034	9934.52041	0.98784	7.92528E-4	1733.11337	46962.909	69.8932	8195.648
1335.0	0.87	0.13	7.09614	7.62465	-3.6056	21.36525	31.52505	1.66222	0.60161	40.95565	88.99429	14.9423	0.37046	8.01283	11221.67876	0.97955	6.99448E-4	1732.80508	46635.14	65.5538	8319.305
1330.0	0.88136	0.11864	7.10134	7.61931	-3.67321	21.25291	31.50052	1.65834	0.60301	43.89031	89.18903	16.03516	0.36857	8.05592	12570.21606	0.97128	6.2247E-4	1732.59126	46325.18	61.992	8425.614
1327.56	0.8865	0.1135	7.10381	7.61678	-3.70518	21.20075	31.48704	1.65653	0.60367	45.27516	89.29501	16.55159	0.3677	8.07695	13259.33844	0.96728	5.89219E-4	1732.5149	46178.517	 	8473.0
1325.0	0.90136	0.0986351	7.10825	7.6121	-3.76437	21.07181	31.50442	1.65297	0.60497	49.22327	89.26553	18.0272	0.36525	8.11517	14675.20791	0.96118	5.3152E-4	1731.95326	45905.347	83.9666	8642.254
1320.0	0.92374	0.0762614	7.11557	7.60439	-3.86181	20.87113	31.51663	1.64716	0.60711	55.63063	89.32897	20.42979	0.36151	8.19272	17290.47041	0.94911	4.49714E-4	1731.01561	45450.567	90.956	8894.294
1315.0	0.93937	0.0606338	7.12154	7.59815	-3.94067	20.72287	31.50683	1.6425	0.60883	60.50545	89.50716	22.26387	0.35883	8.27345	19710.79441	0.9369	3.93255E-4	1730.1978	45075.287	75.056	9067.286
1310.0	0.95074	0.0492643	7.12666	7.59282	-4.00807	20.60689	31.483	1.63856	0.61029	64.32333	89.75596	23.70381	0.35681	8.3572	22025.20409	0.92459	3.50824E-4	1729.47912	44750.187	65.02	9190.547
1305.0	0.95929	0.0407073	7.13123	7.58808	-4.06799	20.51193	31.4499	1.63511	0.61158	67.40191	90.05047	24.86704	0.35525	8.44349	24299.7146	0.91225	3.16981E-4	1728.84156	44458.28	58.3814	9281.061
1300.0	0.96592	0.0340804	7.13542	7.58375	-4.12269	20.43156	31.41043	1.63198	0.61275	69.95053	90.37571	25.83139	0.35398	8.53287	26583.01938	0.89983	2.88837E-4	1728.26752	44189.229	53.8102	9349.163
1295.0	0.97118	0.0288204	7.13934	7.57971	-4.17381	20.3611	31.36647	1.62907	0.61385	72.11294	90.72233	26.65054	0.35294	8.62451	28913.03062	0.88744	2.64716E-4	1727.74843	43936.468	50.5522	9401.417
1290.0	0.97544	0.0245577	7.14307	7.57587	-4.22229	20.29793	31.31922	1.62633	0.61488	73.98688	91.08442	27.36108	0.35205	8.71878	31319.9131	0.87505	2.43594E-4	1727.27274	43695.669	48.1598	9442.147
1285.0	0.97896	0.021039	7.14667	7.57219	-4.26882	20.24008	31.26953	1.6237	0.61588	75.64123	91.45785	27.98884	0.35127	8.81585	33829.03716	0.86264	2.24805E-4	1726.83299	43463.899	46.354	9474.284
1280.0	0.98191	0.0180898	7.15015	7.56863	-4.31388	20.18613	31.21799	1.62116	0.61684	77.1262	91.83973	28.5527	0.35059	8.91503	36462.97476	0.85031	2.07897E-4	1726.42443	43239.093	44.9612	9499.89
1275.0	0.98442	0.0155811	7.15356	7.56515	-4.35783	20.13507	31.16502	1.61869	0.61778	78.47746	92.22804	29.06611	0.34998	9.01649	39242.16754	0.83804	1.92551E-4	1726.0447	43019.784	43.8618	9520.432
1270.0	0.98658	0.0134232	7.1569	7.56175	-4.40086	20.08639	31.1109	1.61627	0.61871	79.72233	92.62159	29.53935	0.34943	9.12037	42187.00328	0.82581	1.78532E-4	1725.68617	42804.889	42.979	9536.988
1265.0	0.98846	0.0115438	7.16019	7.5584	-4.4432	20.03938	31.0559	1.61388	0.61962	80.88221	93.01909	29.98049	0.34891	9.2261	45317.40053	0.81371	1.65661E-4	1725.35012	42593.599	42.258	9550.365
1260.0	0.99011	0.00989203	7.16345	7.5551	-4.48494	19.99385	31.00017	1.61153	0.62053	81.97213	93.41993	30.39521	0.34844	9.33463	48653.45754	0.80163	1.538E-4	1725.02844	42385.3	41.6598	9561.175
1255.0	0.99157	0.00842565	7.16667	7.55184	-4.5262	19.94937	30.94385	1.6092	0.62143	83.00515	93.82335	30.78845	0.34799	9.44545	52216.33583	0.78964	1.42839E-4	1724.72103	42179.521	41.1558	9569.888
1250.0	0.99289	0.00711464	7.16987	7.5486	-4.56708	19.9057	30.88703	1.60688	0.62232	83.99043	94.22894	31.16366	0.34757	9.55862	56027.58688	0.77774	1.32687E-4	1724.42933	41975.89	40.7262	9576.87
1245.0	0.99407	0.00593416	7.17304	7.54539	-4.60765	19.86265	30.82982	1.60458	0.62322	84.93617	94.63629	31.52397	0.34717	9.67365	60110.61642	0.76597	1.23268E-4	1724.15178	41774.115	40.355	9582.415
1240.0	0.99514	0.00486246	7.1762	7.54221	-4.64793	19.82012	30.77226	1.60229	0.62411	85.84838	95.04517	31.87163	0.34678	9.79102	64490.36128	0.75429	1.14518E-4	1723.88557	41573.956	40.0318	9586.765
1235.0	0.99612	0.00388403	7.17935	7.53904	-4.68798	19.77794	30.71442	1.6	0.625	86.73248	95.45527	32.20869	0.34641	9.91116	69193.66852	0.74269	1.06381E-4	1723.62899	41375.22	39.7472	9590.117
1230.0	0.99701	0.0029854	7.18248	7.53589	-4.72784	19.73602	30.65636	1.59772	0.62589	87.59274	95.86635	32.53679	0.34606	10.03332	74249.0046	0.73121	9.88094E-5	1723.38357	41177.751	39.4938	9592.623
1225.0	0.99784	0.00215622	7.18561	7.53275	-4.76752	19.6943	30.59807	1.59543	0.62679	88.43231	96.27832	32.85711	0.34571	10.15787	79687.72347	0.71985	9.17594E-5	1723.14652	40981.419	39.2664	9594.412
1220.0	0.99861	0.00138716	7.18872	7.52962	-4.80705	19.65272	30.53959	1.59315	0.62769	89.2542	96.69105	33.17079	0.34537	10.28535	85543.6063	0.70855	8.51927E-5	1722.91782	40786.115	39.0608	9595.588
1215.0	0.99933	6.7098E-4	7.19183	7.52651	-4.84644	19.61122	30.48096	1.59087	0.62859	90.06059	97.10439	33.47867	0.34504	10.41487	91853.13768	0.6974	7.9075E-5	1722.69947	40591.75	38.873	9596.242
1210.0	1.0	0.0	7.19494	7.5234	-4.88573	19.5697	30.42223	1.58859	0.62949	90.85428	97.51818	33.78179	0.34472	 	98656.94012	 	7.33743E-5	 	40398.247	38.7006	9596.447
1205.0	1.0	0.0	7.19735	7.52088	-4.91758	19.55143	30.36111	1.58642	0.63035	91.3623	97.93661	33.97577	0.34452	 	105698.5205	 	6.82553E-5	 	40189.801	41.6892	 
1200.0	1.0	0.0	7.19976	7.51836	-4.94939	19.53316	30.29998	1.58425	0.63122	91.8712	98.3549	34.17013	0.34432	 	113298.8194	 	6.34612E-5	 	40001.612	37.6378	 
1195.0	1.0	0.0	7.20216	7.51585	-4.98114	19.5149	30.23885	1.58206	0.63209	92.38094	98.77301	34.36486	0.34412	 	121506.4538	 	5.89736E-5	 	39813.666	37.5892	 
1190.0	1.0	0.0	7.20457	7.51334	-5.01285	19.49665	30.17772	1.57987	0.63297	92.89151	99.19092	34.55996	0.34392	 	130374.6338	 	5.4775E-5	 	39625.968	37.5396	 
1185.0	1.0	0.0	7.20697	7.51084	-5.0445	19.47841	30.11659	1.57766	0.63385	93.40288	99.60862	34.75542	0.34372	 	139961.6298	 	5.08487E-5	 	39438.522	37.4892	 
1180.0	1.0	0.0	7.20937	7.50834	-5.0761	19.46017	30.05546	1.57545	0.63474	93.91504	100.02608	34.95122	0.34352	 	150331.2907	 	4.71789E-5	 	39251.329	37.4386	 
1175.0	1.0	0.0	7.21177	7.50584	-5.10765	19.44194	29.99433	1.57323	0.63564	94.42796	100.44329	35.14737	0.34331	 	161553.6189	 	4.37506E-5	 	39064.391	37.3876	 
1170.0	1.0	0.0	7.21416	7.50335	-5.13915	19.42371	29.9332	1.571	0.63654	94.94162	100.86021	35.34386	0.34311	 	173705.4095	 	4.05494E-5	 	38877.706	37.337	 
1165.0	1.0	0.0	7.21655	7.50086	-5.1706	19.4055	29.87206	1.56876	0.63745	95.45601	101.27683	35.54067	0.34291	 	186870.9592	 	3.7562E-5	 	38691.274	37.2864	 
1160.0	1.0	0.0	7.21894	7.49838	-5.202	19.38728	29.81093	1.56651	0.63836	95.97109	101.69313	35.7378	0.34271	 	201142.8553	 	3.47755E-5	 	38505.093	37.2362	 
1155.0	1.0	0.0	7.22133	7.4959	-5.23335	19.36908	29.74979	1.56426	0.63928	96.48686	102.10909	35.93524	0.34251	 	216622.8533	 	3.21778E-5	 	38319.161	37.1864	 
1150.0	1.0	0.0	7.22372	7.49343	-5.26465	19.35088	29.68865	1.56199	0.64021	97.00329	102.52468	36.13299	0.34231	 	233422.8539	 	2.97573E-5	 	38133.478	37.1366	 
1145.0	1.0	0.0	7.2261	7.49095	-5.2959	19.33269	29.62751	1.55971	0.64114	97.52035	102.9399	36.33104	0.34211	 	251665.9908	 	2.75033E-5	 	37948.041	37.0874	 
1140.0	1.0	0.0	7.22848	7.48849	-5.3271	19.3145	29.56637	1.55743	0.64208	98.03804	103.35471	36.52938	0.34191	 	271487.8441	 	2.54053E-5	 	37762.85	37.0382	 
1135.0	1.0	0.0	7.23086	7.48602	-5.35824	19.29632	29.50523	1.55513	0.64303	98.55633	103.7691	36.728	0.34171	 	293037.7934	 	2.34537E-5	 	37577.902	36.9896	 
1130.0	1.0	0.0	7.23324	7.48356	-5.38934	19.27815	29.44408	1.55283	0.64399	99.0752	104.18305	36.92689	0.3415	 	316480.528	 	2.16393E-5	 	37393.198	36.9408	 
1125.0	1.0	0.0	7.23561	7.48111	-5.42039	19.25998	29.38294	1.55052	0.64495	99.59463	104.59654	37.12606	0.3413	 	341997.7342	 	1.99534E-5	 	37208.734	36.8928	 
1120.0	1.0	0.0	7.23798	7.47866	-5.45138	19.24183	29.32179	1.54819	0.64591	100.1146	105.00955	37.32549	0.3411	 	369789.981	 	1.83878E-5	 	37024.51	36.8448	 
1115.0	1.0	0.0	7.24035	7.47621	-5.48233	19.22367	29.26064	1.54586	0.64689	100.63509	105.42206	37.52517	0.3409	 	400078.8297	 	1.69347E-5	 	36840.524	36.7972	 
1110.0	1.0	0.0	7.24272	7.47376	-5.51323	19.20553	29.19949	1.54352	0.64787	101.15608	105.83405	37.72509	0.3407	 	433109.1946	 	1.55869E-5	 	36656.775	36.7498	 
1105.0	1.0	0.0	7.24509	7.47132	-5.54407	19.18739	29.13834	1.54117	0.64886	101.67755	106.24552	37.92526	0.3405	 	469151.989	 	1.43374E-5	 	36473.26	36.703	 
1100.0	1.0	0.0	7.24745	7.46889	-5.57486	19.16925	29.07719	1.5388	0.64986	102.19948	106.65642	38.12566	0.3403	 	508507.0892	 	1.31798E-5	 	36289.979	36.6562	 
1095.0	1.0	0.0	7.24981	7.46646	-5.60561	19.15113	29.01604	1.53643	0.65086	102.72186	107.06676	38.32628	0.3401	 	551506.6615	 	1.21079E-5	 	36106.93	36.6098	 
1090.0	1.0	0.0	7.25217	7.46403	-5.6363	19.13301	28.95488	1.53405	0.65187	103.24466	107.47651	38.52712	0.3399	 	598518.896	 	1.11161E-5	 	35924.111	36.5638	 
1085.0	1.0	0.0	7.25452	7.4616	-5.66695	19.11489	28.89372	1.53166	0.65289	103.76787	107.88565	38.72818	0.33969	 	649952.2022	 	1.01989E-5	 	35741.52	36.5182	 
1080.0	1.0	0.0	7.25688	7.45918	-5.69754	19.09679	28.83257	1.52926	0.65391	104.29146	108.29416	38.92944	0.33949	 	706259.9262	 	9.35122E-6	 	35559.155	36.473	 
1075.0	1.0	0.0	7.25923	7.45677	-5.72809	19.07869	28.77141	1.52684	0.65495	104.81541	108.70204	39.13089	0.33929	 	767945.6582	 	8.5683E-6	 	35377.015	36.428	 
1070.0	1.0	0.0	7.26158	7.45436	-5.75858	19.06059	28.71025	1.52442	0.65599	105.33972	109.10925	39.33253	0.33909	 	835569.2094	 	7.84565E-6	 	35195.099	36.3832	 
1065.0	1.0	0.0	7.26392	7.45195	-5.78902	19.0425	28.64908	1.52199	0.65703	105.86435	109.51579	39.53436	0.33889	 	909753.3485	 	7.17906E-6	 	35013.403	36.3392	 
1060.0	1.0	0.0	7.26627	7.44954	-5.81942	19.02442	28.58792	1.51955	0.65809	106.38929	109.92163	39.73637	0.33869	 	991191.398	 	6.5646E-6	 	34831.927	36.2952	 
1055.0	1.0	0.0	7.26861	7.44714	-5.84976	19.00635	28.52675	1.51709	0.65915	106.91452	110.32677	39.93854	0.33849	 	1080655.81	 	5.99855E-6	 	34650.668	36.2518	 
1050.0	1.0	0.0	7.27095	7.44475	-5.88005	18.98828	28.46559	1.51463	0.66023	107.44002	110.73117	40.14087	0.33829	 	1179007.853	 	5.47746E-6	 	34469.624	36.2088	 
1045.0	1.0	0.0	7.27329	7.44236	-5.9103	18.97022	28.40442	1.51216	0.66131	107.96578	111.13484	40.34337	0.33809	 	1287208.565	 	4.99807E-6	 	34288.794	36.166	 
1040.0	1.0	0.0	7.27562	7.43997	-5.94049	18.95217	28.34325	1.50967	0.6624	108.49177	111.53774	40.546	0.33788	 	1406331.147	 	4.55736E-6	 	34108.175	36.1238	 
1035.0	1.0	0.0	7.27795	7.43758	-5.97063	18.93412	28.28208	1.50718	0.66349	109.01797	111.93987	40.74879	0.33768	 	1537574.996	 	4.15248E-6	 	33927.765	36.082	 
1030.0	1.0	0.0	7.28028	7.4352	-6.00073	18.91608	28.22091	1.50467	0.6646	109.54438	112.34121	40.9517	0.33748	 	1682281.614	 	3.78079E-6	 	33747.562	36.0406	 
1025.0	1.0	0.0	7.28261	7.43283	-6.03077	18.89804	28.15973	1.50215	0.66571	110.07096	112.74174	41.15474	0.33728	 	1841952.651	 	3.4398E-6	 	33567.564	35.9996	 
1020.0	1.0	0.0	7.28494	7.43045	-6.06077	18.88001	28.09856	1.49962	0.66683	110.59771	113.14145	41.35791	0.33708	 	2018270.399	 	3.1272E-6	 	33387.769	35.959	 
1015.0	1.0	0.0	7.28726	7.42809	-6.09071	18.86199	28.03738	1.49709	0.66796	111.12459	113.54031	41.56119	0.33688	 	2213121.067	 	2.84085E-6	 	33208.173	35.9192	 
1010.0	1.0	0.0	7.28958	7.42572	-6.1206	18.84397	27.9762	1.49454	0.6691	111.65161	113.93833	41.76458	0.33668	 	2428621.266	 	2.57872E-6	 	33028.776	35.8794	 
1005.0	1.0	0.0	7.2919	7.42336	-6.15045	18.82597	27.91502	1.49198	0.67025	112.17872	114.33547	41.96806	0.33648	 	2667148.153	 	2.33895E-6	 	32849.574	35.8404	 
1000.0	1.0	0.0	7.29421	7.421	-6.18024	18.80796	27.85384	1.4894	0.67141	112.70593	114.73173	42.17165	0.33628	 	2931373.777	 	2.1198E-6	 	32670.566	35.8016	 
995.0	1.0	0.0	7.29653	7.41865	-6.20999	18.78997	27.79266	1.48682	0.67258	113.23321	115.12709	42.37532	0.33608	 	3224304.25	 	1.91965E-6	 	32491.747	35.7638	 
990.0	1.0	0.0	7.29884	7.4163	-6.23968	18.77198	27.73147	1.48422	0.67375	113.76054	115.52153	42.57907	0.33587	 	3549324.463	 	1.73698E-6	 	32313.117	35.726	 
985.0	1.0	0.0	7.30115	7.41396	-6.26933	18.754	27.67028	1.48162	0.67494	114.2879	115.91505	42.78289	0.33567	 	3910249.168	 	1.57042E-6	 	32134.672	35.689	 
980.0	1.0	0.0	7.30345	7.41162	-6.29893	18.73602	27.6091	1.479	0.67613	114.81528	116.30762	42.98679	0.33547	 	4311381.411	 	1.41864E-6	 	31956.409	35.6526	 
975.0	1.0	0.0	7.30576	7.40928	-6.32847	18.71805	27.54791	1.47637	0.67734	115.34267	116.69924	43.19074	0.33527	 	4757579.407	 	1.28046E-6	 	31778.326	35.6166	 
970.0	1.0	0.0	7.30806	7.40695	-6.35797	18.70009	27.48672	1.47373	0.67855	115.87003	117.08988	43.39475	0.33507	 	5254333.173	 	1.15476E-6	 	31600.419	35.5814	 
965.0	1.0	0.0	7.31036	7.40462	-6.38742	18.68213	27.42552	1.47108	0.67977	116.39735	117.47953	43.59881	0.33487	 	5807852.43	 	1.04051E-6	 	31422.687	35.5464	 
960.0	1.0	0.0	7.31265	7.40229	-6.41681	18.66418	27.36433	1.46841	0.68101	116.92463	117.86818	43.8029	0.33467	 	6425167.501	 	9.36738E-7	 	31245.125	35.5124	 
955.0	1.0	0.0	7.31495	7.39997	-6.44616	18.64624	27.30313	1.46574	0.68225	117.45183	118.25582	44.00704	0.33447	 	7114245.288	 	8.42576E-7	 	31067.731	35.4788	 
950.0	1.0	0.0	7.31724	7.39765	-6.47546	18.6283	27.24194	1.46305	0.6835	117.97894	118.64243	44.2112	0.33427	 	7884122.667	 	7.57204E-7	 	30890.501	35.446	 
945.0	1.0	0.0	7.31953	7.39534	-6.50471	18.61037	27.18074	1.46035	0.68477	118.50595	119.02799	44.41538	0.33406	 	8745060.115	 	6.79868E-7	 	30713.433	35.4136	 
940.0	1.0	0.0	7.32181	7.39303	-6.53391	18.59245	27.11954	1.45764	0.68604	119.03283	119.4125	44.61958	0.33386	 	9708718.79	 	6.09873E-7	 	30536.522	35.3822	 
935.0	1.0	0.0	7.3241	7.39072	-6.56306	18.57453	27.05834	1.45491	0.68733	119.55957	119.79594	44.82378	0.33366	 	1.078836488E7	 	5.46578E-7	 	30359.765	35.3514	 
930.0	1.0	0.0	7.32638	7.38842	-6.59216	18.55662	26.99713	1.45218	0.68862	120.08616	120.1783	45.02799	0.33346	 	1.199910565E7	 	4.89393E-7	 	30183.159	35.3212	 
925.0	1.0	0.0	7.32866	7.38612	-6.62121	18.53872	26.93593	1.44943	0.68993	120.61257	120.55956	45.2322	0.33326	 	1.335816239E7	 	4.37775E-7	 	30006.699	35.292	 
920.0	1.0	0.0	7.33094	7.38383	-6.65022	18.52082	26.87472	1.44667	0.69124	121.13878	120.93971	45.43639	0.33306	 	1.488518645E7	 	3.91226E-7	 	29830.383	35.2632	 
915.0	1.0	0.0	7.33321	7.38154	-6.67917	18.50293	26.81352	1.44389	0.69257	121.66479	121.31873	45.64057	0.33286	 	1.660262539E7	 	3.49286E-7	 	29654.205	35.2356	 
910.0	1.0	0.0	7.33548	7.37925	-6.70807	18.48504	26.75231	1.44111	0.69391	122.19057	121.69662	45.84472	0.33266	 	1.853614791E7	 	3.11535E-7	 	29478.163	35.2084	 
905.0	1.0	0.0	7.33775	7.37697	-6.73693	18.46716	26.6911	1.43831	0.69526	122.7161	122.07336	46.04884	0.33246	 	2.071513727E7	 	2.77587E-7	 	29302.251	35.1824	 
900.0	1.0	0.0	7.34002	7.37469	-6.76573	18.44929	26.62989	1.4355	0.69662	123.24137	122.44893	46.25293	0.33225	 	2.317326514E7	 	2.47089E-7	 	29126.466	35.157	 
895.0	1.0	0.0	7.34228	7.37242	-6.79449	18.43143	26.56867	1.43267	0.698	123.76636	122.82333	46.45697	0.33205	 	2.59491596E7	 	2.19716E-7	 	28950.803	35.1326	 
890.0	1.0	0.0	7.34455	7.37015	-6.8232	18.41357	26.50746	1.42983	0.69938	124.29105	123.19654	46.66096	0.33185	 	2.908718367E7	 	1.95173E-7	 	28775.257	35.1092	 
885.0	1.0	0.0	7.34681	7.36788	-6.85185	18.39572	26.44624	1.42698	0.70078	124.81543	123.56855	46.8649	0.33165	 	3.263834376E7	 	1.7319E-7	 	28599.823	35.0868	 
880.0	1.0	0.0	7.34906	7.36562	-6.88046	18.37787	26.38503	1.42412	0.70219	125.33948	123.93935	47.06877	0.33145	 	3.666135098E7	 	1.5352E-7	 	28424.496	35.0654	 
875.0	1.0	0.0	7.35132	7.36336	-6.90902	18.36003	26.32381	1.42124	0.70361	125.86318	124.30892	47.27258	0.33125	 	4.122386246E7	 	1.35937E-7	 	28249.272	35.0448	 
870.0	1.0	0.0	7.35357	7.3611	-6.93753	18.3422	26.26259	1.41835	0.70504	126.38652	124.67724	47.4763	0.33105	 	4.640393502E7	 	1.20236E-7	 	28074.145	35.0254	 
865.0	1.0	0.0	7.35582	7.35885	-6.966	18.32438	26.20137	1.41545	0.70649	126.90947	125.04432	47.67995	0.33085	 	5.22917297E7	 	1.06231E-7	 	27899.109	35.0072	 
860.0	1.0	0.0	7.35807	7.3566	-6.99441	18.30656	26.14015	1.41253	0.70795	127.43203	125.41014	47.88351	0.33065	 	5.899151278E7	 	9.37529E-8	 	27724.159	34.99	 
855.0	1.0	0.0	7.36031	7.35436	-7.02277	18.28875	26.07893	1.4096	0.70942	127.95416	125.77468	48.08697	0.33045	 	6.66240079E7	 	8.26462E-8	 	27549.288	34.9742	 
850.0	1.0	0.0	7.36255	7.35212	-7.05109	18.27094	26.0177	1.40665	0.71091	128.47587	126.13793	48.29033	0.33024	 	7.532916451E7	 	7.27715E-8	 	27374.491	34.9594	 
845.0	1.0	0.0	7.36479	7.34989	-7.07935	18.25314	25.95648	1.40369	0.71241	128.99713	126.49988	48.49359	0.33004	 	8.526942043E7	 	6.4002E-8	 	27199.76	34.9462	 
840.0	1.0	0.0	7.36703	7.34765	-7.10757	18.23535	25.89526	1.40072	0.71392	129.51792	126.86052	48.69673	0.32984	 	9.66335518E7	 	5.62228E-8	 	27025.09	34.934	 
835.0	1.0	0.0	7.36927	7.34543	-7.13574	18.21756	25.83403	1.39773	0.71544	130.03822	127.21984	48.89975	0.32964	 	1.096412223E8	 	4.933E-8	 	26850.473	34.9234	 
830.0	1.0	0.0	7.3715	7.3432	-7.16386	18.19978	25.77281	1.39473	0.71698	130.55803	127.57782	49.10264	0.32944	 	1.245483657E8	 	4.32298E-8	 	26675.902	34.9142	 
825.0	1.0	0.0	7.37373	7.34098	-7.19193	18.18201	25.71159	1.39172	0.71854	131.07733	127.93446	49.3054	0.32924	 	1.416535633E8	 	3.78374E-8	 	26501.368	34.9068	 
820.0	1.0	0.0	7.37595	7.33876	-7.21995	18.16424	25.65036	1.38869	0.72011	131.59609	128.28974	49.50802	0.32904	 	1.613056104E8	 	3.30763E-8	 	26326.865	34.9006	 
815.0	1.0	0.0	7.37818	7.33655	-7.24792	18.14648	25.58914	1.38564	0.72169	132.1143	128.64366	49.7105	0.32884	 	1.839125063E8	 	2.88778E-8	 	26152.384	34.8962	 
810.0	1.0	0.0	7.3804	7.33434	-7.27584	18.12873	25.52791	1.38258	0.72328	132.63194	128.99619	49.91283	0.32864	 	2.099521499E8	 	2.518E-8	 	25977.916	34.8936	 
805.0	1.0	0.0	7.38262	7.33214	-7.30372	18.11098	25.46669	1.37951	0.7249	133.14901	129.34734	50.115	0.32843	 	2.399850849E8	 	2.19271E-8	 	25803.452	34.8928	 
800.0	1.0	0.0	7.38484	7.32994	-7.33154	18.09324	25.40547	1.37642	0.72652	133.66548	129.69708	50.317	0.32823	 	2.746697063E8	 	1.90694E-8	 	25628.982	34.894	 
795.0	1.0	0.0	7.38705	7.32774	-7.35932	18.07551	25.34424	1.37332	0.72816	134.18133	130.04541	50.51883	0.32803	 	3.14780433E8	 	1.65619E-8	 	25454.497	34.897	 
790.0	1.0	0.0	7.38926	7.32555	-7.38705	18.05778	25.28302	1.3702	0.72982	134.69655	130.39232	50.72049	0.32783	 	3.612294564E8	 	1.43648E-8	 	25279.985	34.9024	 
785.0	1.0	0.0	7.39147	7.32336	-7.41473	18.04006	25.2218	1.36706	0.73149	135.21113	130.73779	50.92197	0.32763	 	4.15092808E8	 	1.2442E-8	 	25105.436	34.9098	 
780.0	1.0	0.0	7.39368	7.32117	-7.44236	18.02234	25.16058	1.36392	0.73318	135.72504	131.08182	51.12325	0.32743	 	4.77641651E8	 	1.07615E-8	 	24930.837	34.9198	 
775.0	1.0	0.0	7.39588	7.31899	-7.46995	18.00464	25.09936	1.36075	0.73489	136.23828	131.4244	51.32435	0.32723	 	5.503799031E8	 	9.29496E-9	 	24756.177	34.932	 
770.0	1.0	0.0	7.39808	7.31681	-7.49748	17.98694	25.03814	1.35757	0.73661	136.75082	131.76551	51.52524	0.32703	 	6.350895406E8	 	8.01675E-9	 	24581.443	34.9468	 
765.0	1.0	0.0	7.40028	7.31464	-7.52497	17.96924	24.97692	1.35437	0.73835	137.26265	132.10515	51.72592	0.32683	 	7.338852401E8	 	6.90428E-9	 	24406.62	34.9646	 
760.0	1.0	0.0	7.40248	7.31247	-7.55241	17.95155	24.91571	1.35116	0.7401	137.77375	132.4433	51.92639	0.32663	 	8.492803895E8	 	5.93744E-9	 	24231.693	34.9854	 
755.0	1.0	0.0	7.40467	7.3103	-7.5798	17.93387	24.85449	1.34794	0.74187	138.28411	132.77996	52.12664	0.32642	 	9.842669627E8	 	5.09836E-9	 	24056.649	35.0088	 
750.0	1.0	0.0	7.40686	7.30814	-7.60714	17.9162	24.79328	1.34469	0.74366	138.79372	133.11511	52.32667	0.32622	 	1.142412333E9	 	4.37122E-9	 	23881.469	35.036	 
745.0	1.0	0.0	7.40905	7.30598	-7.63443	17.89853	24.73207	1.34143	0.74547	139.30254	133.44874	52.52647	0.32602	 	1.327976815E9	 	3.74204E-9	 	23706.136	35.0666	 
740.0	1.0	0.0	7.41124	7.30382	-7.66167	17.88087	24.67085	1.33816	0.7473	139.81058	133.78085	52.72603	0.32582	 	1.54605661E9	 	3.19842E-9	 	23530.632	35.1008	 
735.0	1.0	0.0	7.41342	7.30167	-7.68887	17.86321	24.60964	1.33487	0.74914	140.31782	134.11143	52.92534	0.32562	 	1.802757961E9	 	2.72945E-9	 	23354.936	35.1392	 
730.0	1.0	0.0	7.4156	7.29953	-7.71602	17.84556	24.54844	1.33156	0.751	140.82423	134.44046	53.12441	0.32542	 	2.105409686E9	 	2.3255E-9	 	23179.028	35.1816	 
725.0	1.0	0.0	7.41778	7.29738	-7.74312	17.82792	24.48723	1.32823	0.75288	141.3298	134.76793	53.32322	0.32522	 	2.462823029E9	 	1.9781E-9	 	23002.884	35.2288	 
720.0	1.0	0.0	7.41996	7.29524	-7.77017	17.81028	24.42602	1.32489	0.75478	141.83453	135.09385	53.52176	0.32502	 	2.885609913E9	 	1.67982E-9	 	22826.481	35.2806	 
715.0	1.0	0.0	7.42213	7.29311	-7.79717	17.79266	24.36482	1.32153	0.7567	142.33838	135.41818	53.72005	0.32482	 	3.386573466E9	 	1.42413E-9	 	22649.79	35.3382	 
710.0	1.0	0.0	7.4243	7.29098	-7.82412	17.77503	24.30361	1.31816	0.75864	142.84135	135.74094	53.91805	0.32462	 	3.981188089E9	 	1.2053E-9	 	22472.786	35.4008	 
705.0	1.0	0.0	7.42647	7.28885	-7.85103	17.75742	24.24241	1.31476	0.76059	143.34342	136.06211	54.11578	0.32441	 	4.688190744E9	 	1.01833E-9	 	22295.435	35.4702	 
700.0	1.0	0.0	7.42863	7.28672	-7.87789	17.73981	24.18121	1.31135	0.76257	143.84458	136.38167	54.31322	0.32421	 	5.530310593E9	 	8.58849E-10	 	22117.707	35.5456	 
695.0	1.0	0.0	7.4308	7.2846	-7.9047	17.7222	24.12	1.30793	0.76457	144.3448	136.69963	54.51038	0.32401	 	6.535171125E9	 	7.23057E-10	 	21939.564	35.6286	 
690.0	1.0	0.0	7.43296	7.28248	-7.93146	17.70461	24.0588	1.30448	0.76659	144.84409	137.01596	54.70723	0.32381	 	7.736407741E9	 	6.07633E-10	 	21760.967	35.7194	 
685.0	1.0	0.0	7.43511	7.28037	-7.95817	17.68702	23.99759	1.30102	0.76863	145.34241	137.33067	54.90378	0.32361	 	9.175055018E9	 	5.09696E-10	 	21581.876	35.8182	 
680.0	1.0	0.0	7.43727	7.27826	-7.98484	17.66943	23.93639	1.29754	0.77069	145.83975	137.64374	55.10002	0.32341	 	1.09013E10	 	4.26747E-10	 	21402.242	35.9268	 
675.0	1.0	0.0	7.43942	7.27616	-8.01145	17.65186	23.87518	1.29404	0.77277	146.3361	137.95517	55.29595	0.32321	 	1.2976499999999998E10	 	3.56621E-10	 	21222.017	36.045	 
670.0	1.0	0.0	7.44157	7.27406	-8.03802	17.63429	23.81397	1.29053	0.77488	146.83145	138.26494	55.49156	0.32301	 	1.5476099999999998E10	 	2.97444E-10	 	21041.144	36.1746	 
665.0	1.0	0.0	7.44372	7.27196	-8.06455	17.61672	23.75276	1.28699	0.77701	147.32578	138.57305	55.68684	0.32281	 	1.84929E10	 	2.47602E-10	 	20859.564	36.316	 
660.0	1.0	0.0	7.44586	7.26986	-8.09102	17.59917	23.69155	1.28344	0.77916	147.81907	138.87948	55.88178	0.32261	 	2.2141E10	 	2.05703E-10	 	20677.209	36.471	 
655.0	1.0	0.0	7.448	7.26777	-8.11744	17.58162	23.63033	1.27987	0.78133	148.3113	139.18424	56.07639	0.3224	 	2.6561599999999996E10	 	1.7055E-10	 	20494.006	36.6406	 
650.0	1.0	0.0	7.45014	7.26569	-8.14382	17.56407	23.56911	1.27628	0.78353	148.80248	139.48731	56.27066	0.3222	 	3.1929299999999996E10	 	1.41114E-10	 	20309.875	36.8262	 
645.0	1.0	0.0	7.45228	7.2636	-8.17015	17.54653	23.50789	1.27268	0.78575	149.29257	139.78869	56.46457	0.322	 	3.84607E10	 	1.16515E-10	 	20124.726	37.0298	 
640.0	1.0	0.0	7.45441	7.26153	-8.19643	17.529	23.44666	1.26905	0.78799	149.78156	140.08836	56.65813	0.3218	 	4.6425E10	 	9.60013E-11	 	19938.458	37.2536	 
635.0	1.0	0.0	7.45654	7.25945	-8.22267	17.51148	23.38543	1.26541	0.79026	150.26944	140.38631	56.85133	0.3216	 	5.615749999999999E10	 	7.8929E-11	 	19750.961	37.4994	 
630.0	1.0	0.0	7.45867	7.25738	-8.24885	17.49396	23.32419	1.26174	0.79255	150.7562	140.68255	57.04416	0.3214	 	6.807699999999999E10	 	6.47509E-11	 	19562.112	37.7698	 
625.0	1.0	0.0	7.46079	7.25531	-8.27499	17.47645	23.26294	1.25806	0.79487	151.24181	140.97705	57.23661	0.3212	 	8.27077E10	 	5.30017E-11	 	19371.773	38.0678	 
620.0	1.0	0.0	7.46292	7.25325	-8.30108	17.45895	23.20169	1.25436	0.79722	151.72627	141.26982	57.42869	0.321	 	1.00707E11	 	4.32865E-11	 	19179.789	38.3968	 
615.0	1.0	0.0	7.46504	7.25119	-8.32713	17.44145	23.14043	1.25064	0.79959	152.20956	141.56085	57.62038	0.3208	 	1.22901E11	 	3.52709E-11	 	18976.299	40.698	 
610.0	1.0	0.0	7.46715	7.24913	-8.35312	17.42396	23.07917	1.2469	0.80199	152.69166	141.85012	57.81169	0.3206	 	1.50333E11	 	2.86726E-11	 	18768.28	41.6038	 
605.0	1.0	0.0	7.46927	7.24708	-8.37907	17.40647	23.01789	1.24314	0.80441	153.17256	142.13763	58.00259	0.32039	 	1.84318E11	 	2.32534E-11	 	18562.214	41.2132	 
600.0	1.0	0.0	7.47138	7.24503	-8.40497	17.38899	22.95661	1.23936	0.80687	153.65225	142.42338	58.1931	0.32019	 	2.26526E11	 	1.88129E-11	 	18358.026	40.8376	 
595.0	1.0	0.0	7.47349	7.24299	-8.43082	17.37152	22.89532	1.23557	0.80935	154.13071	142.70735	58.38319	0.31999	 	2.79075E11	 	1.51831E-11	 	18155.647	40.4758	 
590.0	1.0	0.0	7.4756	7.24094	-8.45663	17.35405	22.83402	1.23175	0.81185	154.60793	142.98954	58.57288	0.31979	 	3.44662E11	 	1.2223E-11	 	17955.011	40.1272	 
585.0	1.0	0.0	7.4777	7.23891	-8.48238	17.3366	22.77271	1.22791	0.81439	155.08389	143.26994	58.76214	0.31959	 	4.26732E11	 	9.81511E-12	 	17756.058	39.7906	 
580.0	1.0	0.0	7.4798	7.23687	-8.50809	17.31914	22.7114	1.22405	0.81696	155.55857	143.54854	58.95098	0.31939	 	5.29693E11	 	7.86118E-12	 	17558.726	39.4664	 
575.0	1.0	0.0	7.4819	7.23484	-8.53376	17.3017	22.65007	1.22017	0.81956	156.03197	143.82533	59.13939	0.31919	 	6.59205E11	 	6.2797E-12	 	17362.962	39.1528	 
570.0	1.0	0.0	7.484	7.23282	-8.55937	17.28426	22.58873	1.21627	0.82218	156.50407	144.10032	59.32737	0.31899	 	8.22552E11	 	5.00297E-12	 	17168.712	38.85	 
565.0	1.0	0.0	7.48609	7.2308	-8.58494	17.26682	22.52739	1.21235	0.82484	156.97485	144.37348	59.5149	0.31879	 	1.02914E12	 	3.97498E-12	 	16975.926	38.5572	 
560.0	1.0	0.0	7.48818	7.22878	-8.61046	17.2494	22.46603	1.20841	0.82753	157.44431	144.64482	59.70199	0.31859	 	1.29114E12	 	3.14947E-12	 	16784.558	38.2736	 
555.0	1.0	0.0	7.49027	7.22676	-8.63593	17.23198	22.40467	1.20445	0.83026	157.91242	144.91433	59.88862	0.31838	 	1.62435E12	 	2.48838E-12	 	16594.561	37.9994	 
550.0	1.0	0.0	7.49235	7.22475	-8.66135	17.21457	22.3433	1.20046	0.83301	158.37917	145.182	60.0748	0.31818	 	2.04935E12	 	1.96042E-12	 	16405.894	37.7334	 
545.0	1.0	0.0	7.49444	7.22274	-8.68673	17.19716	22.28191	1.19646	0.8358	158.84456	145.44782	60.26051	0.31798	 	2.59303E12	 	1.53997E-12	 	16218.516	37.4756	 
540.0	1.0	0.0	7.49651	7.22074	-8.71206	17.17976	22.22052	1.19243	0.83862	159.30855	145.71179	60.44575	0.31778	 	3.2906E12	 	1.2061E-12	 	16032.39	37.2252	 
535.0	1.0	0.0	7.49859	7.21874	-8.73734	17.16237	22.15912	1.18839	0.84148	159.77115	145.9739	60.63052	0.31758	 	4.18834E12	 	9.41753E-13	 	15847.477	36.9826	 
530.0	1.0	0.0	7.50067	7.21674	-8.76258	17.14498	22.09771	1.18431	0.84437	160.23233	146.23415	60.81481	0.31738	 	5.34726E12	 	7.33081E-13	 	15663.745	36.7464	 
525.0	1.0	0.0	7.50274	7.21475	-8.78777	17.1276	22.03629	1.18022	0.8473	160.69209	146.49252	60.99861	0.31718	 	6.84808E12	 	5.68856E-13	 	15481.16	36.517	 
520.0	1.0	0.0	7.50481	7.21276	-8.81291	17.11022	21.97487	1.17611	0.85026	161.15041	146.74901	61.18192	0.31698	 	8.79791E12	 	4.4001E-13	 	15299.691	36.2938	 
515.0	1.0	0.0	7.50687	7.21078	-8.838	17.09286	21.91344	1.17197	0.85326	161.60727	147.00362	61.36474	0.31678	 	1.13394E13	 	3.3924E-13	 	15119.309	36.0764	 
510.0	1.0	0.0	7.50893	7.2088	-8.86305	17.0755	21.852	1.16781	0.8563	162.06266	147.25634	61.54705	0.31658	 	1.4663E13	 	2.6068E-13	 	14939.984	35.865	 
505.0	1.0	0.0	7.51099	7.20682	-8.88805	17.05814	21.79055	1.16362	0.85938	162.51658	147.50716	61.72886	0.31637	 	1.90244E13	 	1.99636E-13	 	14761.692	35.6584	 
500.0	1.0	0.0	7.51305	7.20485	-8.913	17.04079	21.7291	1.15942	0.8625	162.969	147.75608	61.91015	0.31617	 	2.47673E13	 	1.5236E-13	 	14584.405	35.4574	 
495.0	1.0	0.0	7.51511	7.20288	-8.93791	17.02345	21.66764	1.15519	0.86566	163.4199	148.00309	62.09093	0.31597	 	3.2356E13	 	1.15872E-13	 	14408.099	35.2612	 
490.0	1.0	0.0	7.51716	7.20091	-8.96277	17.00612	21.60618	1.15093	0.86886	163.86929	148.24819	62.27118	0.31577	 	4.24199E13	 	8.78066E-14	 	14232.752	35.0694	 
485.0	1.0	0.0	7.51921	7.19895	-8.98758	16.98879	21.54471	1.14665	0.8721	164.31714	148.49136	62.45091	0.31557	 	5.58152E13	 	6.62963E-14	 	14058.341	34.8822	 
480.0	1.0	0.0	7.52125	7.19699	-9.01234	16.97147	21.48324	1.14235	0.87539	164.76345	148.73261	62.6301	0.31537	 	7.37114E13	 	4.98693E-14	 	13884.845	34.6992	 
475.0	1.0	0.0	7.5233	7.19503	-9.03706	16.95415	21.42176	1.13802	0.87872	165.20819	148.97193	62.80875	0.31517	 	9.7712E13	 	3.73704E-14	 	13712.244	34.5202	 
470.0	1.0	0.0	7.52534	7.19308	-9.06173	16.93685	21.36028	1.13367	0.88209	165.65136	149.20931	62.98686	0.31497	 	1.3002399999999998E14	 	2.78958E-14	 	13540.519	34.345	 
465.0	1.0	0.0	7.52738	7.19113	-9.08635	16.91954	21.2988	1.12929	0.88551	166.09294	149.44474	63.16442	0.31477	 	1.73699E14	 	2.07412E-14	 	13369.652	34.1734	 
460.0	1.0	0.0	7.52941	7.18919	-9.11093	16.90225	21.23731	1.12489	0.88897	166.53293	149.67824	63.34143	0.31457	 	2.32971E14	 	1.53595E-14	 	13199.624	34.0056	 
455.0	1.0	0.0	7.53145	7.18725	-9.13546	16.88496	21.17583	1.12046	0.89249	166.9713	149.90977	63.51787	0.31436	 	3.13743E14	 	1.13275E-14	 	13030.419	33.841	 
450.0	1.0	0.0	7.53348	7.18531	-9.15994	16.86768	21.11434	1.11601	0.89605	167.40804	150.13935	63.69375	0.31416	 	4.24276E14	 	8.31891E-15	 	12862.02	33.6798	 
445.0	1.0	0.0	7.5355	7.18338	-9.18438	16.8504	21.05285	1.11153	0.89966	167.84315	150.36697	63.86907	0.31396	 	5.76187E14	 	6.08329E-15	 	12694.414	33.5212	 
440.0	1.0	0.0	7.53753	7.18145	-9.20876	16.83313	20.99136	1.10703	0.90332	168.2766	150.59262	64.0438	0.31376	 	7.8588E14	 	4.42906E-15	 	12527.584	33.366	 
435.0	1.0	0.0	7.53955	7.17953	-9.23311	16.81587	20.92987	1.10249	0.90703	168.7084	150.8163	64.21796	0.31356	 	1.07663E15	 	3.21029E-15	 	12361.516	33.2136	 
430.0	1.0	0.0	7.54157	7.1776	-9.2574	16.79862	20.86838	1.09794	0.9108	169.13852	151.03801	64.39153	0.31336	 	1.48162E15	 	2.31632E-15	 	12196.198	33.0636	 
425.0	1.0	0.0	7.54358	7.17569	-9.28165	16.78137	20.80688	1.09335	0.91462	169.56695	151.25773	64.56452	0.31316	 	2.04836E15	 	1.66352E-15	 	12031.615	32.9166	 
420.0	1.0	0.0	7.5456	7.17377	-9.30585	16.76412	20.74539	1.08874	0.91849	169.99368	151.47546	64.73691	0.31296	 	2.84524E15	 	1.18903E-15	 	11867.756	32.7718	 
415.0	1.0	0.0	7.54761	7.17186	-9.33001	16.74689	20.6839	1.0841	0.92243	170.4187	151.69121	64.9087	0.31276	 	3.97118E15	 	8.45766E-16	 	11704.608	32.6296	 
410.0	1.0	0.0	7.54961	7.16995	-9.35412	16.72966	20.62241	1.07943	0.92642	170.842	151.90497	65.07989	0.31256	 	5.56997E15	 	5.98618E-16	 	11542.161	32.4894	 
405.0	1.0	0.0	7.55162	7.16805	-9.37818	16.71243	20.56092	1.07473	0.93046	171.26356	152.11672	65.25047	0.31236	 	7.85173E15	 	4.21548E-16	 	11380.401	32.352	 
400.0	1.0	0.0	7.55362	7.16615	-9.40219	16.69522	20.49943	1.07001	0.93457	171.68338	152.32648	65.42043	0.31215	 	1.11251E16	 	2.9532E-16	 	11219.32	32.2162	 
395.0	1.0	0.0	7.55562	7.16426	-9.42616	16.67801	20.43794	1.06526	0.93874	172.10145	152.53423	65.58978	0.31195	 	1.58461E16	 	2.05796E-16	 	11058.906	32.0828	 
390.0	1.0	0.0	7.55761	7.16236	-9.45008	16.6608	20.37646	1.06048	0.94297	172.51774	152.73997	65.75851	0.31175	 	2.26918E16	 	1.42636E-16	 	10899.15	31.9512	 
385.0	1.0	0.0	7.55961	7.16048	-9.47396	16.64361	20.31497	1.05567	0.94727	172.93225	152.9437	65.92661	0.31155	 	3.26736E16	 	9.83138E-17	 	10740.043	31.8214	 
380.0	1.0	0.0	7.5616	7.15859	-9.49779	16.62642	20.25349	1.05083	0.95163	173.34498	153.14542	66.09408	0.31135	 	4.73108E16	 	6.73813E-17	 	10581.574	31.6938	 
375.0	1.0	0.0	7.56359	7.15671	-9.52157	16.60923	20.192	1.04596	0.95606	173.7559	153.34512	66.26091	0.31115	 	6.8899300000000008E16	 	4.59143E-17	 	10423.735	31.5678	 
370.0	1.0	0.0	7.56557	7.15483	-9.54531	16.59205	20.13052	1.04106	0.96056	174.16501	153.5428	66.4271	0.31095	 	1.0093E17	 	3.11014E-17	 	10266.518	31.4434	 
365.0	1.0	0.0	7.56755	7.15296	-9.569	16.57488	20.06904	1.03613	0.96513	174.5723	153.73845	66.59265	0.31075	 	1.48741E17	 	2.09401E-17	 	10109.913	31.321	 
360.0	1.0	0.0	7.56953	7.15109	-9.59264	16.55772	20.00755	1.03117	0.96977	174.97776	153.93208	66.75755	0.31055	 	2.20554E17	 	1.40113E-17	 	9953.914	31.1998	 
355.0	1.0	0.0	7.57151	7.14922	-9.61624	16.54056	19.94607	1.02618	0.97449	175.38137	154.12368	66.9218	0.31035	 	3.29102E17	 	9.31578E-18	 	9798.513	31.0802	 
350.0	1.0	0.0	7.57348	7.14736	-9.63979	16.52341	19.88459	1.02116	0.97928	175.78314	154.31325	67.08539	0.31014	 	4.9425E17	 	6.15365E-18	 	9643.701	30.9624	 
345.0	1.0	0.0	7.57545	7.1455	-9.66329	16.50626	19.82311	1.01611	0.98415	176.18304	154.50079	67.24832	0.30994	 	7.47186E17	 	4.03786E-18	 	9489.472	30.8458	 
340.0	1.0	0.0	7.57742	7.14364	-9.68675	16.48913	19.76163	1.01102	0.9891	176.58107	154.6863	67.41059	0.30974	 	1.13723E18	 	2.63151E-18	 	9335.818	30.7308	 
335.0	1.0	0.0	7.57938	7.14179	-9.71016	16.472	19.70015	1.00591	0.99413	176.97722	154.86976	67.57219	0.30954	 	1.74291E18	 	1.70303E-18	 	9182.734	30.6168	 
330.0	1.0	0.0	7.58135	7.13994	-9.73353	16.45487	19.63867	1.00076	0.99924	177.37149	155.0512	67.73312	0.30934	 	2.69021E18	 	1.09428E-18	 	9030.211	30.5046	 
325.0	1.0	0.0	7.58331	7.1381	-9.75685	16.43775	19.5772	0.99558	1.00444	177.76385	155.23059	67.89337	0.30914	 	4.18269E18	 	6.97977E-19	 	8878.245	30.3932	 
320.0	1.0	0.0	7.58526	7.13626	-9.78012	16.42064	19.51572	0.99037	1.00972	178.15431	155.40795	68.05294	0.30894	 	6.55188E18	 	4.41861E-19	 	8726.829	30.2832	 
315.0	1.0	0.0	7.58722	7.13442	-9.80335	16.40353	19.45424	0.98513	1.0151	178.54286	155.58326	68.21183	0.30874	 	1.03418E19	 	2.77573E-19	 	8575.957	30.1744	 
310.0	1.0	0.0	7.58917	7.13259	-9.82653	16.38644	19.39276	0.97985	1.02057	178.92948	155.75654	68.37004	0.30854	 	1.64527E19	 	1.72994E-19	 	8425.623	30.0668	 
305.0	1.0	0.0	7.59111	7.13076	-9.84967	16.36934	19.33128	0.97454	1.02613	179.31418	155.92778	68.52756	0.30834	 	2.63858E19	 	1.06944E-19	 	8275.821	29.9604	 
300.0	1.0	0.0	7.59306	7.12893	-9.87275	16.35226	19.2698	0.96919	1.03179	179.69694	156.09698	68.68438	0.30814	 	4.26667E19	 	6.5564E-20	 	8126.548	29.8546	 
295.0	1.0	0.0	7.595	7.12711	-9.8958	16.33518	19.20832	0.96381	1.03755	180.07776	156.26414	68.84051	0.30793	 	6.95808E19	 	3.98529E-20	 	7977.796	29.7504	 
290.0	1.0	0.0	7.59694	7.12529	-9.91879	16.31811	19.14683	0.9584	1.04341	180.45663	156.42926	68.99595	0.30773	 	1.1446399999999998E20	 	2.40128E-20	 	7829.561	29.647	 
285.0	1.0	0.0	7.59887	7.12347	-9.94174	16.30104	19.08535	0.95295	1.04938	180.83354	156.59235	69.15068	0.30753	 	1.89988E20	 	1.43388E-20	 	7681.839	29.5444	 
280.0	1.0	0.0	7.60081	7.12166	-9.96465	16.28398	19.02387	0.94746	1.05545	181.2085	156.7534	69.30471	0.30733	 	3.1824899999999997E20	 	8.48325E-21	 	7534.625	29.4428	 
275.0	1.0	0.0	7.60274	7.11985	-9.98751	16.26693	18.96238	0.94194	1.06164	181.58148	156.91241	69.45804	0.30713	 	5.3814899999999997E20	 	4.97146E-21	 	7387.913	29.3424	 
270.0	1.0	0.0	7.60467	7.11805	-10.01032	16.24988	18.9009	0.93639	1.06794	181.9525	157.0694	69.61066	0.30693	 	9.188469999999999E20	 	2.88512E-21	 	7241.701	29.2424	 
265.0	1.0	0.0	7.60659	7.11625	-10.03309	16.23284	18.83941	0.93079	1.07435	182.32154	157.22435	69.76257	0.30673	 	1.58455E21	 	1.65761E-21	 	7095.983	29.1436	 
260.0	1.0	0.0	7.60851	7.11445	-10.05581	16.21581	18.77792	0.92517	1.08089	182.6886	157.37728	69.91377	0.30653	 	2.76067E21	 	9.42589E-22	 	6950.756	29.0454	 
255.0	1.0	0.0	7.61043	7.11266	-10.07848	16.19878	18.71643	0.9195	1.08755	183.05368	157.52819	70.06426	0.30633	 	4.86062E21	 	5.30338E-22	 	6806.015	28.9482	 
250.0	1.0	0.0	7.61235	7.11087	-10.10111	16.18176	18.65494	0.9138	1.09433	183.41678	157.67708	70.21404	0.30613	 	8.65106E21	 	2.9515E-22	 	6661.758	28.8514	 
245.0	1.0	0.0	7.61426	7.10908	-10.1237	16.16475	18.59345	0.90806	1.10125	183.77788	157.82396	70.3631	0.30593	 	1.5569799999999999E22	 	1.62427E-22	 	6517.98	28.7556	 
240.0	1.0	0.0	7.61617	7.1073	-10.14623	16.14774	18.53195	0.90228	1.1083	184.137	157.96883	70.51144	0.30572	 	2.8345E22	 	8.83598E-23	 	6374.678	28.6604	 
235.0	1.0	0.0	7.61808	7.10552	-10.16873	16.13074	18.47046	0.89646	1.1155	184.49413	158.11169	70.65907	0.30552	 	5.221469999999999E22	 	4.74991E-23	 	6231.848	28.566	 
230.0	1.0	0.0	7.61998	7.10374	-10.19117	16.11374	18.40896	0.89061	1.12283	184.84927	158.25255	70.80598	0.30532	 	9.73613E22	 	2.52231E-23	 	6089.489	28.4718	 
225.0	1.0	0.0	7.62188	7.10197	-10.21357	16.09676	18.34746	0.88471	1.13031	185.20241	158.39143	70.95217	0.30512	 	1.8383E23	 	1.32261E-23	 	5947.596	28.3786	 
220.0	1.0	0.0	7.62378	7.1002	-10.23593	16.07977	18.28596	0.87878	1.13794	185.55357	158.52831	71.09764	0.30492	 	3.51597E23	 	6.84574E-24	 	5806.167	28.2858	 
215.0	1.0	0.0	7.62567	7.09844	-10.25824	16.0628	18.22445	0.8728	1.14573	185.90274	158.66323	71.2424	0.30472	 	6.81471E23	 	3.49617E-24	 	5665.199	28.1936	 
210.0	1.0	0.0	7.62757	7.09668	-10.2805	16.04583	18.16295	0.86679	1.15368	186.24993	158.79617	71.38644	0.30452	 	1.33906E24	 	1.76103E-24	 	5524.69	28.1018	 
205.0	1.0	0.0	7.62946	7.09492	-10.30272	16.02887	18.10144	0.86073	1.1618	186.59513	158.92715	71.52977	0.30432	 	2.6686500000000003E24	 	8.74497E-25	 	5384.638	28.0104	 
200.0	1.0	0.0	7.63134	7.09317	-10.32489	16.01192	18.03994	0.85464	1.17009	186.93835	159.05618	71.67238	0.30412	 	5.39655E24	 	4.27927E-25	 	5245.04	27.9196	 
195.0	1.0	0.0	7.63323	7.09142	-10.34702	15.99497	17.97842	0.8485	1.17855	187.27961	159.18327	71.81428	0.30392	 	1.10784E25	 	2.06251E-25	 	5105.894	27.8292	 
190.0	1.0	0.0	7.63511	7.08967	-10.3691	15.97803	17.91691	0.84232	1.1872	187.61889	159.30844	71.95547	0.30372	 	2.30983E25	 	9.7865E-26	 	4967.199	27.739	 
185.0	1.0	0.0	7.63698	7.08793	-10.39114	15.96109	17.8554	0.8361	1.19604	187.95622	159.43168	72.09595	0.30351	 	4.8938800000000004E25	 	4.56921E-26	 	4828.952	27.6494	 
180.0	1.0	0.0	7.63886	7.08619	-10.41313	15.94416	17.79388	0.82983	1.20507	188.2916	159.55303	72.23573	0.30331	 	1.0542000000000002E26	 	2.098E-26	 	4691.153	27.5598	 
175.0	1.0	0.0	7.64073	7.08445	-10.43507	15.92724	17.73237	0.82352	1.2143	188.62503	159.67248	72.3748	0.30311	 	2.31011E26	 	9.46841E-27	 	4553.801	27.4704	 
170.0	1.0	0.0	7.6426	7.08272	-10.45697	15.91032	17.67085	0.81717	1.22374	188.95654	159.79006	72.51318	0.30291	 	5.15267E26	 	4.19764E-27	 	4416.893	27.3816	 
165.0	1.0	0.0	7.64446	7.08099	-10.47883	15.89341	17.60932	0.81077	1.23339	189.28613	159.90578	72.65086	0.30271	 	1.1705299999999999E27	 	1.82694E-27	 	4280.43	27.2926	 
160.0	1.0	0.0	7.64633	7.07927	-10.50064	15.87651	17.5478	0.80433	1.24327	189.61381	160.01966	72.78786	0.30251	 	2.7099699999999996E27	 	7.80118E-28	 	4144.41	27.204	 
155.0	1.0	0.0	7.64819	7.07755	-10.5224	15.85962	17.48628	0.79784	1.25338	189.9396	160.13172	72.92417	0.30231	 	6.39826E27	 	3.26603E-28	 	4008.833	27.1154	 
150.0	1.0	0.0	7.65004	7.07583	-10.54412	15.84273	17.42475	0.79131	1.26373	190.26352	160.24197	73.0598	0.30211	 	1.54162E28	 	1.33969E-28	 	3873.699	27.0268	 
145.0	1.0	0.0	7.6519	7.07411	-10.56579	15.82584	17.36322	0.78473	1.27433	190.58559	160.35044	73.19477	0.30191	 	3.7934E28	 	5.3801E-29	 	3739.008	26.9382	 
140.0	1.0	0.0	7.65375	7.0724	-10.58742	15.80897	17.30169	0.7781	1.28518	190.90582	160.45715	73.32907	0.30171	 	9.53992E28	 	2.11373E-29	 	3604.759	26.8498	 
135.0	1.0	0.0	7.6556	7.07069	-10.609	15.7921	17.24015	0.77143	1.29629	191.22424	160.56212	73.46271	0.30151	 	2.4540000000000002E29	 	8.11767E-30	 	3470.954	26.761	 
130.0	1.0	0.0	7.65744	7.06899	-10.63054	15.77523	17.17862	0.76471	1.30769	191.54087	160.66538	73.59571	0.3013	 	6.46226E29	 	3.04487E-30	 	3337.594	26.672	 
125.0	1.0	0.0	7.65928	7.06729	-10.65204	15.75838	17.11708	0.75794	1.31937	191.85574	160.76695	73.72808	0.3011	 	1.74364E30	 	1.11449E-30	 	3204.678	26.5832	 
120.0	1.0	0.0	7.66112	7.06559	-10.67348	15.74153	17.05554	0.75112	1.33134	192.16888	160.86687	73.85981	0.3009	 	4.82495E30	 	3.97697E-31	 	3072.209	26.4938	 
115.0	1.0	0.0	7.66296	7.0639	-10.69488	15.72468	16.994	0.74425	1.34363	192.48031	160.96517	73.99094	0.3007	 	1.37063E31	 	1.38219E-31	 	2940.188	26.4042	 
110.0	1.0	0.0	7.66479	7.06221	-10.71624	15.70785	16.93246	0.73734	1.35623	192.79007	161.06187	74.12146	0.3005	 	4.0010999999999997E31	 	4.67386E-32	 	2808.617	26.3142	 
105.0	1.0	0.0	7.66662	7.06053	-10.73755	15.69102	16.87092	0.73037	1.36917	193.0982	161.15702	74.25139	0.3003	 	1.20156E32	 	1.53605E-32	 	2677.499	26.2236	 
100.0	1.0	0.0	7.66845	7.05884	-10.75882	15.67419	16.80937	0.72335	1.38245	193.40474	161.25065	74.38076	0.3001	 	3.71628E32	 	4.90074E-33	 	2546.834	26.133	 
95.0	1.0	0.0	7.67027	7.05717	-10.78004	15.65738	16.74782	0.71628	1.3961	193.70972	161.3428	74.50956	0.2999	 	1.1852E33	 	1.51607E-33	 	2416.628	26.0412	 
90.0	1.0	0.0	7.67209	7.05549	-10.80122	15.64056	16.68627	0.70916	1.41012	194.0132	161.43351	74.63783	0.2997	 	3.90252E33	 	4.54179E-34	 	2286.882	25.9492	 
85.0	1.0	0.0	7.67391	7.05382	-10.82235	15.62376	16.62472	0.70199	1.42453	194.31522	161.52284	74.76557	0.2995	 	1.3284700000000002E34	 	1.31583E-34	 	2157.602	25.856	 
80.0	1.0	0.0	7.67573	7.05215	-10.84344	15.60696	16.56316	0.69476	1.43935	194.61584	161.61082	74.89282	0.2993	 	4.6818800000000005E34	 	3.68151E-35	 	2028.79	25.7624	 
75.0	1.0	0.0	7.67754	7.05049	-10.86448	15.59017	16.5016	0.68748	1.45459	194.91511	161.6975	75.01958	0.29909	 	1.7108199999999997E35	 	9.93229E-36	 	1900.452	25.6676	 
70.0	1.0	0.0	7.67935	7.04883	-10.88548	15.57339	16.44004	0.68014	1.47028	195.2131	161.78296	75.14589	0.29889	 	6.49214E35	 	2.57978E-36	 	1772.593	25.5718	 
65.0	1.0	0.0	7.68115	7.04717	-10.90643	15.55661	16.37848	0.67275	1.48644	195.50988	161.86723	75.27177	0.29869	 	2.56272E36	 	6.44015E-37	 	1645.218	25.475	 
60.0	1.0	0.0	7.68296	7.04552	-10.92734	15.53984	16.31692	0.6653	1.50307	195.80551	161.9504	75.39725	0.29849	 	1.0541699999999999E37	 	1.54246E-37	 	1518.334	25.3768	 
55.0	1.0	0.0	7.68476	7.04386	-10.9482	15.52307	16.25535	0.6578	1.52022	196.10007	162.03252	75.52236	0.29829	 	4.52733E37	 	3.53767E-38	 	1391.947	25.2774	 
50.0	1.0	0.0	7.68655	7.04222	-10.96902	15.50631	16.19379	0.65024	1.53789	196.39366	162.11366	75.64713	0.29809	 	2.0340299999999998E38	 	7.75413E-39	 	1266.066	25.1762	 
45.0	1.0	0.0	7.68835	7.04058	-10.98979	15.48956	16.13222	0.64262	1.55612	196.68634	162.19391	75.77159	0.29789	 	9.580389999999999E38	 	1.62082E-39	 	1140.698	25.0736	 
40.0	1.0	0.0	7.69014	7.03894	-11.01052	15.47281	16.07064	0.63495	1.57494	196.97824	162.27335	75.89579	0.29769	 	4.7413400000000003E39	 	3.22358E-40	 	1015.852	24.9692	 
35.0	1.0	0.0	7.69193	7.0373	-11.03121	15.45608	16.00907	0.62721	1.59436	197.26945	162.35206	76.01976	0.29749	 	2.47148E40	 	6.08544E-41	 	891.539	24.8626	 
30.0	1.0	0.0	7.69371	7.03567	-11.05185	15.43934	15.94749	0.61942	1.61442	197.56007	162.43014	76.14354	0.29729	 	1.3604E41	 	1.08762E-41	 	767.769	24.754	 
25.0	1.0	0.0	7.69549	7.03404	-11.07244	 	15.88591	0.61156	1.63516	197.85025	162.5077	76.26719	0.29709	 	7.92903E41	 	1.83528E-42	 	644.553	 	 
