T (C)	Fraction solid (wt)-TOTAL	Fraction liquid (wt)-LIQUID	Density (g/(cm)^3)-TOTAL	Molar volume (cm^3)-TOTAL	Volume change (%)-  	Average expansion coeff. (10e-6 1/K)-  	Thermal conductivity (W/(m*K))-TOTAL	Electrical resistivity (10e-6 Ohm*m)-TOTAL	Electrical conductivity (10e6 1/(Ohm*m))-TOTAL	Young's modulus (GPa)-TOTAL	Bulk modulus (GPa)-TOTAL	Shear modulus(GPa)-TOTAL	Poisson's ratio-TOTAL	Liquid viscosity (mPa s)-  	Total viscosity (mPa s)-  	Liquid diffusivity (10e-9 (m^2)/s)-  	Total diffusivity (10e-9 (m^2)/s)-  	Surface Tension (mN/m)-  	Enthalpy (J/mole)-TOTAL	Specific heat (J/(mole K))-TOTAL	Latent heat (J/mole)-TOTAL
1500.0	0.0	1.0	6.9514	7.86085	0.0	27.0812	31.39144	1.84057	0.54331	0.0	105.69678	0.0	0.49974	6.69177	6.69177	1.29328	1.29328	1764.97792	64824.641	 	0.0
1495.0	0.0	1.0	6.9553	7.85644	-0.0560075	27.03109	31.31596	1.8398	0.54354	0.0	105.88226	0.0	0.49974	6.75005	6.75005	1.27849	1.27849	1766.76733	64602.935	44.3412	0.0
1490.0	0.0	1.0	6.95919	7.85205	-0.11186	26.98104	31.24048	1.83903	0.54376	0.0	106.06774	0.0	0.49974	6.80918	6.80918	1.26381	1.26381	1768.55352	64381.744	44.2382	0.0
1485.0	0.0	1.0	6.96307	7.84768	-0.16756	26.93105	31.165	1.83826	0.54399	0.0	106.25322	0.0	0.49974	6.86917	6.86917	1.24922	1.24922	1770.33646	64161.062	44.1364	0.0
1480.0	0.0	1.0	6.96695	7.84331	-0.2231	26.8811	31.08952	1.83748	0.54422	0.0	106.4387	0.0	0.49974	6.93003	6.93003	1.23473	1.23473	1772.11613	63940.888	44.0348	0.0
1475.0	0.0	1.0	6.97082	7.83896	-0.27848	26.83122	31.01404	1.8367	0.54445	0.0	106.62419	0.0	0.49974	6.99178	6.99178	1.22033	1.22033	1773.89248	63721.218	43.934	0.0
1470.0	0.0	1.0	6.97468	7.83461	-0.33371	26.78139	30.93856	1.83591	0.54469	0.0	106.80967	0.0	0.49974	7.05444	7.05444	1.20603	1.20603	1775.66548	63502.049	43.8338	0.0
1465.0	0.0	1.0	6.97854	7.83029	-0.38878	26.73162	30.86308	1.83513	0.54492	0.0	106.99515	0.0	0.49974	7.11803	7.11803	1.19183	1.19183	1777.43507	63283.376	43.7346	0.0
1460.0	0.0	1.0	6.98238	7.82597	-0.4437	26.68191	30.7876	1.83433	0.54516	0.0	107.18063	0.0	0.49974	7.18256	7.18256	1.17772	1.17772	1779.20124	63065.197	43.6358	0.0
1455.0	0.0	1.0	6.98623	7.82166	-0.49846	26.63226	30.71212	1.83354	0.54539	0.0	107.36611	0.0	0.49974	7.24806	7.24806	1.16371	1.16371	1780.96392	62847.509	43.5376	0.0
1450.0	0.0	1.0	6.99006	7.81737	-0.55306	26.58267	30.63664	1.83273	0.54563	0.0	107.55159	0.0	0.49974	7.31454	7.31454	1.1498	1.1498	1782.72309	62630.334	43.435	0.0
1445.0	0.0	1.0	6.99389	7.81309	-0.60751	26.53314	30.56117	1.83193	0.54587	0.0	107.73707	0.0	0.49974	7.38203	7.38203	1.13598	1.13598	1784.47871	62413.709	43.325	0.0
1440.19	0.0	1.0	6.99757	7.80898	-0.65981	26.48548	30.48848	1.83115	0.5461	0.0	107.91568	0.0	0.49974	7.44797	7.44797	1.12277	1.12277	1786.16586	62205.613	43.221	0.013
1440.0	0.00708	0.99292	6.99889	7.80745	-0.67922	26.43773	30.5122	1.82953	0.54659	1.37031E-7	107.64248	4.57167E-8	0.4987	7.44895	7.51883	1.1225	1.11207	1786.10164	62134.415	384.231	63.209
1435.0	0.17845	0.82155	7.02997	7.77309	-1.11637	25.37418	31.10267	1.78956	0.5588	0.0566527	101.09599	0.0192233	0.47355	7.48131	13.09029	1.11438	0.63689	1784.44555	60392.883	348.306	1589.199
1430.0	0.30785	0.69215	7.05434	7.74628	-1.45744	24.55833	31.55406	1.7588	0.56857	0.51219	96.23949	0.17609	0.45435	7.51367	45.08706	1.10634	0.18437	1782.94959	59031.43	272.291	2735.645
1427.78	0.35438	0.64562	7.06333	7.73639	-1.5832	24.26249	31.71631	1.74752	0.57224	0.90669	94.52342	0.31321	0.4474	7.52831	72.65776	1.10275	0.11426	1782.32766	58525.785	 	3146.173
1425.0	0.43927	0.56073	7.07837	7.72002	-1.79145	23.7555	31.91229	1.73395	0.57672	1.80914	92.77783	0.63016	0.43547	7.54367	185.54244	1.0987	0.0446704	1780.3486	57515.665	303.153	4036.933
1420.0	0.55702	0.44298	7.0999	7.69667	-2.08853	23.0457	32.17625	1.71466	0.58321	4.51755	90.60044	1.59208	0.41876	7.57112	545.80354	1.0915	0.0151407	1777.13955	56072.38	288.657	5266.271
1415.0	0.64089	0.35911	7.11608	7.67932	-2.30931	22.53569	32.35001	1.70041	0.58809	8.45626	89.24445	3.00566	0.40672	7.5987	1053.81603	1.08432	0.00781867	1774.25426	54991.261	216.224	6133.968
1410.0	0.70272	0.29728	7.12869	7.66591	-2.47989	22.15732	32.46408	1.68942	0.59192	13.1972	88.39508	4.72089	0.39775	7.62734	1651.07449	1.07705	0.00497557	1771.6464	54145.277	169.197	6767.052
1405.0	0.74961	0.25039	7.13896	7.65505	-2.61801	21.86398	32.53675	1.68064	0.59501	18.26375	87.87674	6.56565	0.39086	7.65614	2297.46587	1.06981	0.00356507	1769.28478	53458.205	137.414	7241.739
1400.0	0.78597	0.21403	7.14753	7.64605	-2.73255	21.63257	32.57994	1.67341	0.59758	23.28793	87.58531	8.40448	0.38545	7.68568	2969.74421	1.06253	0.00274981	1767.13488	52882.565	115.128	7605.507
1395.0	0.81473	0.18527	7.15486	7.63837	-2.83018	21.44548	32.60144	1.66731	0.59977	28.04824	87.45426	10.15424	0.38111	7.716	3656.19688	1.05519	0.00222686	1765.17159	52387.248	99.0634	7889.463
1390.0	0.83799	0.16201	7.16133	7.63166	-2.9155	21.29074	32.60715	1.66202	0.60168	32.46513	87.43824	11.78362	0.37755	7.74709	4355.21037	1.0478	0.00186384	1763.37119	51949.936	87.4624	8115.92
1385.0	0.85719	0.14281	7.16719	7.62562	-2.99243	21.15784	32.60094	1.65734	0.60338	36.53073	87.50623	13.28805	0.37457	7.77854	5069.5772	1.04043	0.00159639	1761.71941	51555.437	78.8998	8300.067
1380.0	0.87327	0.12673	7.17257	7.62011	-3.06247	21.04298	32.58552	1.65312	0.60492	40.25047	87.63847	14.66818	0.37203	7.81102	5801.35198	1.03298	0.00139082	1760.1961	51193.895	72.3084	8451.758
1375.0	0.88689	0.11311	7.17759	7.61499	-3.12755	20.94097	32.56286	1.64927	0.60633	43.65193	87.82002	15.93316	0.36985	7.8439	6554.18888	1.02554	0.00122734	1758.79167	50858.19	67.141	8578.107
1370.0	0.89856	0.10144	7.18231	7.61022	-3.18828	20.85028	32.53439	1.64571	0.60764	46.76296	88.04117	17.09251	0.36794	7.87773	7331.71863	1.01804	0.00109385	1757.48961	50543.075	63.023	8684.362
1365.0	0.90866	0.0913442	7.18682	7.6057	-3.24581	20.76781	32.50124	1.64237	0.60888	49.62055	88.29328	18.15935	0.36625	7.91224	8138.64143	1.01051	9.824E-4	1756.28256	50244.606	59.6938	8774.46
1361.26	0.91521	0.0847905	7.19001	7.6025	-3.28656	20.71209	32.47367	1.64001	0.60975	51.56967	88.49844	18.88809	0.36514	7.93851	8757.09774	1.00487	9.10936E-4	1755.42967	50031.893	 	8831.68
1360.0	0.91807	0.0819298	7.19143	7.60107	-3.30473	20.68086	32.46666	1.6391	0.61009	52.42256	88.5516	19.2072	0.36466	7.94961	9000.62922	1.00269	8.85605E-4	1755.47448	49952.654	58.3904	8858.53
1355.0	0.92846	0.0715376	7.19683	7.59571	-3.37282	20.5675	32.43583	1.63564	0.61138	55.62739	88.78679	20.40766	0.3629	7.99485	9991.26777	0.99396	7.95354E-4	1755.68454	49649.206	60.6896	8954.58
1350.0	0.93727	0.0627254	7.20183	7.59079	-3.43543	20.46873	32.40003	1.63242	0.61259	58.49846	89.05549	21.48497	0.36138	8.04086	11011.85596	0.98524	7.19424E-4	1755.93912	49363.274	57.1864	9033.595
1345.0	0.94483	0.0551653	7.20654	7.58621	-3.49374	20.38138	32.36026	1.62939	0.61373	61.0929	89.35077	22.45997	0.36004	8.08737	12070.24027	0.97656	6.54319E-4	1756.23388	49091.188	54.4172	9099.244
1340.0	0.95138	0.0486166	7.211	7.58189	-3.54865	20.30299	32.31724	1.62652	0.61481	63.45535	89.66714	23.34899	0.35885	8.1347	13173.54792	0.96788	5.97666E-4	1756.56612	48830.277	52.1822	9154.192
1335.0	0.9571	0.0428978	7.21527	7.57779	-3.60078	20.23194	32.27155	1.62377	0.61585	65.62094	90.00067	24.1649	0.35777	8.18259	14328.65038	0.95923	5.47782E-4	1756.93258	48578.51	50.3534	9200.469
1330.0	0.96213	0.0378668	7.21937	7.57388	-3.65057	20.16704	32.22364	1.62113	0.61685	67.61911	90.34837	24.91855	0.3568	8.23136	15542.45318	0.95058	5.03433E-4	1757.32815	48334.317	48.8386	9239.643
1325.0	0.96659	0.033412	7.22333	7.57012	-3.69843	20.10718	32.17386	1.61857	0.61783	69.47348	90.70776	25.61865	0.35592	8.2811	16821.91331	0.94192	4.63691E-4	1757.75048	48096.463	47.5708	9272.943
1320.0	0.97056	0.0294445	7.22719	7.56648	-3.74467	20.05153	32.12247	1.61609	0.61878	71.20413	91.07706	26.27262	0.3551	8.33147	18174.38995	0.9333	4.27842E-4	1758.19693	47863.97	46.4986	9301.347
1315.0	0.97411	0.0258914	7.23094	7.56295	-3.78961	19.99921	32.06973	1.61367	0.61971	72.82777	91.45439	26.88666	0.35435	8.38241	19607.0643	0.92472	3.95335E-4	1758.6691	47636.052	45.5836	9325.638
1310.0	0.9773	0.0226955	7.23462	7.55952	-3.83332	19.95006	32.01581	1.6113	0.62062	74.35792	91.83881	27.46578	0.35365	8.4348	21127.96242	0.91608	3.65722E-4	1759.15755	47412.068	44.7968	9346.452
1305.0	0.98019	0.0198062	7.23823	7.55615	-3.87607	19.90331	31.96088	1.60897	0.62152	75.8069	92.2291	28.01458	0.35299	8.48758	22745.25325	0.90751	3.38645E-4	1759.66722	47191.493	44.115	9364.314
1300.0	0.98282	0.0171838	7.24177	7.55286	-3.91792	19.85884	31.90506	1.60668	0.6224	77.1839	92.6246	28.53645	0.35237	8.54178	24467.72714	0.89889	3.13807E-4	1760.19013	46973.894	43.5198	9379.652
1295.0	0.98521	0.0147932	7.24526	7.54963	-3.95909	19.81602	31.84845	1.60442	0.62328	78.49844	93.02443	29.03497	0.35179	8.59644	26304.82581	0.89034	2.90964E-4	1760.73429	46758.909	42.997	9392.826
1290.0	0.98739	0.0126076	7.24871	7.54645	-3.99954	19.775	31.79115	1.60218	0.62415	79.75704	93.42817	29.51254	0.35124	8.65269	28266.60864	0.88173	2.69907E-4	1761.28364	46546.234	42.535	9404.139
1285.0	0.9894	0.0106004	7.25212	7.54331	-4.03947	19.73518	31.73326	1.59997	0.62501	80.96673	93.83494	29.97183	0.35071	8.70974	30363.67526	0.87315	2.50462E-4	1761.85178	46335.61	42.1248	9413.842
1280.0	0.99125	0.00875106	7.25549	7.54021	-4.0789	19.69652	31.67481	1.59778	0.62587	82.13305	94.24471	30.41488	0.35021	8.76772	32607.98393	0.8646	2.32475E-4	1762.4308	46126.819	41.7582	9422.158
1275.0	0.99296	0.00704093	7.25884	7.53715	-4.11787	19.65893	31.61588	1.59561	0.62672	83.26075	94.657	30.84349	0.34973	8.82742	35012.15566	0.85598	2.15815E-4	1763.01509	45919.673	41.4292	9429.269
1270.0	0.99455	0.00545462	7.26216	7.53411	-4.15649	19.6221	31.55653	1.59344	0.62757	84.35446	95.0713	31.25938	0.34927	8.88769	37589.73737	0.84743	2.00367E-4	1763.61531	45714.011	41.1324	9435.333
1265.0	0.99602	0.00397666	7.26545	7.5311	-4.19475	19.58604	31.49679	1.59129	0.62842	85.41829	95.48757	31.6641	0.34882	8.94982	40355.78872	0.83882	1.86029E-4	1764.21623	45509.693	40.8636	9440.487
1260.0	0.99742	0.00258125	7.26874	7.52811	-4.23279	19.55035	31.43678	1.58915	0.62927	86.46178	95.90508	32.06128	0.34838	9.013	43328.77068	0.83024	1.72701E-4	1764.82759	45306.604	40.6178	9444.845
1255.0	0.99874	0.00125786	7.27201	7.52514	-4.27064	19.51498	31.37654	1.58701	0.63012	87.48696	96.32386	32.45167	0.34796	9.07724	46526.57378	0.82167	1.60307E-4	1765.44807	45104.651	40.3906	9448.497
1250.0	1.0	0.0	7.27529	7.52218	-4.3083	19.47986	31.3163	1.58486	0.63097	88.49648	96.74368	32.83628	0.34754	 	49968.46288	 	1.48776E-4	 	44903.748	40.1806	9451.525
1245.0	1.0	0.0	7.2777	7.51968	-4.34001	19.46267	31.25351	1.58283	0.63178	89.00526	97.16782	33.03014	0.34733	 	53387.34424	 	1.38792E-4	 	44662.317	48.2862	 
1240.0	1.0	0.0	7.28011	7.5172	-4.37168	19.44549	31.19072	1.58079	0.63259	89.51508	97.59195	33.22444	0.34713	 	57066.25278	 	1.29416E-4	 	44471.041	38.2552	 
1235.0	1.0	0.0	7.28252	7.51471	-4.40329	19.42831	31.12793	1.57875	0.63341	90.02594	98.01605	33.41919	0.34692	 	61026.87385	 	1.20617E-4	 	44280.016	38.205	 
1230.0	1.0	0.0	7.28492	7.51223	-4.43486	19.41114	31.06513	1.57669	0.63424	90.5378	98.4401	33.61438	0.34671	 	65292.85593	 	1.12363E-4	 	44089.251	38.153	 
1225.0	1.0	0.0	7.28733	7.50975	-4.46637	19.39398	31.00234	1.57463	0.63507	91.05064	98.86407	33.80998	0.34651	 	69890.00203	 	1.04623E-4	 	43898.75	38.1002	 
1220.0	1.0	0.0	7.28973	7.50728	-4.49784	19.37683	30.93954	1.57256	0.63591	91.56445	99.28794	34.00601	0.3463	 	74846.48109	 	9.73686E-5	 	43708.512	38.0476	 
1215.0	1.0	0.0	7.29213	7.50481	-4.52926	19.35968	30.87674	1.57048	0.63675	92.07919	99.71169	34.20244	0.34609	 	80193.06154	 	9.05726E-5	 	43518.536	37.9952	 
1210.0	1.0	0.0	7.29452	7.50234	-4.56064	19.34254	30.81394	1.5684	0.63759	92.59485	100.13529	34.39928	0.34588	 	85963.36956	 	8.4209E-5	 	43328.82	37.9432	 
1205.0	1.0	0.0	7.29692	7.49988	-4.59196	19.32541	30.75114	1.5663	0.63845	93.11141	100.55872	34.5965	0.34568	 	92194.17481	 	7.82531E-5	 	43139.363	37.8914	 
1200.0	1.0	0.0	7.29931	7.49742	-4.62324	19.30829	30.68834	1.5642	0.63931	93.62883	100.98196	34.79412	0.34547	 	98925.70671	 	7.26816E-5	 	42950.165	37.8396	 
1195.0	1.0	0.0	7.3017	7.49497	-4.65447	19.29117	30.62554	1.56208	0.64017	94.14711	101.40498	34.99211	0.34526	 	106202.0047	 	6.74721E-5	 	42761.224	37.7882	 
1190.0	1.0	0.0	7.30409	7.49252	-4.68565	19.27406	30.56273	1.55996	0.64104	94.66622	101.82776	35.19047	0.34505	 	114071.3066	 	6.26036E-5	 	42572.538	37.7372	 
1185.0	1.0	0.0	7.30648	7.49007	-4.71678	19.25696	30.49992	1.55783	0.64192	95.18614	102.25029	35.38919	0.34485	 	122586.4789	 	5.80559E-5	 	42384.106	37.6864	 
1180.0	1.0	0.0	7.30886	7.48762	-4.74786	19.23986	30.43711	1.5557	0.6428	95.70685	102.67253	35.58826	0.34464	 	131805.495	 	5.38101E-5	 	42195.927	37.6358	 
1175.0	1.0	0.0	7.31124	7.48518	-4.7789	19.22277	30.3743	1.55355	0.64369	96.22832	103.09447	35.78769	0.34443	 	141791.9653	 	4.98481E-5	 	42008.0	37.5854	 
1170.0	1.0	0.0	7.31362	7.48275	-4.80989	19.20569	30.31149	1.55139	0.64458	96.75054	103.51609	35.98745	0.34423	 	152615.7266	 	4.61529E-5	 	41820.323	37.5354	 
1165.0	1.0	0.0	7.316	7.48032	-4.84083	19.18862	30.24868	1.54923	0.64548	97.27349	103.93736	36.18754	0.34402	 	164353.4979	 	4.27083E-5	 	41632.895	37.4856	 
1160.0	1.0	0.0	7.31838	7.47789	-4.87172	19.17155	30.18586	1.54706	0.64639	97.79714	104.35827	36.38796	0.34381	 	177089.6088	 	3.94989E-5	 	41445.714	37.4362	 
1155.0	1.0	0.0	7.32075	7.47546	-4.90256	19.15449	30.12305	1.54487	0.6473	98.32147	104.77878	36.58869	0.3436	 	190916.8113	 	3.65104E-5	 	41258.779	37.387	 
1150.0	1.0	0.0	7.32312	7.47304	-4.93336	19.13744	30.06023	1.54268	0.64822	98.84646	105.1989	36.78973	0.3434	 	205937.1839	 	3.37289E-5	 	41072.089	37.338	 
1145.0	1.0	0.0	7.32549	7.47063	-4.96411	19.12039	29.99741	1.54048	0.64915	99.3721	105.61858	36.99107	0.34319	 	222263.1389	 	3.11416E-5	 	40885.641	37.2896	 
1140.0	1.0	0.0	7.32786	7.46821	-4.99481	19.10336	29.93459	1.53827	0.65008	99.89835	106.03782	37.19271	0.34298	 	240018.5469	 	2.87363E-5	 	40699.435	37.2412	 
1135.0	1.0	0.0	7.33022	7.4658	-5.02546	19.08633	29.87176	1.53605	0.65102	100.42521	106.45659	37.39463	0.34278	 	259339.9907	 	2.65012E-5	 	40513.469	37.1932	 
1130.0	1.0	0.0	7.33259	7.4634	-5.05607	19.0693	29.80894	1.53382	0.65197	100.95265	106.87488	37.59683	0.34257	 	280378.1669	 	2.44257E-5	 	40327.741	37.1456	 
1125.0	1.0	0.0	7.33495	7.46099	-5.08663	19.05229	29.74611	1.53159	0.65292	101.48065	107.29266	37.7993	0.34236	 	303299.4523	 	2.24993E-5	 	40142.25	37.0982	 
1120.0	1.0	0.0	7.33731	7.4586	-5.11713	19.03528	29.68328	1.52934	0.65388	102.0092	107.70991	38.00203	0.34215	 	328287.6548	 	2.07124E-5	 	39956.994	37.0512	 
1115.0	1.0	0.0	7.33966	7.4562	-5.1476	19.01828	29.62045	1.52708	0.65484	102.53826	108.12662	38.20503	0.34195	 	355545.9752	 	1.90558E-5	 	39771.971	37.0046	 
1110.0	1.0	0.0	7.34202	7.45381	-5.17801	19.00128	29.55762	1.52482	0.65582	103.06782	108.54277	38.40827	0.34174	 	385299.202	 	1.7521E-5	 	39587.181	36.958	 
1105.0	1.0	0.0	7.34437	7.45142	-5.20838	18.98429	29.49479	1.52254	0.6568	103.59787	108.95834	38.61175	0.34153	 	417796.1742	 	1.60997E-5	 	39402.62	36.9122	 
1100.0	1.0	0.0	7.34672	7.44904	-5.2387	18.96731	29.43195	1.52026	0.65778	104.12838	109.37331	38.81547	0.34133	 	453312.5412	 	1.47845E-5	 	39218.287	36.8666	 
1095.0	1.0	0.0	7.34907	7.44666	-5.26897	18.95034	29.36911	1.51796	0.65878	104.65933	109.78766	39.01942	0.34112	 	492153.8629	 	1.35681E-5	 	39034.181	36.8212	 
1090.0	1.0	0.0	7.35141	7.44429	-5.29919	18.93338	29.30628	1.51566	0.65978	105.1907	110.20137	39.22358	0.34091	 	534659.0908	 	1.24438E-5	 	38850.299	36.7764	 
1085.0	1.0	0.0	7.35376	7.44191	-5.32937	18.91642	29.24344	1.51334	0.66079	105.72248	110.61443	39.42797	0.3407	 	581204.4821	 	1.14053E-5	 	38666.64	36.7318	 
1080.0	1.0	0.0	7.3561	7.43954	-5.3595	18.89947	29.18059	1.51102	0.66181	106.25464	111.02682	39.63255	0.3405	 	632208.0026	 	1.04465E-5	 	38483.202	36.6876	 
1075.0	1.0	0.0	7.35844	7.43718	-5.38958	18.88252	29.11775	1.50868	0.66283	106.78717	111.43852	39.83734	0.34029	 	688134.2848	 	9.56207E-6	 	38299.983	36.6438	 
1070.0	1.0	0.0	7.36077	7.43482	-5.41961	18.86559	29.0549	1.50634	0.66386	107.32004	111.84952	40.04232	0.34008	 	749500.2132	 	8.7466E-6	 	38116.981	36.6004	 
1065.0	1.0	0.0	7.36311	7.43246	-5.4496	18.84866	28.99206	1.50399	0.6649	107.85324	112.25979	40.24748	0.33988	 	816881.2235	 	7.99526E-6	 	37934.193	36.5576	 
1060.0	1.0	0.0	7.36544	7.43011	-5.47954	18.83174	28.92921	1.50162	0.66595	108.38674	112.66933	40.45283	0.33967	 	890918.4112	 	7.30345E-6	 	37751.618	36.515	 
1055.0	1.0	0.0	7.36777	7.42776	-5.50943	18.81482	28.86636	1.49925	0.667	108.92054	113.0781	40.65834	0.33946	 	972326.5594	 	6.66687E-6	 	37569.254	36.4728	 
1050.0	1.0	0.0	7.3701	7.42541	-5.53928	18.79791	28.8035	1.49686	0.66806	109.4546	113.48611	40.86402	0.33925	 	1061903.214	 	6.0815E-6	 	37387.098	36.4312	 
1045.0	1.0	0.0	7.37242	7.42307	-5.56908	18.78101	28.74065	1.49447	0.66914	109.98892	113.89332	41.06985	0.33905	 	1160538.951	 	5.5436E-6	 	37205.149	36.3898	 
1040.0	1.0	0.0	7.37475	7.42073	-5.59883	18.76412	28.67779	1.49206	0.67021	110.52346	114.29973	41.27584	0.33884	 	1269228.994	 	5.04965E-6	 	37023.403	36.3492	 
1035.0	1.0	0.0	7.37707	7.4184	-5.62853	18.74723	28.61493	1.48964	0.6713	111.05823	114.70532	41.48197	0.33863	 	1389086.393	 	4.59637E-6	 	36841.859	36.3088	 
1030.0	1.0	0.0	7.37939	7.41607	-5.65818	18.73036	28.55207	1.48722	0.6724	111.59318	115.11007	41.68823	0.33843	 	1521356.95	 	4.18071E-6	 	36660.514	36.269	 
1025.0	1.0	0.0	7.3817	7.41374	-5.68779	18.71349	28.48921	1.48478	0.6735	112.12832	115.51396	41.89463	0.33822	 	1667436.18	 	3.79981E-6	 	36479.365	36.2298	 
1020.0	1.0	0.0	7.38402	7.41141	-5.71735	18.69662	28.42635	1.48233	0.67461	112.66361	115.91699	42.10115	0.33801	 	1828888.566	 	3.45103E-6	 	36298.411	36.1908	 
1015.0	1.0	0.0	7.38633	7.40909	-5.74687	18.67976	28.36348	1.47987	0.67573	113.19904	116.31913	42.30779	0.3378	 	2007469.453	 	3.13187E-6	 	36117.649	36.1524	 
1010.0	1.0	0.0	7.38864	7.40678	-5.77634	18.66291	28.30061	1.4774	0.67686	113.7346	116.72037	42.51453	0.3376	 	2205149.972	 	2.84005E-6	 	35937.075	36.1148	 
1005.0	1.0	0.0	7.39095	7.40446	-5.80576	18.64607	28.23774	1.47492	0.678	114.27026	117.12069	42.72138	0.33739	 	2424145.414	 	2.57342E-6	 	35756.688	36.0774	 
1000.0	1.0	0.0	7.39325	7.40216	-5.83513	18.62924	28.17487	1.47243	0.67915	114.806	117.52009	42.92832	0.33718	 	2666947.596	 	2.32998E-6	 	35576.485	36.0406	 
995.0	1.0	0.0	7.39556	7.39985	-5.86446	18.61241	28.11199	1.46993	0.6803	115.34181	117.91854	43.13536	0.33698	 	2936361.769	 	2.10789E-6	 	35396.462	36.0046	 
990.0	1.0	0.0	7.39786	7.39755	-5.89374	18.59559	28.04912	1.46742	0.68147	115.87767	118.31603	43.34247	0.33677	 	3235548.796	 	1.90543E-6	 	35216.616	35.9692	 
985.0	1.0	0.0	7.40016	7.39525	-5.92297	18.57878	27.98624	1.46489	0.68264	116.41357	118.71254	43.54967	0.33656	 	3568073.345	 	1.72102E-6	 	35036.946	35.934	 
980.0	1.0	0.0	7.40245	7.39296	-5.95216	18.56197	27.92336	1.46236	0.68383	116.94947	119.10807	43.75693	0.33635	 	3937959.05	 	1.55317E-6	 	34857.447	35.8998	 
975.0	1.0	0.0	7.40475	7.39067	-5.98129	18.54517	27.86048	1.45981	0.68502	117.48538	119.50259	43.96425	0.33615	 	4349751.679	 	1.40052E-6	 	34678.117	35.866	 
970.0	1.0	0.0	7.40704	7.38838	-6.01039	18.52838	27.7976	1.45725	0.68622	118.02126	119.89609	44.17163	0.33594	 	4808591.55	 	1.26181E-6	 	34498.951	35.8332	 
965.0	1.0	0.0	7.40933	7.3861	-6.03943	18.51159	27.73471	1.45468	0.68744	118.5571	120.28856	44.37906	0.33573	 	5320296.64	 	1.13586E-6	 	34319.948	35.8006	 
960.0	1.0	0.0	7.41162	7.38382	-6.06843	18.49482	27.67182	1.4521	0.68866	119.09288	120.67999	44.58653	0.33553	 	5891458.033	 	1.0216E-6	 	34141.103	35.769	 
955.0	1.0	0.0	7.4139	7.38154	-6.09738	18.47805	27.60893	1.4495	0.68989	119.62859	121.07036	44.79404	0.33532	 	6529549.677	 	9.18026E-7	 	33962.413	35.738	 
950.0	1.0	0.0	7.41618	7.37927	-6.12629	18.46128	27.54604	1.4469	0.69113	120.1642	121.45965	45.00158	0.33511	 	7243054.706	 	8.24223E-7	 	33783.874	35.7078	 
945.0	1.0	0.0	7.41846	7.377	-6.15514	18.44453	27.48315	1.44428	0.69239	120.69971	121.84785	45.20914	0.3349	 	8041610.966	 	7.3934E-7	 	33605.483	35.6782	 
940.0	1.0	0.0	7.42074	7.37474	-6.18396	18.42778	27.42026	1.44165	0.69365	121.23509	122.23496	45.41672	0.3347	 	8936178.868	 	6.62597E-7	 	33427.235	35.6496	 
935.0	1.0	0.0	7.42302	7.37247	-6.21272	18.41104	27.35736	1.43901	0.69492	121.77033	122.62095	45.62431	0.33449	 	9939235.153	 	5.93273E-7	 	33249.127	35.6216	 
930.0	1.0	0.0	7.42529	7.37022	-6.24144	18.39431	27.29446	1.43636	0.6962	122.3054	123.00581	45.8319	0.33428	 	1.106499684E7	 	5.30707E-7	 	33071.153	35.5948	 
925.0	1.0	0.0	7.42756	7.36796	-6.27011	18.37758	27.23156	1.43369	0.6975	122.84029	123.38954	46.03949	0.33408	 	1.23296803E7	 	4.74292E-7	 	32893.311	35.5684	 
920.0	1.0	0.0	7.42983	7.36571	-6.29874	18.36086	27.16866	1.43102	0.6988	123.37499	123.77211	46.24707	0.33387	 	1.375180136E7	 	4.2347E-7	 	32715.596	35.543	 
915.0	1.0	0.0	7.4321	7.36347	-6.32731	18.34415	27.10576	1.42833	0.70012	123.90947	124.15351	46.45464	0.33366	 	1.535252314E7	 	3.77727E-7	 	32538.003	35.5186	 
910.0	1.0	0.0	7.43436	7.36122	-6.35585	18.32744	27.04285	1.42562	0.70145	124.44372	124.53374	46.66218	0.33345	 	1.715605996E7	 	3.36596E-7	 	32360.527	35.4952	 
905.0	1.0	0.0	7.43663	7.35898	-6.38433	18.31075	26.97995	1.42291	0.70279	124.97773	124.91277	46.8697	0.33325	 	1.91901465E7	 	2.99646E-7	 	32183.163	35.4728	 
900.0	1.0	0.0	7.43889	7.35675	-6.41277	18.29405	26.91704	1.42018	0.70414	125.51147	125.2906	47.07718	0.33304	 	2.148658372E7	 	2.66485E-7	 	32005.907	35.4512	 
895.0	1.0	0.0	7.44114	7.35452	-6.44117	18.27737	26.85413	1.41744	0.7055	126.04493	125.66721	47.28461	0.33283	 	2.408187458E7	 	2.36753E-7	 	31828.753	35.4308	 
890.0	1.0	0.0	7.4434	7.35229	-6.46951	18.2607	26.79122	1.41469	0.70687	126.57808	126.04259	47.492	0.33263	 	2.701796529E7	 	2.10121E-7	 	31651.696	35.4114	 
885.0	1.0	0.0	7.44565	7.35006	-6.49781	18.24403	26.72831	1.41192	0.70825	127.11092	126.41673	47.69934	0.33242	 	3.034311068E7	 	1.86291E-7	 	31474.73	35.3932	 
880.0	1.0	0.0	7.4479	7.34784	-6.52607	18.22737	26.6654	1.40914	0.70965	127.64343	126.78961	47.90661	0.33221	 	3.411288544E7	 	1.64989E-7	 	31297.849	35.3762	 
875.0	1.0	0.0	7.45015	7.34563	-6.55427	18.21071	26.60249	1.40635	0.71106	128.17558	127.16122	48.11382	0.332	 	3.839136752E7	 	1.45966E-7	 	31121.047	35.3604	 
870.0	1.0	0.0	7.4524	7.34341	-6.58243	18.19406	26.53957	1.40355	0.71248	128.70737	127.53156	48.32095	0.3318	 	4.32525245E7	 	1.28997E-7	 	30944.318	35.3458	 
865.0	1.0	0.0	7.45464	7.3412	-6.61055	18.17742	26.47666	1.40073	0.71391	129.23877	127.9006	48.528	0.33159	 	4.878183975E7	 	1.13875E-7	 	30767.655	35.3326	 
860.0	1.0	0.0	7.45688	7.339	-6.63862	18.16079	26.41375	1.3979	0.71536	129.76976	128.26834	48.73497	0.33138	 	5.507822232E7	 	1.00414E-7	 	30591.051	35.3208	 
855.0	1.0	0.0	7.45912	7.33679	-6.66664	18.14417	26.35084	1.39505	0.71682	130.30034	128.63476	48.94184	0.33118	 	6.225625269E7	 	8.84444E-8	 	30414.499	35.3104	 
850.0	1.0	0.0	7.46136	7.33459	-6.69462	18.12755	26.28792	1.39219	0.71829	130.83048	128.99986	49.14861	0.33097	 	7.044882713E7	 	7.78127E-8	 	30237.992	35.3014	 
845.0	1.0	0.0	7.46359	7.3324	-6.72255	18.11094	26.22501	1.38932	0.71978	131.36017	129.36361	49.35528	0.33076	 	7.981027504E7	 	6.83798E-8	 	30061.522	35.294	 
840.0	1.0	0.0	7.46582	7.33021	-6.75043	18.09433	26.1621	1.38643	0.72128	131.88938	129.72602	49.56183	0.33055	 	9.0520039E7	 	6.002E-8	 	29885.081	35.2882	 
835.0	1.0	0.0	7.46805	7.32802	-6.77827	18.07774	26.09919	1.38353	0.72279	132.41811	130.08706	49.76827	0.33035	 	1.027870247E8	 	5.26195E-8	 	29708.66	35.2842	 
830.0	1.0	0.0	7.47028	7.32583	-6.80606	18.06115	26.03628	1.38062	0.72431	132.94634	130.44673	49.97458	0.33014	 	1.168547495E8	 	4.6076E-8	 	29532.251	35.2818	 
825.0	1.0	0.0	7.4725	7.32365	-6.83381	18.04457	25.97337	1.37769	0.72585	133.47405	130.80502	50.18076	0.32993	 	1.330074448E8	 	4.0297E-8	 	29355.843	35.2816	 
820.0	1.0	0.0	7.47473	7.32147	-6.86151	18.02799	25.91046	1.37475	0.72741	134.00122	131.1619	50.3868	0.32973	 	1.515772985E8	 	3.51992E-8	 	29179.428	35.283	 
815.0	1.0	0.0	7.47695	7.3193	-6.88917	18.01143	25.84756	1.37179	0.72898	134.52783	131.51738	50.5927	0.32952	 	1.729530626E8	 	3.07077E-8	 	29002.994	35.2868	 
810.0	1.0	0.0	7.47916	7.31713	-6.91677	17.99487	25.78466	1.36882	0.73056	135.05388	131.87145	50.79844	0.32931	 	1.97590298E8	 	2.67553E-8	 	28826.532	35.2924	 
805.0	1.0	0.0	7.48138	7.31496	-6.94434	17.97831	25.72176	1.36583	0.73216	135.57934	132.22408	51.00404	0.3291	 	2.260235851E8	 	2.32816E-8	 	28650.03	35.3004	 
800.0	1.0	0.0	7.48359	7.3128	-6.97185	17.96177	25.65886	1.36283	0.73377	136.1042	132.57527	51.20947	0.3289	 	2.58881098E8	 	2.02324E-8	 	28473.475	35.311	 
795.0	1.0	0.0	7.4858	7.31064	-6.99932	17.94523	25.59596	1.35981	0.7354	136.62845	132.92502	51.41473	0.32869	 	2.969020263E8	 	1.75592E-8	 	28296.855	35.324	 
790.0	1.0	0.0	7.48801	7.30848	-7.02675	17.9287	25.53307	1.35678	0.73704	137.15205	133.2733	51.61981	0.32848	 	3.409574311E8	 	1.52188E-8	 	28120.156	35.3398	 
785.0	1.0	0.0	7.49022	7.30633	-7.05413	17.91217	25.47018	1.35373	0.7387	137.67501	133.62011	51.82472	0.32828	 	3.920752496E8	 	1.31724E-8	 	27943.366	35.358	 
780.0	1.0	0.0	7.49242	7.30418	-7.08146	17.89566	25.4073	1.35067	0.74037	138.1973	133.96544	52.02943	0.32807	 	4.514703201E8	 	1.13854E-8	 	27766.467	35.3798	 
775.0	1.0	0.0	7.49462	7.30204	-7.10875	17.87915	25.34442	1.34759	0.74206	138.7189	134.30928	52.23396	0.32786	 	5.205804904E8	 	9.82703E-9	 	27589.446	35.4042	 
770.0	1.0	0.0	7.49682	7.2999	-7.13599	17.86264	25.28154	1.3445	0.74377	139.23981	134.65162	52.43828	0.32765	 	6.011101103E8	 	8.46992E-9	 	27412.283	35.4326	 
765.0	1.0	0.0	7.49902	7.29776	-7.16319	17.84615	25.21867	1.34139	0.74549	139.76	134.99244	52.6424	0.32745	 	6.950825016E8	 	7.28971E-9	 	27234.963	35.464	 
760.0	1.0	0.0	7.50121	7.29562	-7.19034	17.82966	25.1558	1.33827	0.74723	140.27946	135.33175	52.8463	0.32724	 	8.049033609E8	 	6.26479E-9	 	27057.464	35.4998	 
755.0	1.0	0.0	7.5034	7.29349	-7.21745	17.81318	25.09293	1.33513	0.74899	140.79817	135.66952	53.04999	0.32703	 	9.334374972E8	 	5.37598E-9	 	26879.768	35.5392	 
750.0	1.0	0.0	7.50559	7.29137	-7.24451	17.79671	25.03007	1.33197	0.75077	141.31612	136.00575	53.25346	0.32683	 	1.084101864E9	 	4.60634E-9	 	26701.852	35.5832	 
745.0	1.0	0.0	7.50778	7.28924	-7.27152	17.78024	24.96721	1.3288	0.75256	141.83329	136.34042	53.45669	0.32662	 	1.260978533E9	 	3.94086E-9	 	26523.692	35.632	 
740.0	1.0	0.0	7.50996	7.28712	-7.29849	17.76378	24.90436	1.32561	0.75437	142.34967	136.67354	53.65969	0.32641	 	1.468952121E9	 	3.3663E-9	 	26345.263	35.6858	 
735.0	1.0	0.0	7.51214	7.28501	-7.32541	17.74733	24.84151	1.32241	0.7562	142.86523	137.00509	53.86245	0.3262	 	1.713877245E9	 	2.87099E-9	 	26166.538	35.745	 
730.0	1.0	0.0	7.51432	7.28289	-7.35229	17.73089	24.77866	1.31919	0.75804	143.37997	137.33505	54.06495	0.326	 	2.002782931E9	 	2.44466E-9	 	25987.488	35.81	 
725.0	1.0	0.0	7.5165	7.28078	-7.37912	17.71445	24.71582	1.31595	0.75991	143.89387	137.66343	54.26721	0.32579	 	2.344122567E9	 	2.07827E-9	 	25808.082	35.8812	 
720.0	1.0	0.0	7.51867	7.27868	-7.40591	17.69802	24.65298	1.31269	0.76179	144.40691	137.99021	54.4692	0.32558	 	2.748080105E9	 	1.76389E-9	 	25628.284	35.9596	 
715.0	1.0	0.0	7.52084	7.27658	-7.43265	17.6816	24.59015	1.30942	0.7637	144.91907	138.31538	54.67093	0.32538	 	3.226945843E9	 	1.49458E-9	 	25448.059	36.045	 
710.0	1.0	0.0	7.52301	7.27448	-7.45935	17.66518	24.52731	1.30613	0.76562	145.43035	138.63893	54.87238	0.32517	 	3.795578469E9	 	1.26424E-9	 	25267.366	36.1386	 
705.0	1.0	0.0	7.52518	7.27238	-7.486	17.64877	24.46448	1.30283	0.76756	145.94072	138.96086	55.07356	0.32496	 	4.471974216E9	 	1.06756E-9	 	25086.162	36.2408	 
700.0	1.0	0.0	7.52735	7.27029	-7.51261	17.63237	24.40165	1.29951	0.76952	146.45018	139.28115	55.27445	0.32475	 	5.277969309E9	 	8.99911E-10	 	24904.399	36.3526	 
695.0	1.0	0.0	7.52951	7.2682	-7.53917	17.61598	24.33882	1.29617	0.77151	146.9587	139.5998	55.47505	0.32455	 	6.240108585E9	 	7.57246E-10	 	24722.024	36.475	 
690.0	1.0	0.0	7.53167	7.26612	-7.56568	17.59959	24.27599	1.29281	0.77351	147.46627	139.9168	55.67536	0.32434	 	7.390721708E9	 	6.36054E-10	 	24538.982	36.6084	 
685.0	1.0	0.0	7.53383	7.26404	-7.59215	17.58321	24.21316	1.28944	0.77553	147.97287	140.23214	55.87536	0.32413	 	8.769259248E9	 	5.33282E-10	 	24355.209	36.7546	 
680.0	1.0	0.0	7.53598	7.26196	-7.61858	17.56684	24.15033	1.28604	0.77758	148.47849	140.5458	56.07506	0.32393	 	1.0424E10	 	4.46288E-10	 	24170.638	36.9142	 
675.0	1.0	0.0	7.53813	7.25989	-7.64496	17.55048	24.08749	1.28264	0.77964	148.98311	140.85779	56.27444	0.32372	 	1.2413899999999998E10	 	3.72783E-10	 	23985.192	37.0892	 
670.0	1.0	0.0	7.54028	7.25782	-7.6713	17.53412	24.02465	1.27921	0.78173	149.48673	141.16809	56.4735	0.32351	 	1.4811599999999998E10	 	3.10789E-10	 	23798.789	37.2806	 
665.0	1.0	0.0	7.54243	7.25575	-7.69759	17.51777	23.96181	1.27576	0.78384	149.98932	141.4767	56.67224	0.32331	 	1.77063E10	 	2.58601E-10	 	23611.335	37.4908	 
660.0	1.0	0.0	7.54458	7.25369	-7.72383	17.50143	23.89897	1.2723	0.78598	150.49086	141.7836	56.87064	0.3231	 	2.1208E10	 	2.14753E-10	 	23422.729	37.7212	 
655.0	1.0	0.0	7.54672	7.25163	-7.75003	17.48509	23.83612	1.26882	0.78813	150.99135	142.0888	57.06871	0.32289	 	2.5452399999999996E10	 	1.77982E-10	 	23232.857	37.9744	 
650.0	1.0	0.0	7.54886	7.24957	-7.77618	17.46876	23.77326	1.26532	0.79031	151.49077	142.39227	57.26643	0.32268	 	3.0607699999999996E10	 	1.47207E-10	 	23041.592	38.253	 
645.0	1.0	0.0	7.551	7.24752	-7.80229	17.45244	23.71039	1.26181	0.79251	151.9891	142.69401	57.46381	0.32248	 	3.68823E10	 	1.21502E-10	 	22848.792	38.56	 
640.0	1.0	0.0	7.55313	7.24547	-7.82836	17.43613	23.64752	1.25827	0.79474	152.48633	142.99402	57.66083	0.32227	 	4.45356E10	 	1.00074E-10	 	22648.427	40.073	 
635.0	1.0	0.0	7.55527	7.24343	-7.85438	17.41982	23.58463	1.25472	0.79699	152.98244	143.29229	57.85749	0.32206	 	5.389039999999999E10	 	8.22494E-11	 	22438.915	41.9024	 
630.0	1.0	0.0	7.5574	7.24138	-7.88036	17.40352	23.52174	1.25115	0.79927	153.47742	143.5888	58.05378	0.32186	 	6.535009999999999E10	 	6.74528E-11	 	22231.312	41.5206	 
625.0	1.0	0.0	7.55952	7.23935	-7.90629	17.38723	23.45883	1.24756	0.80157	153.97125	143.88356	58.24971	0.32165	 	7.94196E10	 	5.5196E-11	 	22025.549	41.1526	 
620.0	1.0	0.0	7.56165	7.23731	-7.93217	17.37094	23.39591	1.24395	0.80389	154.46392	144.17654	58.44525	0.32144	 	9.673209999999998E10	 	4.50651E-11	 	21821.56	40.7978	 
615.0	1.0	0.0	7.56377	7.23528	-7.95801	17.35467	23.33298	1.24032	0.80624	154.95542	144.46776	58.64041	0.32123	 	1.18084E11	 	3.67098E-11	 	21619.281	40.4558	 
610.0	1.0	0.0	7.56589	7.23325	-7.98381	17.33839	23.27003	1.23667	0.80862	155.44573	144.75719	58.83518	0.32103	 	1.4448E11	 	2.98342E-11	 	21418.654	40.1254	 
605.0	1.0	0.0	7.56801	7.23123	-8.00956	17.32213	23.20707	1.23301	0.81102	155.93483	145.04483	59.02955	0.32082	 	1.77187E11	 	2.41893E-11	 	21219.622	39.8064	 
600.0	1.0	0.0	7.57013	7.22921	-8.03527	17.30587	23.14409	1.22932	0.81345	156.42271	145.33068	59.22353	0.32061	 	2.17815E11	 	1.95654E-11	 	21022.132	39.498	 
595.0	1.0	0.0	7.57224	7.22719	-8.06093	17.28963	23.08109	1.22562	0.81591	156.90936	145.61472	59.4171	0.32041	 	2.68403E11	 	1.57868E-11	 	20826.133	39.1998	 
590.0	1.0	0.0	7.57435	7.22518	-8.08655	17.27338	23.01808	1.2219	0.8184	157.39476	145.89695	59.61025	0.3202	 	3.31553E11	 	1.27063E-11	 	20631.577	38.9112	 
585.0	1.0	0.0	7.57646	7.22317	-8.11212	17.25715	22.95505	1.21816	0.82091	157.87889	146.17737	59.80299	0.31999	 	4.10582E11	 	1.02012E-11	 	20438.419	38.6316	 
580.0	1.0	0.0	7.57856	7.22116	-8.13765	17.24092	22.892	1.21439	0.82346	158.36175	146.45596	59.9953	0.31978	 	5.09739E11	 	8.1689E-12	 	20246.615	38.3608	 
575.0	1.0	0.0	7.58067	7.21916	-8.16313	17.2247	22.82893	1.21061	0.82603	158.84332	146.73271	60.18719	0.31958	 	6.34479E11	 	6.52442E-12	 	20056.125	38.098	 
570.0	1.0	0.0	7.58277	7.21716	-8.18857	17.20849	22.76584	1.20681	0.82863	159.32358	147.00763	60.37864	0.31937	 	7.91821E11	 	5.19714E-12	 	19866.909	37.8432	 
565.0	1.0	0.0	7.58486	7.21516	-8.21397	17.19228	22.70273	1.20299	0.83126	159.80251	147.2807	60.56965	0.31916	 	9.90825E11	 	4.12868E-12	 	19678.93	37.5958	 
560.0	1.0	0.0	7.58696	7.21317	-8.23932	17.17609	22.63961	1.19915	0.83393	160.28012	147.55192	60.76021	0.31896	 	1.24322E12	 	3.27086E-12	 	19492.154	37.3552	 
555.0	1.0	0.0	7.58905	7.21118	-8.26462	17.15989	22.57646	1.19528	0.83662	160.75637	147.82128	60.95032	0.31875	 	1.56424E12	 	2.58401E-12	 	19306.546	37.1216	 
550.0	1.0	0.0	7.59114	7.20919	-8.28988	17.14371	22.51329	1.1914	0.83935	161.23127	148.08877	61.13998	0.31854	 	1.9737E12	 	2.03557E-12	 	19122.075	36.8942	 
545.0	1.0	0.0	7.59323	7.20721	-8.3151	17.12753	22.45011	1.1875	0.84211	161.70478	148.35439	61.32917	0.31834	 	2.4975E12	 	1.59887E-12	 	18938.71	36.673	 
540.0	1.0	0.0	7.59532	7.20523	-8.34027	17.11137	22.3869	1.18357	0.8449	162.17691	148.61814	61.51789	0.31813	 	3.16956E12	 	1.25215E-12	 	18756.423	36.4574	 
535.0	1.0	0.0	7.5974	7.20326	-8.3654	17.0952	22.32368	1.17962	0.84773	162.64763	148.87999	61.70614	0.31792	 	4.03447E12	 	9.7767E-13	 	18575.186	36.2474	 
530.0	1.0	0.0	7.59948	7.20128	-8.39049	17.07905	22.26044	1.17566	0.85059	163.11693	149.13996	61.89391	0.31771	 	5.15098E12	 	7.61015E-13	 	18394.973	36.0426	 
525.0	1.0	0.0	7.60156	7.19931	-8.41553	17.0629	22.19718	1.17167	0.85348	163.5848	149.39803	62.0812	0.31751	 	6.59682E12	 	5.90523E-13	 	18215.759	35.8428	 
520.0	1.0	0.0	7.60363	7.19735	-8.44052	17.04676	22.13391	1.16766	0.85642	164.05122	149.65419	62.268	0.3173	 	8.47512E12	 	4.56769E-13	 	18037.521	35.6476	 
515.0	1.0	0.0	7.60571	7.19539	-8.46548	17.03063	22.07062	1.16362	0.85939	164.51618	149.90845	62.4543	0.31709	 	1.09232E13	 	3.52165E-13	 	17860.235	35.4572	 
510.0	1.0	0.0	7.60778	7.19343	-8.49038	17.0145	22.00731	1.15957	0.86239	164.97967	150.16079	62.6401	0.31689	 	1.41244E13	 	2.7062E-13	 	17683.88	35.271	 
505.0	1.0	0.0	7.60984	7.19148	-8.51525	16.99838	21.94399	1.15549	0.86544	165.44167	150.41121	62.82539	0.31668	 	1.83248E13	 	2.07258E-13	 	17508.436	35.0888	 
500.0	1.0	0.0	7.61191	7.18953	-8.54007	16.98227	21.88065	1.15139	0.86852	165.90217	150.6597	63.01017	0.31647	 	2.3855E13	 	1.58187E-13	 	17333.882	34.9108	 
495.0	1.0	0.0	7.61397	7.18758	-8.56484	16.96617	21.8173	1.14726	0.87164	166.36116	150.90626	63.19443	0.31626	 	3.11619E13	 	1.20312E-13	 	17160.2	34.7364	 
490.0	1.0	0.0	7.61603	7.18563	-8.58957	16.95007	21.75394	1.14311	0.8748	166.81862	151.15088	63.37818	0.31606	 	4.08506E13	 	9.11796E-14	 	16987.371	34.5658	 
485.0	1.0	0.0	7.61809	7.18369	-8.61426	16.93398	21.69056	1.13894	0.87801	167.27454	151.39356	63.56139	0.31585	 	5.37447E13	 	6.88504E-14	 	16815.379	34.3984	 
480.0	1.0	0.0	7.62014	7.18176	-8.6389	16.9179	21.62718	1.13475	0.88125	167.72891	151.63429	63.74407	0.31564	 	7.09683E13	 	5.17969E-14	 	16644.207	34.2344	 
475.0	1.0	0.0	7.6222	7.17982	-8.6635	16.90182	21.56379	1.13053	0.88454	168.1817	151.87306	63.92622	0.31544	 	9.40628E13	 	3.88202E-14	 	16473.839	34.0736	 
470.0	1.0	0.0	7.62425	7.17789	-8.68806	16.88575	21.50038	1.12628	0.88788	168.63292	152.10987	64.10782	0.31523	 	1.25149E14	 	2.89825E-14	 	16304.259	33.916	 
465.0	1.0	0.0	7.62629	7.17597	-8.71257	16.86969	21.43697	1.12202	0.89125	169.08255	152.34472	64.28887	0.31502	 	1.67158E14	 	2.15528E-14	 	16135.454	33.761	 
460.0	1.0	0.0	7.62834	7.17404	-8.73704	16.85364	21.37356	1.11772	0.89468	169.53057	152.5776	64.46936	0.31481	 	2.24157E14	 	1.59635E-14	 	15967.41	33.6088	 
455.0	1.0	0.0	7.63038	7.17212	-8.76146	16.83759	21.31013	1.1134	0.89815	169.97697	152.80851	64.6493	0.31461	 	3.01813E14	 	1.17753E-14	 	15800.112	33.4596	 
450.0	1.0	0.0	7.63242	7.17021	-8.78584	16.82155	21.2467	1.10906	0.90167	170.42174	153.03744	64.82868	0.3144	 	4.08054E14	 	8.64962E-15	 	15633.548	33.3128	 
445.0	1.0	0.0	7.63446	7.16829	-8.81017	16.80552	21.18327	1.10469	0.90523	170.86486	153.26438	65.00749	0.31419	 	5.5402799999999994E14	 	6.32659E-15	 	15467.706	33.1684	 
440.0	1.0	0.0	7.63649	7.16638	-8.83447	16.7895	21.11983	1.10029	0.90885	171.30633	153.48933	65.18572	0.31399	 	7.55471E14	 	4.60733E-15	 	15302.574	33.0264	 
435.0	1.0	0.0	7.63852	7.16448	-8.85872	16.77348	21.05639	1.09587	0.91252	171.74613	153.7123	65.36337	0.31378	 	1.0347E15	 	3.34039E-15	 	15138.141	32.8866	 
430.0	1.0	0.0	7.64055	7.16257	-8.88292	16.75747	20.99295	1.09142	0.91624	172.18425	153.93326	65.54044	0.31357	 	1.42352E15	 	2.41085E-15	 	14974.394	32.7494	 
425.0	1.0	0.0	7.64258	7.16067	-8.90708	16.74147	20.92951	1.08694	0.92001	172.62068	154.15222	65.71692	0.31337	 	1.96746E15	 	1.73193E-15	 	14811.325	32.6138	 
420.0	1.0	0.0	7.6446	7.15878	-8.9312	16.72547	20.86606	1.08244	0.92384	173.0554	154.36918	65.89281	0.31316	 	2.73202E15	 	1.23831E-15	 	14648.922	32.4806	 
415.0	1.0	0.0	7.64662	7.15689	-8.95527	16.70948	20.80261	1.07791	0.92772	173.48841	154.58413	66.0681	0.31295	 	3.81192E15	 	8.81103E-16	 	14487.175	32.3494	 
410.0	1.0	0.0	7.64864	7.155	-8.9793	16.6935	20.73917	1.07335	0.93166	173.91968	154.79706	66.24278	0.31274	 	5.34476E15	 	6.23842E-16	 	14326.076	32.2198	 
405.0	1.0	0.0	7.65066	7.15311	-9.00329	16.67753	20.67572	1.06877	0.93566	174.34922	155.00798	66.41686	0.31254	 	7.53157E15	 	4.39467E-16	 	14165.616	32.092	 
400.0	1.0	0.0	7.65267	7.15123	-9.02723	16.66156	20.61227	1.06415	0.93972	174.777	155.21688	66.59032	0.31233	 	1.06675E16	 	3.07988E-16	 	14005.784	31.9664	 
395.0	1.0	0.0	7.65468	7.14935	-9.05113	16.6456	20.54883	1.05951	0.94383	175.20302	155.42375	66.76317	0.31212	 	1.51884E16	 	2.14708E-16	 	13846.573	31.8422	 
390.0	1.0	0.0	7.65669	7.14748	-9.07499	16.62965	20.48538	1.05484	0.94801	175.62727	155.6286	66.9354	0.31192	 	2.17412E16	 	1.48873E-16	 	13687.974	31.7198	 
385.0	1.0	0.0	7.6587	7.1456	-9.0988	16.6137	20.42194	1.05014	0.95226	176.04973	155.83142	67.107	0.31171	 	3.12917E16	 	1.02656E-16	 	13529.98	31.5988	 
380.0	1.0	0.0	7.6607	7.14374	-9.12257	16.59777	20.3585	1.04541	0.95657	176.47039	156.0322	67.27796	0.3115	 	4.529E16	 	7.03878E-17	 	13372.583	31.4794	 
375.0	1.0	0.0	7.6627	7.14187	-9.1463	16.58184	20.29505	1.04065	0.96094	176.88924	156.23095	67.4483	0.3113	 	6.59265E16	 	4.79846E-17	 	13215.775	31.3616	 
370.0	1.0	0.0	7.6647	7.14001	-9.16998	16.56591	20.23161	1.03586	0.96538	177.30628	156.42765	67.61799	0.31109	 	9.65296E16	 	3.25191E-17	 	13059.549	31.2452	 
365.0	1.0	0.0	7.66669	7.13815	-9.19362	16.55	20.16817	1.03104	0.9699	177.72149	156.62232	67.78704	0.31088	 	1.42188E17	 	2.19052E-17	 	12903.898	31.1302	 
360.0	1.0	0.0	7.66869	7.1363	-9.21722	16.53409	20.10473	1.02619	0.97448	178.13486	156.81494	67.95544	0.31067	 	2.10731E17	 	1.46644E-17	 	12748.816	31.0164	 
355.0	1.0	0.0	7.67068	7.13444	-9.24077	16.51819	20.04129	1.0213	0.97914	178.54638	157.00552	68.12319	0.31047	 	3.14283E17	 	9.75505E-18	 	12594.295	30.9042	 
350.0	1.0	0.0	7.67266	7.1326	-9.26428	16.50229	19.97785	1.01639	0.98387	178.95604	157.19405	68.29028	0.31026	 	4.71742E17	 	6.44725E-18	 	12440.33	30.793	 
345.0	1.0	0.0	7.67465	7.13075	-9.28775	16.4864	19.91441	1.01145	0.98868	179.36384	157.38053	68.45671	0.31005	 	7.12768E17	 	4.23284E-18	 	12286.914	30.6832	 
340.0	1.0	0.0	7.67663	7.12891	-9.31117	16.47053	19.85097	1.00647	0.99357	179.76975	157.56496	68.62248	0.30985	 	1.08423E18	 	2.76015E-18	 	12134.042	30.5744	 
335.0	1.0	0.0	7.67861	7.12707	-9.33455	16.45465	19.78753	1.00147	0.99853	180.17378	157.74734	68.78758	0.30964	 	1.66072E18	 	1.78732E-18	 	11981.707	30.467	 
330.0	1.0	0.0	7.68059	7.12524	-9.35789	16.43879	19.72409	0.99643	1.00358	180.57592	157.92766	68.95201	0.30943	 	2.5618E18	 	1.14912E-18	 	11829.904	30.3606	 
325.0	1.0	0.0	7.68256	7.12341	-9.38118	16.42293	19.66065	0.99136	1.00872	180.97615	158.10593	69.11576	0.30922	 	3.98059E18	 	7.33413E-19	 	11678.628	30.2552	 
320.0	1.0	0.0	7.68453	7.12158	-9.40443	16.40708	19.59721	0.98625	1.01394	181.37446	158.28215	69.27884	0.30902	 	6.23136E18	 	4.64589E-19	 	11527.873	30.151	 
315.0	1.0	0.0	7.6865	7.11975	-9.42764	16.39123	19.53377	0.98111	1.01925	181.77086	158.45631	69.44123	0.30881	 	9.82951E18	 	2.92041E-19	 	11377.635	30.0476	 
310.0	1.0	0.0	7.68847	7.11793	-9.4508	16.3754	19.47032	0.97594	1.02465	182.16533	158.62841	69.60294	0.3086	 	1.56272E19	 	1.82132E-19	 	11227.908	29.9454	 
305.0	1.0	0.0	7.69043	7.11612	-9.47393	16.35957	19.40688	0.97074	1.03014	182.55786	158.79846	69.76396	0.3084	 	2.50447E19	 	1.12671E-19	 	11078.687	29.8442	 
300.0	1.0	0.0	7.69239	7.1143	-9.49701	16.34375	19.34343	0.9655	1.03573	182.94845	158.96646	69.92428	0.30819	 	4.04697E19	 	6.91234E-20	 	10929.969	29.7436	 
295.0	1.0	0.0	7.69435	7.11249	-9.52004	16.32793	19.27997	0.96023	1.04142	183.33708	159.1324	70.08391	0.30798	 	6.59504E19	 	4.20468E-20	 	10781.748	29.6442	 
290.0	1.0	0.0	7.69631	7.11068	-9.54303	16.31212	19.21652	0.95492	1.04721	183.72377	159.29628	70.24285	0.30778	 	1.0841099999999998E20	 	2.53534E-20	 	10634.021	29.5454	 
285.0	1.0	0.0	7.69826	7.10888	-9.56599	16.29632	19.15306	0.94958	1.0531	184.10848	159.45812	70.40108	0.30757	 	1.79806E20	 	1.51508E-20	 	10486.782	29.4478	 
280.0	1.0	0.0	7.70021	7.10708	-9.58889	16.28053	19.0896	0.9442	1.0591	184.49123	159.61791	70.55861	0.30736	 	3.0096E20	 	8.9706E-21	 	10340.029	29.3506	 
275.0	1.0	0.0	7.70216	7.10528	-9.61176	16.26475	19.02613	0.93879	1.06521	184.87201	159.77564	70.71544	0.30715	 	5.0850799999999993E20	 	5.26124E-21	 	10193.757	29.2544	 
270.0	1.0	0.0	7.7041	7.10349	-9.63458	16.24897	18.96266	0.93334	1.07142	185.25081	159.93134	70.87155	0.30695	 	8.675319999999999E20	 	3.05577E-21	 	10047.962	29.159	 
265.0	1.0	0.0	7.70605	7.1017	-9.65736	16.2332	18.89918	0.92785	1.07776	185.62762	160.08499	71.02696	0.30674	 	1.49481E21	 	1.75713E-21	 	9902.641	29.0642	 
260.0	1.0	0.0	7.70799	7.09991	-9.6801	16.21743	18.8357	0.92233	1.08421	186.00245	160.2366	71.18166	0.30653	 	2.6021E21	 	1.00003E-21	 	9757.791	28.97	 
255.0	1.0	0.0	7.70992	7.09813	-9.70279	16.20167	18.77222	0.91677	1.09079	186.37529	160.38617	71.33564	0.30633	 	4.57744E21	 	5.63147E-22	 	9613.407	28.8768	 
250.0	1.0	0.0	7.71186	7.09634	-9.72544	16.18592	18.70873	0.91117	1.09749	186.74613	160.53372	71.48891	0.30612	 	8.13978E21	 	3.1369E-22	 	9469.488	28.7838	 
245.0	1.0	0.0	7.71379	7.09457	-9.74805	16.17018	18.64523	0.90554	1.10432	187.11498	160.67923	71.64147	0.30591	 	1.46363E22	 	1.72787E-22	 	9326.029	28.6918	 
240.0	1.0	0.0	7.71572	7.09279	-9.77061	16.15445	18.58172	0.89986	1.11128	187.48183	160.82272	71.79331	0.30571	 	2.6620599999999997E22	 	9.40836E-23	 	9183.028	28.6002	 
235.0	1.0	0.0	7.71765	7.09102	-9.79314	16.13872	18.51821	0.89415	1.11838	187.84668	160.9642	71.94443	0.3055	 	4.89913E22	 	5.06244E-23	 	9040.481	28.5094	 
230.0	1.0	0.0	7.71957	7.08926	-9.81562	16.123	18.4547	0.8884	1.12562	188.20954	161.10366	72.09483	0.30529	 	9.12614E22	 	2.6909E-23	 	8898.388	28.4186	 
225.0	1.0	0.0	7.72149	7.08749	-9.83806	16.10729	18.39117	0.88261	1.133	188.57039	161.24112	72.24452	0.30508	 	1.7214E23	 	1.41242E-23	 	8756.744	28.3288	 
220.0	1.0	0.0	7.72341	7.08573	-9.86045	16.09158	18.32764	0.87678	1.14054	188.92925	161.37659	72.39348	0.30488	 	3.2890199999999994E23	 	7.31811E-24	 	8615.548	28.2392	 
215.0	1.0	0.0	7.72533	7.08397	-9.88281	16.07588	18.2641	0.87091	1.14823	189.28611	161.51006	72.54173	0.30467	 	6.36817E23	 	3.74133E-24	 	8474.797	28.1502	 
210.0	1.0	0.0	7.72724	7.08222	-9.90512	16.06019	18.20056	0.865	1.15607	189.64097	161.64155	72.68926	0.30446	 	1.24998E24	 	1.88654E-24	 	8334.489	28.0616	 
205.0	1.0	0.0	7.72915	7.08047	-9.92739	16.0445	18.13701	0.85905	1.16408	189.99385	161.77107	72.83608	0.30426	 	2.48839E24	 	9.37847E-25	 	8194.623	27.9732	 
200.0	1.0	0.0	7.73106	7.07872	-9.94961	16.02883	18.07345	0.85305	1.17226	190.34474	161.89863	72.98218	0.30405	 	5.02639E24	 	4.5944E-25	 	8055.196	27.8854	 
195.0	1.0	0.0	7.73296	7.07698	-9.9718	16.01316	18.00988	0.84702	1.18061	190.69365	162.02423	73.12756	0.30384	 	1.03067E25	 	2.21694E-25	 	7916.207	27.7978	 
190.0	1.0	0.0	7.73486	7.07524	-9.99394	15.99749	17.9463	0.84094	1.18915	191.04058	162.1479	73.27224	0.30364	 	2.1464200000000002E25	 	1.05316E-25	 	7777.655	27.7104	 
185.0	1.0	0.0	7.73676	7.0735	-10.01604	15.98184	17.88271	0.83482	1.19787	191.38554	162.26964	73.41621	0.30343	 	4.5421900000000005E25	 	4.92299E-26	 	7639.537	27.6236	 
180.0	1.0	0.0	7.73866	7.07177	-10.0381	15.96619	17.81912	0.82865	1.20678	191.72855	162.38946	73.55947	0.30322	 	9.772440000000001E25	 	2.26321E-26	 	7501.854	27.5366	 
175.0	1.0	0.0	7.74055	7.07004	-10.06011	15.95055	17.75551	0.82245	1.21588	192.06961	162.50739	73.70202	0.30301	 	2.1387800000000003E26	 	1.02269E-26	 	7364.604	27.45	 
170.0	1.0	0.0	7.74245	7.06831	-10.08208	15.93491	17.6919	0.8162	1.2252	192.40872	162.62342	73.84388	0.30281	 	4.7643800000000006E26	 	4.53974E-27	 	7227.786	27.3636	 
165.0	1.0	0.0	7.74434	7.06659	-10.10401	15.91929	17.62828	0.8099	1.23472	192.74591	162.73759	73.98504	0.3026	 	1.0809E27	 	1.97844E-27	 	7091.399	27.2774	 
160.0	1.0	0.0	7.74622	7.06486	-10.1259	15.90367	17.56465	0.80356	1.24447	193.08119	162.84991	74.12552	0.30239	 	2.49909E27	 	8.45947E-28	 	6955.444	27.191	 
155.0	1.0	0.0	7.7481	7.06315	-10.14775	15.88806	17.50101	0.79717	1.25444	193.41457	162.96039	74.26531	0.30219	 	5.89223E27	 	3.54653E-28	 	6819.92	27.1048	 
150.0	1.0	0.0	7.74999	7.06143	-10.16955	15.87245	17.43736	0.79074	1.26465	193.74606	163.06906	74.40442	0.30198	 	1.41769E28	 	1.4568E-28	 	6684.828	27.0184	 
145.0	1.0	0.0	7.75186	7.05972	-10.19132	15.85685	17.3737	0.78426	1.27509	194.07569	163.17593	74.54286	0.30177	 	3.4833900000000003E28	 	5.85891E-29	 	6550.166	26.9324	 
140.0	1.0	0.0	7.75374	7.05802	-10.21304	15.84126	17.31003	0.77773	1.2858	194.40348	163.28104	74.68063	0.30157	 	8.747290000000001E28	 	2.30526E-29	 	6415.936	26.846	 
135.0	1.0	0.0	7.75561	7.05631	-10.23471	15.82568	17.24635	0.77115	1.29676	194.72945	163.3844	74.81775	0.30136	 	2.24669E29	 	8.86673E-30	 	6282.139	26.7594	 
130.0	1.0	0.0	7.75748	7.05461	-10.25635	15.8101	17.18266	0.76453	1.30799	195.05362	163.48604	74.95422	0.30115	 	5.90711E29	 	3.33103E-30	 	6148.775	26.6728	 
125.0	1.0	0.0	7.75935	7.05291	-10.27795	15.79454	17.11896	0.75786	1.31951	195.37602	163.58598	75.09006	0.30094	 	1.5913E30	 	1.22119E-30	 	6015.846	26.5858	 
120.0	1.0	0.0	7.76121	7.05122	-10.2995	15.77897	17.05525	0.75113	1.33132	195.69667	163.68426	75.22527	0.30074	 	4.39618E30	 	4.36485E-31	 	5883.353	26.4986	 
115.0	1.0	0.0	7.76307	7.04953	-10.32101	15.76342	16.99153	0.74436	1.34343	196.01562	163.78091	75.35986	0.30053	 	1.2467199999999999E31	 	1.51955E-31	 	5751.298	26.411	 
110.0	1.0	0.0	7.76493	7.04784	-10.34248	15.74787	16.9278	0.73754	1.35586	196.33288	163.87596	75.49385	0.30032	 	3.63313E31	 	5.14724E-32	 	5619.682	26.3232	 
105.0	1.0	0.0	7.76679	7.04616	-10.3639	15.73233	16.86405	0.73067	1.36861	196.64851	163.96944	75.62725	0.30012	 	1.08912E32	 	1.69463E-32	 	5488.509	26.2346	 
100.0	1.0	0.0	7.76864	7.04447	-10.38529	15.7168	16.8003	0.72374	1.38171	196.96253	164.0614	75.76008	0.29991	 	3.36238E32	 	5.41655E-33	 	5357.781	26.1456	 
95.0	1.0	0.0	7.77049	7.0428	-10.40663	15.70128	16.73653	0.71677	1.39516	197.27499	164.15187	75.89235	0.2997	 	1.07033E33	 	1.67878E-33	 	5227.5	26.0562	 
90.0	1.0	0.0	7.77234	7.04112	-10.42793	15.68576	16.67275	0.70974	1.40898	197.58594	164.24089	76.02408	0.2995	 	3.51751E33	 	5.03891E-34	 	5097.672	25.9656	 
85.0	1.0	0.0	7.77419	7.03945	-10.4492	15.67025	16.60896	0.70265	1.42318	197.89543	164.32852	76.15529	0.29929	 	1.19504E34	 	1.46275E-34	 	4968.298	25.8748	 
80.0	1.0	0.0	7.77603	7.03778	-10.47041	15.65474	16.54516	0.69551	1.43779	198.2035	164.4148	76.28599	0.29908	 	4.20309E34	 	4.10089E-35	 	4839.384	25.7828	 
75.0	1.0	0.0	7.77787	7.03612	-10.49159	15.63925	16.48135	0.68832	1.45281	198.51022	164.49978	76.41622	0.29887	 	1.5326499999999998E35	 	1.10869E-35	 	4710.935	25.6898	 
70.0	1.0	0.0	7.77971	7.03446	-10.51273	15.62376	16.41752	0.68107	1.46827	198.81565	164.58352	76.54599	0.29867	 	5.80353E35	 	2.88588E-36	 	4582.955	25.596	 
65.0	1.0	0.0	7.78154	7.0328	-10.53382	15.60828	16.35369	0.67377	1.48419	199.11986	164.66607	76.67534	0.29846	 	2.28582E36	 	7.22029E-37	 	4455.45	25.501	 
60.0	1.0	0.0	7.78337	7.03114	-10.55487	15.5928	16.28984	0.66641	1.50058	199.42292	164.74751	76.80428	0.29825	 	9.381269999999999E36	 	1.73327E-37	 	4328.427	25.4046	 
55.0	1.0	0.0	7.7852	7.02949	-10.57588	15.57733	16.22597	0.65899	1.51747	199.7249	164.8279	76.93285	0.29805	 	4.01947E37	 	3.98465E-38	 	4201.892	25.307	 
50.0	1.0	0.0	7.78703	7.02784	-10.59685	15.56187	16.1621	0.65151	1.53488	200.0259	164.90731	77.06107	0.29784	 	1.8014799999999998E38	 	8.75508E-39	 	4075.853	25.2078	 
45.0	1.0	0.0	7.78885	7.0262	-10.61778	15.54642	16.09821	0.64398	1.55284	200.326	164.98581	77.189	0.29763	 	8.46387E38	 	1.83463E-39	 	3950.318	25.107	 
40.0	1.0	0.0	7.79067	7.02456	-10.63867	15.53098	16.0343	0.63639	1.57138	200.6253	165.06351	77.31665	0.29743	 	4.1779700000000006E39	 	3.65826E-40	 	3825.296	25.0044	 
35.0	1.0	0.0	7.79249	7.02292	-10.65951	15.51554	15.97039	0.62873	1.59051	200.92391	165.14047	77.44408	0.29722	 	2.17202E40	 	6.92446E-41	 	3700.797	24.8998	 
30.0	1.0	0.0	7.7943	7.02128	-10.68031	15.5001	15.90646	0.62101	1.61027	201.22193	165.2168	77.57133	0.29701	 	1.1922700000000001E41	 	1.24099E-41	 	3576.83	24.7934	 
25.0	1.0	0.0	7.79611	7.01965	-10.70108	 	15.84251	0.61324	1.63069	201.5195	165.2926	77.69844	0.29681	 	6.92936E41	 	2.10004E-42	 	3453.409	 	 
