T (C)	Fraction solid (wt)-TOTAL	Fraction liquid (wt)-LIQUID	Density (g/(cm)^3)-TOTAL	Molar volume (cm^3)-TOTAL	Volume change (%)-  	Average expansion coeff. (10e-6 1/K)-  	Thermal conductivity (W/(m*K))-TOTAL	Electrical resistivity (10e-6 Ohm*m)-TOTAL	Electrical conductivity (10e6 1/(Ohm*m))-TOTAL	Young's modulus (GPa)-TOTAL	Bulk modulus (GPa)-TOTAL	Shear modulus(GPa)-TOTAL	Poisson's ratio-TOTAL	Liquid viscosity (mPa s)-  	Total viscosity (mPa s)-  	Liquid diffusivity (10e-9 (m^2)/s)-  	Total diffusivity (10e-9 (m^2)/s)-  	Surface Tension (mN/m)-  	Enthalpy (J/mole)-TOTAL	Specific heat (J/(mole K))-TOTAL	Latent heat (J/mole)-TOTAL
1500.0	0.0	1.0	6.96987	7.87994	0.0	28.81481	32.11649	1.79902	0.55586	0.0	105.65288	0.0	0.49974	6.64643	6.64643	1.3021	1.3021	1648.76754	64655.721	 	0.0
1495.0	0.0	1.0	6.97376	7.87554	-0.055808	28.77014	32.04165	1.79813	0.55613	0.0	105.84044	0.0	0.49974	6.70457	6.70457	1.28717	1.28717	1649.49837	64435.239	44.0964	0.0
1490.0	0.0	1.0	6.97764	7.87115	-0.11146	28.72556	31.96679	1.79725	0.55641	0.0	106.028	0.0	0.49974	6.76354	6.76354	1.27234	1.27234	1650.21434	64215.247	43.9984	0.0
1485.0	0.0	1.0	6.98152	7.86678	-0.16696	28.68107	31.89193	1.79636	0.55668	0.0	106.21557	0.0	0.49974	6.82338	6.82338	1.2576	1.2576	1650.91529	63995.741	43.9012	0.0
1480.0	0.0	1.0	6.98539	7.86242	-0.2223	28.63668	31.81705	1.79546	0.55696	0.0	106.40313	0.0	0.49974	6.88409	6.88409	1.24297	1.24297	1651.60105	63776.719	43.8044	0.0
1475.0	0.0	1.0	6.98926	7.85807	-0.27749	28.59238	31.74217	1.79457	0.55724	0.0	106.59069	0.0	0.49974	6.94569	6.94569	1.22843	1.22843	1652.27145	63558.177	43.7084	0.0
1470.0	0.0	1.0	6.99312	7.85373	-0.33252	28.54818	31.66729	1.79367	0.55752	0.0	106.77825	0.0	0.49974	7.00821	7.00821	1.21399	1.21399	1652.92632	63340.113	43.6128	0.0
1465.0	0.0	1.0	6.99697	7.84941	-0.3874	28.50408	31.59239	1.79276	0.5578	0.0	106.96581	0.0	0.49974	7.07165	7.07165	1.19965	1.19965	1653.5655	63122.522	43.5182	0.0
1460.0	0.0	1.0	7.00082	7.8451	-0.44212	28.46007	31.51749	1.79185	0.55808	0.0	107.15338	0.0	0.49974	7.13603	7.13603	1.1854	1.1854	1654.18881	62905.403	43.4238	0.0
1455.0	0.0	1.0	7.00466	7.8408	-0.49669	28.41617	31.44258	1.79094	0.55837	0.0	107.34094	0.0	0.49974	7.20138	7.20138	1.17126	1.17126	1654.79607	62688.752	43.3302	0.0
1450.0	0.0	1.0	7.00849	7.83651	-0.5511	28.37237	31.36766	1.79002	0.55865	0.0	107.5285	0.0	0.49974	7.26771	7.26771	1.15721	1.15721	1655.38712	62472.596	43.2312	0.0
1445.0	0.0	1.0	7.01232	7.83223	-0.60536	28.32867	31.29273	1.7891	0.55894	0.0	107.71606	0.0	0.49974	7.33504	7.33504	1.14326	1.14326	1655.96178	62256.981	43.123	0.0
1440.0	0.0	1.0	7.01613	7.82797	-0.65946	28.28507	31.2178	1.78818	0.55923	0.0	107.90362	0.0	0.49974	7.4034	7.4034	1.12941	1.12941	1656.51988	62041.899	43.0164	0.0
1435.0	0.0	1.0	7.01995	7.82372	-0.71341	28.24158	31.14285	1.78725	0.55952	0.0	108.09118	0.0	0.49974	7.4728	7.4728	1.11565	1.11565	1657.06123	61827.346	42.9106	0.0
1430.0	0.0	1.0	7.02375	7.81948	-0.7672	28.19819	31.0679	1.78632	0.55981	0.0	108.27875	0.0	0.49974	7.54326	7.54326	1.102	1.102	1657.58567	61613.319	42.8054	0.0
1425.0	0.0	1.0	7.02755	7.81525	-0.82083	28.15491	30.99294	1.78538	0.5601	0.0	108.46631	0.0	0.49974	7.61481	7.61481	1.08844	1.08844	1658.093	61399.815	42.7008	0.0
1420.0	0.0	1.0	7.03134	7.81104	-0.87432	28.11173	30.91798	1.78444	0.5604	0.0	108.65387	0.0	0.49974	7.68747	7.68747	1.07498	1.07498	1658.58306	61186.829	42.5972	0.0
1415.0	0.0	1.0	7.03513	7.80684	-0.92764	28.06867	30.843	1.7835	0.5607	0.0	108.84143	0.0	0.49974	7.76125	7.76125	1.06161	1.06161	1659.05566	60974.359	42.494	0.0
1410.0	0.0	1.0	7.0389	7.80265	-0.98081	28.02571	30.76802	1.78255	0.561	0.0	109.02899	0.0	0.49974	7.83619	7.83619	1.04835	1.04835	1659.51063	60762.4	42.3918	0.0
1405.0	0.0	1.0	7.04268	7.79847	-1.03383	27.98287	30.69303	1.78159	0.5613	0.0	109.21656	0.0	0.49974	7.9123	7.9123	1.03518	1.03518	1659.94777	60550.949	42.2902	0.0
1404.69	0.0	1.0	7.04291	7.79821	-1.03708	27.98024	30.68842	1.78154	0.56131	0.0	109.22808	0.0	0.49974	7.91702	7.91702	1.03437	1.03437	1659.97405	60537.971	42.2433	0.0030
1400.0	0.11515	0.88485	7.06269	7.77641	-1.31383	27.31929	30.86914	1.76615	0.5662	0.0133551	108.29129	0.00449944	0.48409	7.97991	11.44157	1.02335	0.71373	1654.90047	59062.046	314.51	1277.952
1395.0	0.21621	0.78379	7.08053	7.75675	-1.56326	26.73471	31.02159	1.75222	0.5707	0.16845	107.51791	0.0572868	0.4702	8.04829	39.11033	1.01162	0.20818	1649.73635	57737.039	265.001	2392.515
1390.0	0.29988	0.70012	7.09567	7.74024	-1.77279	26.25575	31.14169	1.74023	0.57464	0.63153	106.92995	0.21649	0.45859	8.1186	123.47508	0.99985	0.0657414	1644.7856	56610.68	225.272	3308.925
1385.0	0.37	0.63	7.10883	7.7259	-1.95477	25.84938	31.23537	1.7298	0.5781	1.48078	106.48558	0.51105	0.44876	8.19013	286.97126	0.98814	0.0282015	1640.03066	55638.826	194.371	4071.327
1380.98	0.41796	0.58204	7.11813	7.71584	-2.08242	25.57225	31.294	1.72237	0.5806	2.43201	106.2195	0.84328	0.44199	8.24861	481.26575	0.97876	0.0167753	1636.32025	54952.482	 	4589.465
1380.0	0.42979	0.57021	7.12043	7.71331	-2.11462	25.50138	31.31608	1.72014	0.58135	2.64886	106.07572	0.91957	0.44028	8.26164	540.45773	0.97664	0.0149292	1635.21799	54791.4	169.485	4709.791
1375.0	0.48536	0.51464	7.13137	7.7015	-2.26446	25.17868	31.41594	1.70948	0.58497	3.88978	105.45075	1.35796	0.43221	8.32993	908.08957	0.9657	0.00885839	1629.76935	54018.806	154.519	5273.912
1370.0	0.53253	0.46747	7.14108	7.69105	-2.39703	24.90184	31.4936	1.70009	0.5882	5.27343	104.98591	1.84992	0.42531	8.39948	1373.18182	0.9548	0.00584031	1624.53351	53335.063	136.749	5749.667
1365.0	0.57295	0.42705	7.14976	7.68167	-2.5161	24.6608	31.55114	1.69183	0.59108	6.75735	104.6466	2.38044	0.41935	8.47055	1930.95213	0.94391	0.00414065	1619.48889	52722.406	122.531	6154.821
1360.0	0.60792	0.39208	7.15764	7.67322	-2.62335	24.45122	31.59314	1.68442	0.59368	8.30865	104.40943	2.93769	0.41415	8.54284	2577.09449	0.93306	0.00309302	1614.61348	52167.355	111.01	6502.846
1355.0	0.63841	0.36159	7.16485	7.66549	-2.72146	24.26589	31.62197	1.67773	0.59604	9.90313	104.25387	3.51281	0.40958	8.61667	3307.98146	0.92224	0.00240225	1609.89143	51659.532	101.565	6804.12
1350.0	0.66518	0.33482	7.17147	7.65844	-2.81092	24.1037	31.64008	1.67162	0.59822	11.5248	104.16572	4.09982	0.40553	8.69251	4122.30813	0.91138	0.00192179	1605.30375	51190.841	93.7382	7066.737
1345.0	0.68885	0.31115	7.17767	7.6518	-2.89511	23.95531	31.6488	1.66602	0.60023	13.16214	104.13207	4.69435	0.40191	8.76908	5018.9274	0.90064	0.0015736	1600.84452	50754.884	87.1914	7297.09
1340.0	0.70991	0.29009	7.18345	7.64565	-2.97314	23.82339	31.64987	1.66081	0.60211	14.81006	104.14474	5.29434	0.39867	8.84768	5999.66148	0.88988	0.0013123	1596.49464	50346.553	81.6662	7500.285
1335.0	0.72873	0.27127	7.1889	7.63985	-3.04676	23.70309	31.64412	1.65597	0.60388	16.46404	104.19561	5.89796	0.39574	8.92782	7065.99405	0.87916	0.00111081	1592.24735	49961.726	76.9654	7680.441
1330.0	0.74565	0.25435	7.19408	7.63434	-3.11668	23.59253	31.63268	1.65141	0.60554	18.12366	104.2789	6.50487	0.39308	9.00922	8221.55704	0.86851	9.51715E-4	1588.09346	49597.046	72.936	7840.913
1325.0	0.76092	0.23908	7.19901	7.62911	-3.18306	23.49139	31.61618	1.64712	0.60712	19.78709	104.3899	7.11427	0.39066	9.09223	9470.11229	0.85789	8.23662E-4	1584.02311	49249.755	69.4582	7984.456
1324.93	0.76114	0.23886	7.19908	7.62903	-3.18411	23.48966	31.61595	1.64706	0.60714	19.8126	104.3914	7.12363	0.39063	9.0935	9489.66787	0.85774	8.21927E-4	1583.96379	49244.739	 	7986.493
1320.0	0.79698	0.20302	7.20726	7.62036	-3.2941	23.25983	31.71268	1.63697	0.61088	23.76196	104.22567	8.57853	0.38497	9.19189	12000.51163	0.84594	6.47953E-4	1575.52787	48646.961	120.559	8383.958
1315.0	0.82558	0.17442	7.21435	7.61285	-3.38947	23.07213	31.77691	1.62854	0.61405	28.31769	104.18049	10.25708	0.3804	9.29407	14599.30476	0.83401	5.30941E-4	1567.5734	48130.165	103.359	8697.918
1310.0	0.84831	0.15169	7.22056	7.60626	-3.4731	22.91728	31.81514	1.62146	0.61673	33.25631	104.22517	12.07812	0.37672	9.39774	17237.1674	0.82221	4.48273E-4	1560.19402	47681.035	89.826	8944.663
1309.11	0.85179	0.14821	7.22158	7.60518	-3.48676	22.89327	31.8194	1.62033	0.61716	34.13954	104.24118	12.40403	0.37615	9.4166	17706.88394	0.8201	4.36135E-4	1558.92263	47607.436	 	8982.108
1305.0	0.87065	0.12935	7.22768	7.59872	-3.56878	22.72586	31.85183	1.61448	0.6194	39.60106	104.27687	14.42045	0.37309	9.52806	20263.19219	0.80841	3.80126E-4	1552.52757	47230.248	90.1574	9193.513
1300.0	0.889	0.111	7.23412	7.59189	-3.65541	22.55963	31.8714	1.60837	0.62175	46.03319	104.38974	16.79968	0.37006	9.66679	23376.44103	0.79428	3.28457E-4	1545.33642	46825.732	80.9032	9396.539
1295.0	0.90344	0.0965644	7.23974	7.58593	-3.73101	22.42474	31.87215	1.60322	0.62374	51.81433	104.55843	18.94304	0.36764	9.80775	26499.20988	0.78038	2.88829E-4	1538.74366	46467.798	71.5868	9553.424
1290.0	0.91496	0.0850438	7.24476	7.58062	-3.79841	22.31312	31.85956	1.59874	0.62549	56.82626	104.76699	20.80554	0.36565	9.95117	29666.2813	0.76668	2.57172E-4	1532.68335	46144.28	64.7036	9676.337
1285.0	0.9243	0.0756981	7.24931	7.57579	-3.85977	22.21863	31.83686	1.59477	0.62705	61.105	105.00425	22.39916	0.364	10.09687	32911.3945	0.7532	2.31073E-4	1527.09348	45846.575	59.541	9773.875
1280.0	0.93199	0.0680088	7.25353	7.57133	-3.91632	22.13779	31.80653	1.59116	0.62847	64.75049	105.26292	23.75979	0.36261	10.2449	36267.85642	0.73993	2.09015E-4	1521.91101	45568.523	55.6104	9852.196
1275.0	0.9384	0.0615985	7.25748	7.56714	-3.96953	22.06637	31.7702	1.58786	0.62978	67.8741	105.53717	24.92794	0.36141	10.39425	39766.84008	0.72695	1.90011E-4	1517.08893	45305.652	52.5742	9915.77
1270.0	0.94381	0.0561864	7.26122	7.56319	-4.01969	22.00357	31.72925	1.58477	0.63101	70.57415	105.82359	25.93951	0.36036	10.54636	43439.25498	0.71415	1.73385E-4	1512.57225	45054.681	50.1942	9967.875
1265.0	0.94843	0.0515654	7.2648	7.5594	-4.06776	21.9466	31.68459	1.58186	0.63217	72.93462	106.11897	26.82534	0.35944	10.70035	47314.69442	0.7016	1.58668E-4	1508.32673	44813.164	48.3034	10010.955
1260.0	0.95242	0.0475771	7.26825	7.55575	-4.11411	21.8944	31.63701	1.57909	0.63328	75.02262	106.42114	27.61013	0.35861	10.85632	51422.57158	0.68927	1.45518E-4	1504.31675	44579.261	46.7806	10046.847
1255.0	0.9559	0.0441036	7.27159	7.55222	-4.15888	21.84661	31.58701	1.57643	0.63434	76.88851	106.72904	28.31241	0.35786	11.01482	55793.73478	0.67713	1.3368E-4	1500.50881	44351.571	45.538	10076.95
1250.0	0.95895	0.041051	7.27485	7.54878	-4.20246	21.80206	31.53512	1.57386	0.63538	78.57492	107.04098	28.94798	0.35717	11.17592	60458.30476	0.66519	1.22963E-4	1496.88081	44129.011	44.512	10102.344
1245.0	0.96165	0.0383463	7.27803	7.54543	-4.24506	21.76018	31.48159	1.57136	0.63639	80.11263	107.35623	29.52822	0.35654	11.33929	65448.265	0.65345	1.13215E-4	1493.4119	43910.737	43.6548	10123.872
1240.0	0.96407	0.035934	7.28115	7.54213	-4.28685	21.72047	31.42676	1.56892	0.63738	81.52847	107.67407	30.06306	0.35596	11.50502	70798.32736	0.64192	1.04315E-4	1490.08458	43696.085	42.9304	10142.203
1235.0	0.96623	0.0337664	7.28422	7.5389	-4.32787	21.68281	31.37076	1.56652	0.63836	82.84065	107.99405	30.55926	0.35541	11.67373	76543.94471	0.63055	9.61657E-5	1486.88216	43484.516	42.3138	10157.877
1230.0	0.96819	0.0318097	7.28725	7.53572	-4.36822	21.64692	31.31384	1.56417	0.63932	84.06622	108.31559	31.02317	0.35489	11.84556	82723.53325	0.61935	8.8687E-5	1483.79138	43275.605	41.7822	10171.317
1225.0	0.96997	0.0300309	7.29023	7.53258	-4.40807	21.61231	31.25614	1.56184	0.64027	85.2185	108.63833	31.45973	0.35441	12.02006	89378.83528	0.60832	8.18102E-5	1480.80401	43069.007	41.3196	10182.866
1220.0	0.97159	0.0284081	7.29319	7.52948	-4.44747	21.57881	31.19772	1.55955	0.64121	86.30793	108.96193	31.87285	0.35394	12.19784	96554.51446	0.59746	7.54775E-5	1477.91061	42864.438	40.9138	10192.806
1215.0	0.97308	0.0269199	7.29612	7.52641	-4.48646	21.54634	31.1387	1.55727	0.64215	87.34321	109.28622	32.26575	0.3535	12.37859	104299.1984	0.58676	6.9639E-5	1475.10271	42661.663	40.555	10201.368
1210.0	0.97445	0.0255485	7.29902	7.52336	-4.52507	21.5148	31.07916	1.55501	0.64308	88.33093	109.61102	32.6409	0.35307	12.56289	112666.0263	0.57621	6.42508E-5	1472.37346	42460.489	40.2348	10208.745
1205.0	0.97572	0.0242816	7.3019	7.52035	-4.56332	21.48414	31.01915	1.55277	0.64401	89.27746	109.93615	33.00067	0.35266	12.75092	121712.7552	0.5658	5.92747E-5	1469.71614	42260.751	39.9476	10215.098
1200.0	0.97689	0.0231059	7.30476	7.51736	-4.60131	21.45405	30.95874	1.55053	0.64494	90.18786	110.26142	33.34695	0.35227	12.94224	131501.3594	0.55555	5.46768E-5	1467.12858	42062.312	39.6878	10220.559
1199.82	0.97694	0.0230644	7.30487	7.51724	-4.60271	21.45293	30.95654	1.55045	0.64497	90.22084	110.27334	33.3595	0.35225	12.9492	131876.2309	0.55518	5.45146E-5	1467.03451	42055.034	 	10220.742
1195.0	0.9806	0.0193982	7.30848	7.51364	-4.64844	21.39434	30.90699	1.54786	0.64605	92.15888	110.57023	34.09566	0.35148	13.09172	143611.9292	0.54734	4.98961E-5	1463.05971	41831.386	46.1852	10258.919
1190.0	0.98371	0.016294	7.31211	7.51003	-4.69421	21.33849	30.85261	1.54531	0.64712	93.88382	110.88356	34.75178	0.35078	13.24354	156533.5236	0.53923	4.56214E-5	1459.28165	41607.983	44.6806	10290.162
1185.0	0.98626	0.013744	7.31564	7.50653	-4.73868	21.2864	30.79594	1.54286	0.64815	95.38435	111.20059	35.32327	0.35016	13.39834	170320.0806	0.53118	4.17853E-5	1455.81637	41391.598	43.277	10314.791
1180.0	0.98837	0.0116274	7.3191	7.50311	-4.78205	21.23742	30.73754	1.54049	0.64914	96.7108	111.52028	35.82901	0.34962	13.55708	185091.1217	0.52316	3.83188E-5	1452.62482	41180.751	42.1694	10334.285
1175.0	0.99015	0.00985289	7.32249	7.49976	-4.82455	21.19086	30.67774	1.53818	0.65012	97.90079	111.84183	36.28317	0.34912	13.71985	200969.901	0.51517	3.51697E-5	1449.67526	40974.334	41.2834	10349.748
1170.0	0.99165	0.00835122	7.32583	7.49647	-4.86632	21.14628	30.61689	1.53592	0.65108	98.98257	112.16463	36.69642	0.34867	13.88692	218087.6388	0.50722	3.22974E-5	1446.94045	40771.509	40.565	10362.018
1165.0	0.99293	0.00706848	7.32913	7.49323	-4.90747	21.10339	30.55515	1.53369	0.65202	99.97649	112.48823	37.07643	0.34825	14.05838	236578.3444	0.49929	2.96699E-5	1444.39572	40571.63	39.9758	10371.736
1160.0	0.99403	0.00596527	7.33238	7.49003	-4.94809	21.06186	30.49273	1.53149	0.65296	100.89971	112.81228	37.42968	0.34786	14.23433	256592.6467	0.49141	2.72605E-5	1442.02055	40374.2	39.486	10379.401
1155.0	0.99499	0.00500843	7.33559	7.48687	-4.98822	21.02158	30.42979	1.5293	0.65389	101.76455	113.13652	37.76084	0.34749	14.41417	278285.7227	0.48358	2.50478E-5	1439.79685	40178.825	39.075	10385.401
1150.0	0.99583	0.00417201	7.33878	7.48374	-5.02794	20.98229	30.36526	1.52718	0.6548	102.58141	113.46071	38.07385	0.34714	14.59943	301835.9874	0.47577	2.30126E-5	1437.7073	39985.197	38.7256	10390.045
1145.0	0.99656	0.00343632	7.34193	7.48064	-5.06729	20.94391	30.30148	1.52502	0.65573	103.35801	113.78471	38.37163	0.3468	14.7887	327427.3588	0.46804	2.11395E-5	1435.73881	39793.068	38.4258	10393.577
1140.0	0.99722	0.00278475	7.34506	7.47756	-5.10629	20.90637	30.23745	1.52286	0.65666	103.62124	114.10836	38.47855	0.34648	14.98275	355267.5997	0.46034	1.94142E-5	1433.87995	39602.24	38.1656	10396.194
1135.0	0.9978	0.00220484	7.34817	7.47451	-5.14499	20.86953	30.17323	1.5207	0.65759	104.48969	114.43158	38.80999	0.34617	15.18162	385584.098	0.45271	1.78245E-5	1432.11772	39412.552	37.9376	10398.056
1130.0	0.99832	0.00168413	7.35125	7.47149	-5.18342	20.83325	30.10869	1.51855	0.65852	105.31516	114.75426	39.12535	0.34587	15.3852	418629.3129	0.44513	1.63592E-5	1430.44224	39223.873	37.7358	10399.29
1125.0	0.99883	0.00116652	7.35438	7.46843	-5.22217	20.79554	30.04374	1.51641	0.65945	106.11436	115.07622	39.43109	0.34557	15.57746	454765.7769	0.43807	1.50056E-5	1428.65871	39035.66	37.6426	10400.44
1120.0	0.99926	7.40342E-4	7.35744	7.46544	-5.2602	20.75998	29.97869	1.51427	0.66038	106.82045	115.39762	39.70191	0.34528	15.78245	494130.1065	0.43083	1.37608E-5	1427.02129	38848.853	37.3614	10400.561
1115.0	0.99965	3.53651E-4	7.36048	7.46246	-5.29797	20.72496	29.91369	1.51211	0.66133	107.47842	115.71837	39.95479	0.345	15.99423	537131.9095	0.4236	1.26137E-5	1425.46206	38662.762	37.2182	10400.343
1110.0	1.0	0.0	7.36349	7.4595	-5.33555	20.69032	29.84854	1.50995	0.66227	108.10692	116.03834	40.19666	0.34473	 	584151.8317	 	1.15566E-5	 	38477.331	37.0862	10399.839
1105.0	1.0	0.0	7.36601	7.45695	-5.36788	20.67357	29.7827	1.50782	0.66321	108.5519	116.35705	40.36848	0.34451	 	634770.8251	 	1.05966E-5	 	38275.605	40.3452	 
1100.0	1.0	0.0	7.36853	7.45441	-5.40017	20.65684	29.71685	1.50568	0.66415	108.99676	116.67476	40.54031	0.3443	 	690198.5796	 	9.71025E-6	 	38094.694	36.1822	 
1095.0	1.0	0.0	7.37104	7.45186	-5.43241	20.64012	29.651	1.50353	0.6651	109.4415	116.99148	40.71214	0.34409	 	750930.8836	 	8.89243E-6	 	37914.045	36.1298	 
1090.0	1.0	0.0	7.37355	7.44933	-5.4646	20.62343	29.58513	1.50137	0.66606	109.8861	117.30719	40.88399	0.34388	 	817518.5718	 	8.13828E-6	 	37733.659	36.0772	 
1085.0	1.0	0.0	7.37606	7.4468	-5.49675	20.60674	29.51926	1.4992	0.66702	110.33056	117.62191	41.05583	0.34366	 	890574.0665	 	7.44328E-6	 	37553.534	36.025	 
1080.0	1.0	0.0	7.37856	7.44427	-5.52884	20.59008	29.45337	1.49702	0.66799	110.77488	117.93562	41.22768	0.34345	 	970778.7463	 	6.80319E-6	 	37373.67	35.9728	 
1075.0	1.0	0.0	7.38106	7.44174	-5.56088	20.57343	29.38748	1.49484	0.66897	111.21906	118.24832	41.39952	0.34324	 	1058891.253	 	6.21403E-6	 	37194.069	35.9202	 
1070.0	1.0	0.0	7.38357	7.43922	-5.59288	20.5568	29.32158	1.49264	0.66995	111.66307	118.56001	41.57136	0.34303	 	1155756.866	 	5.67211E-6	 	37014.731	35.8676	 
1065.0	1.0	0.0	7.38607	7.4367	-5.62482	20.54019	29.25567	1.49043	0.67095	112.10693	118.87069	41.7432	0.34282	 	1262318.081	 	5.17396E-6	 	36835.656	35.815	 
1060.0	1.0	0.0	7.38856	7.43419	-5.65672	20.52359	29.18975	1.48822	0.67194	112.55062	119.18036	41.91503	0.3426	 	1379626.577	 	4.71633E-6	 	36656.844	35.7624	 
1055.0	1.0	0.0	7.39106	7.43168	-5.68857	20.50701	29.12381	1.48599	0.67295	112.99413	119.48901	42.08684	0.34239	 	1508856.731	 	4.29621E-6	 	36478.294	35.71	 
1050.0	1.0	0.0	7.39355	7.42917	-5.72037	20.49044	29.05787	1.48376	0.67396	113.43747	119.79665	42.25865	0.34218	 	1651320.935	 	3.91079E-6	 	36300.005	35.6578	 
1045.0	1.0	0.0	7.39604	7.42667	-5.75212	20.47389	28.99192	1.48151	0.67499	113.88062	120.10327	42.43044	0.34197	 	1808486.928	 	3.55743E-6	 	36121.977	35.6056	 
1040.0	1.0	0.0	7.39853	7.42417	-5.78382	20.45736	28.92596	1.47926	0.67601	114.32358	120.40887	42.60221	0.34176	 	1981997.459	 	3.23369E-6	 	35944.209	35.5536	 
1035.0	1.0	0.0	7.40102	7.42168	-5.81547	20.44085	28.86	1.47699	0.67705	114.76635	120.71344	42.77397	0.34154	 	2173692.585	 	2.93729E-6	 	35766.699	35.502	 
1030.0	1.0	0.0	7.4035	7.41919	-5.84708	20.42435	28.79402	1.47472	0.67809	115.20892	121.01699	42.9457	0.34133	 	2385635.001	 	2.6661E-6	 	35589.447	35.4504	 
1025.0	1.0	0.0	7.40598	7.4167	-5.87864	20.40787	28.72803	1.47244	0.67915	115.65128	121.31951	43.11742	0.34112	 	2620138.822	 	2.41817E-6	 	35412.452	35.399	 
1020.0	1.0	0.0	7.40846	7.41422	-5.91015	20.3914	28.66203	1.47014	0.68021	116.09343	121.62101	43.2891	0.34091	 	2879802.325	 	2.19166E-6	 	35235.712	35.348	 
1015.0	1.0	0.0	7.41094	7.41174	-5.94161	20.37495	28.59602	1.46784	0.68127	116.53536	121.92147	43.46076	0.3407	 	3167545.221	 	1.98486E-6	 	35059.228	35.2968	 
1010.0	1.0	0.0	7.41342	7.40927	-5.97302	20.35852	28.53001	1.46553	0.68235	116.97706	122.22091	43.63239	0.34048	 	3486651.132	 	1.7962E-6	 	34882.997	35.2462	 
1005.0	1.0	0.0	7.41589	7.40679	-6.00438	20.3421	28.46398	1.4632	0.68343	117.41854	122.51931	43.80399	0.34027	 	3840816.029	 	1.62422E-6	 	34707.019	35.1956	 
1000.0	1.0	0.0	7.41836	7.40433	-6.0357	20.32571	28.39794	1.46087	0.68453	117.85978	122.81667	43.97556	0.34006	 	4234203.522	 	1.46756E-6	 	34531.293	35.1452	 
995.0	1.0	0.0	7.42083	7.40186	-6.06697	20.30932	28.3319	1.45852	0.68563	118.30079	123.113	44.14709	0.33985	 	4671508.038	 	1.32495E-6	 	34355.818	35.095	 
990.0	1.0	0.0	7.4233	7.3994	-6.09819	20.29296	28.26584	1.45617	0.68674	118.74492	123.41181	44.31985	0.33964	 	5158027.059	 	1.19525E-6	 	34180.593	35.045	 
985.0	1.0	0.0	7.42576	7.39695	-6.12936	20.27661	28.19977	1.4538	0.68785	119.18545	123.70607	44.49131	0.33942	 	5699743.817	 	1.07737E-6	 	34005.617	34.9952	 
980.0	1.0	0.0	7.42823	7.39449	-6.16049	20.26028	28.1337	1.45142	0.68898	119.62571	123.9993	44.66273	0.33921	 	6303422.025	 	9.70316E-7	 	33830.888	34.9458	 
975.0	1.0	0.0	7.43069	7.39204	-6.19157	20.24396	28.06761	1.44904	0.69011	120.06572	124.29148	44.83411	0.339	 	6976714.524	 	8.73177E-7	 	33656.407	34.8962	 
970.0	1.0	0.0	7.43315	7.3896	-6.2226	20.22766	28.00152	1.44664	0.69126	120.50546	124.58262	45.00544	0.33879	 	7728287.985	 	7.85104E-7	 	33482.17	34.8474	 
965.0	1.0	0.0	7.4356	7.38716	-6.25358	20.21138	27.93541	1.44423	0.69241	120.94492	124.87271	45.17672	0.33858	 	8567966.194	 	7.05314E-7	 	33308.179	34.7982	 
960.0	1.0	0.0	7.43806	7.38472	-6.28452	20.19511	27.8693	1.44181	0.69357	121.38411	125.16175	45.34795	0.33836	 	9506894.838	 	6.33088E-7	 	33134.43	34.7498	 
955.0	1.0	0.0	7.44051	7.38229	-6.3154	20.17886	27.80317	1.43938	0.69474	121.82301	125.44975	45.51914	0.33815	 	1.055773122E7	 	5.67764E-7	 	32960.924	34.7012	 
950.0	1.0	0.0	7.44296	7.37986	-6.34624	20.16263	27.73703	1.43694	0.69593	122.26163	125.7367	45.69026	0.33794	 	1.173486286E7	 	5.08731E-7	 	32787.658	34.6532	 
945.0	1.0	0.0	7.44541	7.37743	-6.37704	20.14642	27.67089	1.43448	0.69712	122.69995	126.02259	45.86134	0.33773	 	1.305465973E7	 	4.5543E-7	 	32614.633	34.605	 
940.0	1.0	0.0	7.44785	7.37501	-6.40778	20.13022	27.60473	1.43202	0.69831	123.13797	126.30744	46.03235	0.33752	 	1.453576537E7	 	4.07346E-7	 	32441.846	34.5574	 
935.0	1.0	0.0	7.4503	7.37259	-6.43848	20.11403	27.53857	1.42954	0.69952	123.57568	126.59123	46.2033	0.3373	 	1.619943359E7	 	3.64005E-7	 	32269.296	34.51	 
930.0	1.0	0.0	7.45274	7.37017	-6.46913	20.09787	27.47239	1.42706	0.70074	124.01309	126.87396	46.3742	0.33709	 	1.806991793E7	 	3.24975E-7	 	32096.982	34.4628	 
925.0	1.0	0.0	7.45518	7.36776	-6.49974	20.08172	27.40621	1.42456	0.70197	124.45018	127.15564	46.54503	0.33688	 	2.01749228E7	 	2.89858E-7	 	31924.903	34.4158	 
920.0	1.0	0.0	7.45762	7.36535	-6.5303	20.06559	27.34001	1.42205	0.70321	124.88695	127.43626	46.71579	0.33667	 	2.254612674E7	 	2.58291E-7	 	31753.058	34.369	 
915.0	1.0	0.0	7.46005	7.36295	-6.56081	20.04947	27.27381	1.41953	0.70446	125.32339	127.71582	46.88649	0.33646	 	2.521978971E7	 	2.29941E-7	 	31581.444	34.3228	 
910.0	1.0	0.0	7.46248	7.36055	-6.59127	20.03337	27.20759	1.41699	0.70572	125.75951	127.99432	47.05711	0.33624	 	2.823745888E7	 	2.04504E-7	 	31410.061	34.2766	 
905.0	1.0	0.0	7.46492	7.35815	-6.62169	20.01729	27.14136	1.41445	0.70699	126.19529	128.27176	47.22767	0.33603	 	3.164678983E7	 	1.81701E-7	 	31238.907	34.2308	 
900.0	1.0	0.0	7.46734	7.35576	-6.65206	20.00122	27.07513	1.41189	0.70827	126.63072	128.54814	47.39815	0.33582	 	3.550250287E7	 	1.6128E-7	 	31067.982	34.185	 
895.0	1.0	0.0	7.46977	7.35337	-6.68238	19.98517	27.00888	1.40932	0.70956	127.06581	128.82345	47.56855	0.33561	 	3.986749831E7	 	1.4301E-7	 	30897.282	34.14	 
890.0	1.0	0.0	7.4722	7.35098	-6.71266	19.96914	26.94262	1.40674	0.71086	127.50055	129.0977	47.73888	0.3354	 	4.481415833E7	 	1.2668E-7	 	30726.807	34.095	 
885.0	1.0	0.0	7.47462	7.3486	-6.74289	19.95312	26.87635	1.40415	0.71218	127.93493	129.37089	47.90913	0.33518	 	5.042586848E7	 	1.12098E-7	 	30556.556	34.0502	 
880.0	1.0	0.0	7.47704	7.34622	-6.77308	19.93712	26.81008	1.40154	0.7135	128.36895	129.643	48.07929	0.33497	 	5.679879816E7	 	9.90908E-8	 	30386.526	34.006	 
875.0	1.0	0.0	7.47946	7.34385	-6.80322	19.92114	26.74379	1.39892	0.71484	128.8026	129.91406	48.24938	0.33476	 	6.404398642E7	 	8.74998E-8	 	30216.716	33.962	 
870.0	1.0	0.0	7.48187	7.34148	-6.83331	19.90517	26.67749	1.39629	0.71618	129.23588	130.18404	48.41938	0.33455	 	7.228978838E7	 	7.71815E-8	 	30047.124	33.9184	 
865.0	1.0	0.0	7.48429	7.33911	-6.86336	19.88922	26.61118	1.39365	0.71754	129.66879	130.45295	48.58929	0.33434	 	8.168474842E7	 	6.80057E-8	 	29877.749	33.875	 
860.0	1.0	0.0	7.4867	7.33674	-6.89336	19.87329	26.54486	1.39099	0.71891	130.10131	130.7208	48.75911	0.33412	 	9.240097838E7	 	5.98546E-8	 	29708.588	33.8322	 
855.0	1.0	0.0	7.48911	7.33438	-6.92331	19.85737	26.47853	1.38832	0.72029	130.53345	130.98757	48.92884	0.33391	 	1.046381348E8	 	5.26215E-8	 	29539.641	33.7894	 
850.0	1.0	0.0	7.49151	7.33203	-6.95322	19.84147	26.41219	1.38564	0.72169	130.96519	131.25327	49.09848	0.3337	 	1.186281072E8	 	4.62101E-8	 	29370.905	33.7472	 
845.0	1.0	0.0	7.49392	7.32967	-6.98308	19.82558	26.34584	1.38295	0.72309	131.39654	131.5179	49.26802	0.33349	 	1.346405518E8	 	4.05332E-8	 	29202.377	33.7056	 
840.0	1.0	0.0	7.49632	7.32732	-7.0129	19.80972	26.27948	1.38024	0.72451	131.82749	131.78145	49.43747	0.33328	 	1.529894314E8	 	3.55123E-8	 	29034.057	33.664	 
835.0	1.0	0.0	7.49872	7.32498	-7.04267	19.79387	26.2131	1.37752	0.72594	132.25803	132.04393	49.60682	0.33306	 	1.740407546E8	 	3.10767E-8	 	28865.942	33.623	 
830.0	1.0	0.0	7.50112	7.32264	-7.07239	19.77803	26.14672	1.37479	0.72739	132.68816	132.30534	49.77606	0.33285	 	1.982217471E8	 	2.71625E-8	 	28698.03	33.5824	 
825.0	1.0	0.0	7.50352	7.3203	-7.10207	19.76222	26.08033	1.37204	0.72884	133.11787	132.56567	49.94521	0.33264	 	2.260317335E8	 	2.37126E-8	 	28530.319	33.5422	 
820.0	1.0	0.0	7.50591	7.31796	-7.1317	19.74642	26.01392	1.36928	0.73031	133.54717	132.82493	50.11425	0.33243	 	2.58055068E8	 	2.06754E-8	 	28362.807	33.5024	 
815.0	1.0	0.0	7.5083	7.31563	-7.16129	19.73063	25.9475	1.3665	0.73179	133.97603	133.0831	50.28319	0.33222	 	2.949765193E8	 	1.80048E-8	 	28195.49	33.4634	 
810.0	1.0	0.0	7.51069	7.3133	-7.19083	19.71486	25.88108	1.36372	0.73329	134.40447	133.3402	50.45201	0.332	 	3.375996029E8	 	1.56593E-8	 	28028.367	33.4246	 
805.0	1.0	0.0	7.51308	7.31098	-7.22033	19.69911	25.81464	1.36091	0.7348	134.83247	133.59622	50.62073	0.33179	 	3.868684553E8	 	1.3602E-8	 	27861.436	33.3862	 
800.0	1.0	0.0	7.51547	7.30866	-7.24978	19.68338	25.74819	1.3581	0.73632	135.26004	133.85116	50.78934	0.33158	 	4.438939725E8	 	1.17996E-8	 	27694.693	33.3486	 
795.0	1.0	0.0	7.51785	7.30634	-7.27919	19.66766	25.68173	1.35527	0.73786	135.68715	134.10503	50.95783	0.33137	 	5.099850906E8	 	1.02226E-8	 	27528.135	33.3116	 
790.0	1.0	0.0	7.52023	7.30403	-7.30855	19.65196	25.61526	1.35243	0.73941	136.11382	134.35781	51.12621	0.33116	 	5.866862738E8	 	8.84454E-9	 	27361.761	33.2748	 
785.0	1.0	0.0	7.52261	7.30172	-7.33787	19.63628	25.54878	1.34957	0.74098	136.54004	134.60951	51.29447	0.33094	 	6.758225104E8	 	7.6419E-9	 	27195.567	33.2388	 
780.0	1.0	0.0	7.52499	7.29941	-7.36714	19.62061	25.48229	1.3467	0.74256	136.96579	134.86013	51.46261	0.33073	 	7.795534031E8	 	6.59373E-9	 	27029.55	33.2034	 
775.0	1.0	0.0	7.52736	7.29711	-7.39636	19.60496	25.41579	1.34381	0.74415	137.39108	135.10967	51.63063	0.33052	 	9.004382892E8	 	5.68141E-9	 	26863.707	33.1686	 
770.0	1.0	0.0	7.52974	7.29481	-7.42554	19.58932	25.34927	1.34091	0.74576	137.81591	135.35812	51.79853	0.33031	 	1.041514767E9	 	4.88841E-9	 	26698.034	33.1346	 
765.0	1.0	0.0	7.53211	7.29251	-7.45468	19.5737	25.28275	1.33799	0.74739	138.24026	135.60549	51.96631	0.3301	 	1.206393532E9	 	4.20008E-9	 	26532.528	33.1012	 
760.0	1.0	0.0	7.53447	7.29022	-7.48377	19.5581	25.21621	1.33506	0.74903	138.66413	135.85178	52.13396	0.32988	 	1.399373104E9	 	3.60343E-9	 	26367.186	33.0684	 
755.0	1.0	0.0	7.53684	7.28793	-7.51282	19.54252	25.14966	1.33212	0.75069	139.08753	136.09699	52.30148	0.32967	 	1.625578829E9	 	3.08699E-9	 	26202.003	33.0366	 
750.0	1.0	0.0	7.53921	7.28565	-7.54182	19.52695	25.08311	1.32916	0.75236	139.51043	136.34111	52.46887	0.32946	 	1.891131584E9	 	2.64061E-9	 	26036.976	33.0054	 
745.0	1.0	0.0	7.54157	7.28336	-7.57078	19.5114	25.01653	1.32618	0.75405	139.93285	136.58415	52.63613	0.32925	 	2.203352867E9	 	2.25535E-9	 	25872.099	32.9754	 
740.0	1.0	0.0	7.54393	7.28108	-7.59969	19.49586	24.94995	1.32319	0.75575	140.35477	136.8261	52.80326	0.32904	 	2.571014542E9	 	1.92334E-9	 	25707.37	32.9458	 
735.0	1.0	0.0	7.54628	7.27881	-7.62856	19.48035	24.88336	1.32018	0.75747	140.77619	137.06697	52.97025	0.32882	 	3.004643495E9	 	1.63764E-9	 	25542.783	32.9174	 
730.0	1.0	0.0	7.54864	7.27654	-7.65738	19.46484	24.81676	1.31716	0.75921	141.1971	137.30675	53.13711	0.32861	 	3.5168939E9	 	1.39217E-9	 	25378.332	32.8902	 
725.0	1.0	0.0	7.55099	7.27427	-7.68616	19.44936	24.75014	1.31412	0.76096	141.6175	137.54544	53.30382	0.3284	 	4.123002935E9	 	1.1816E-9	 	25214.014	32.8636	 
720.0	1.0	0.0	7.55334	7.27201	-7.7149	19.43389	24.68351	1.31107	0.76274	142.0374	137.78305	53.4704	0.32819	 	4.84134963E9	 	1.00123E-9	 	25049.822	32.8384	 
715.0	1.0	0.0	7.55569	7.26975	-7.74359	19.41844	24.61687	1.308	0.76453	142.45677	138.01957	53.63684	0.32798	 	5.694141453E9	 	8.46996E-10	 	24885.75	32.8144	 
710.0	1.0	0.0	7.55804	7.26749	-7.77223	19.403	24.55022	1.30491	0.76633	142.87562	138.255	53.80313	0.32776	 	6.708259369E9	 	7.15314E-10	 	24721.792	32.7916	 
705.0	1.0	0.0	7.56039	7.26523	-7.80084	19.38759	24.48356	1.30181	0.76816	143.29394	138.48935	53.96927	0.32755	 	7.916299925E9	 	6.03073E-10	 	24557.942	32.77	 
700.0	1.0	0.0	7.56273	7.26298	-7.8294	19.37218	24.41689	1.2987	0.77	143.71174	138.72261	54.13527	0.32734	 	9.357862715E9	 	5.07563E-10	 	24394.192	32.75	 
695.0	1.0	0.0	7.56507	7.26074	-7.85791	19.3568	24.3502	1.29556	0.77187	144.12899	138.95478	54.30112	0.32713	 	1.10811E10	 	4.26427E-10	 	24230.534	32.7316	 
690.0	1.0	0.0	7.56741	7.25849	-7.88638	19.34143	24.2835	1.29241	0.77375	144.54571	139.18586	54.46682	0.32692	 	1.3144899999999998E10	 	3.57621E-10	 	24066.961	32.7146	 
685.0	1.0	0.0	7.56974	7.25625	-7.91481	19.32608	24.21679	1.28924	0.77565	144.96188	139.41586	54.63237	0.3267	 	1.5620999999999998E10	 	2.99373E-10	 	23903.464	32.6994	 
680.0	1.0	0.0	7.57208	7.25402	-7.94319	19.31074	24.15007	1.28606	0.77757	145.3775	139.64476	54.79776	0.32649	 	1.85972E10	 	2.5015E-10	 	23740.033	32.6862	 
675.0	1.0	0.0	7.57441	7.25178	-7.97153	19.29542	24.08334	1.28286	0.77951	145.79257	139.87258	54.963	0.32628	 	2.21814E10	 	2.08629E-10	 	23576.657	32.6752	 
670.0	1.0	0.0	7.57674	7.24955	-7.99983	19.28012	24.01659	1.27964	0.78147	146.20708	140.09931	55.12808	0.32607	 	2.6506099999999996E10	 	1.73669E-10	 	23413.327	32.666	 
665.0	1.0	0.0	7.57907	7.24733	-8.02808	19.26484	23.94983	1.2764	0.78345	146.62103	140.32495	55.293	0.32586	 	3.1734299999999996E10	 	1.44288E-10	 	23250.029	32.6596	 
660.0	1.0	0.0	7.58139	7.24511	-8.05629	19.24957	23.88306	1.27315	0.78545	147.03441	140.5495	55.45775	0.32564	 	3.80674E10	 	1.19642E-10	 	23086.751	32.6556	 
655.0	1.0	0.0	7.58371	7.24289	-8.08446	19.23431	23.81628	1.26988	0.78748	147.44722	140.77296	55.62235	0.32543	 	4.57543E10	 	9.90087E-11	 	22923.479	32.6544	 
650.0	1.0	0.0	7.58604	7.24067	-8.11258	19.21908	23.74948	1.26659	0.78952	147.85946	140.99533	55.78678	0.32522	 	5.510339999999999E10	 	8.17674E-11	 	22760.197	32.6564	 
645.0	1.0	0.0	7.58835	7.23846	-8.14066	19.20386	23.68267	1.26328	0.79159	148.27111	141.21661	55.95105	0.32501	 	6.649789999999999E10	 	6.73895E-11	 	22596.889	32.6616	 
640.0	1.0	0.0	7.59067	7.23625	-8.16869	19.18866	23.61585	1.25996	0.79368	148.68219	141.4368	56.11515	0.3248	 	8.04144E10	 	5.54236E-11	 	22433.536	32.6706	 
635.0	1.0	0.0	7.59299	7.23404	-8.19669	19.17347	23.54902	1.25662	0.79579	149.09267	141.6559	56.27907	0.32458	 	9.744769999999998E10	 	4.54855E-11	 	22270.117	32.6838	 
630.0	1.0	0.0	7.5953	7.23184	-8.22464	19.1583	23.48217	1.25325	0.79792	149.50256	141.87391	56.44283	0.32437	 	1.18341E11	 	3.72487E-11	 	22106.61	32.7014	 
625.0	1.0	0.0	7.59761	7.22964	-8.25254	19.14315	23.41531	1.24988	0.80008	149.91186	142.09083	56.60642	0.32416	 	1.44026E11	 	3.04364E-11	 	21942.991	32.7238	 
620.0	1.0	0.0	7.59992	7.22744	-8.28041	19.12801	23.34843	1.24648	0.80226	150.32055	142.30666	56.76983	0.32395	 	1.75674E11	 	2.48144E-11	 	21779.232	32.7518	 
615.0	1.0	0.0	7.60222	7.22525	-8.30823	19.11289	23.28155	1.24306	0.80447	150.72864	142.5214	56.93306	0.32374	 	2.14756E11	 	2.0185E-11	 	21615.302	32.786	 
610.0	1.0	0.0	7.60453	7.22306	-8.33601	19.09779	23.21464	1.23962	0.8067	151.13613	142.73505	57.09612	0.32352	 	2.63132E11	 	1.63813E-11	 	21451.168	32.8268	 
605.0	1.0	0.0	7.60683	7.22088	-8.36374	19.0827	23.14773	1.23617	0.80895	151.54299	142.94761	57.25899	0.32331	 	3.23155E11	 	1.32631E-11	 	21286.792	32.8752	 
600.0	1.0	0.0	7.60913	7.2187	-8.39143	19.06763	23.0808	1.2327	0.81123	151.94925	143.15908	57.42169	0.3231	 	3.97806E11	 	1.07128E-11	 	21122.132	32.932	 
595.0	1.0	0.0	7.61142	7.21652	-8.41908	19.05258	23.01386	1.2292	0.81354	152.35487	143.36946	57.5842	0.32289	 	4.9088E11	 	8.63189E-12	 	20957.139	32.9986	 
590.0	1.0	0.0	7.61372	7.21434	-8.44669	19.03754	22.94691	1.22569	0.81587	152.75988	143.57875	57.74653	0.32268	 	6.07211E11	 	6.93799E-12	 	20791.762	33.0754	 
585.0	1.0	0.0	7.61601	7.21217	-8.47426	19.02252	22.87994	1.22215	0.81823	153.16425	143.78695	57.90867	0.32246	 	7.52978E11	 	5.56247E-12	 	20621.566	34.0392	 
580.0	1.0	0.0	7.6183	7.21	-8.50178	19.00752	22.81295	1.2186	0.82061	153.56799	143.99406	58.07062	0.32225	 	9.36102E11	 	4.44825E-12	 	20451.899	33.9334	 
575.0	1.0	0.0	7.62059	7.20784	-8.52926	18.99253	22.74595	1.21503	0.82303	153.97109	144.20008	58.23239	0.32204	 	1.16676E12	 	3.54795E-12	 	20283.012	33.7774	 
570.0	1.0	0.0	7.62288	7.20567	-8.5567	18.97756	22.67894	1.21143	0.82547	154.37355	144.405	58.39396	0.32183	 	1.45806E12	 	2.82238E-12	 	20114.882	33.626	 
565.0	1.0	0.0	7.62516	7.20351	-8.58409	18.96261	22.61192	1.20782	0.82794	154.77537	144.60884	58.55534	0.32162	 	1.82696E12	 	2.23913E-12	 	19947.484	33.4796	 
560.0	1.0	0.0	7.62745	7.20136	-8.61145	18.94767	22.54488	1.20418	0.83044	155.17653	144.81159	58.71653	0.3214	 	2.29541E12	 	1.77153E-12	 	19780.799	33.337	 
555.0	1.0	0.0	7.62973	7.19921	-8.63876	18.93275	22.47782	1.20053	0.83297	155.57704	145.01325	58.87752	0.32119	 	2.89195E12	 	1.39767E-12	 	19614.806	33.1986	 
550.0	1.0	0.0	7.632	7.19706	-8.66603	18.91785	22.41075	1.19685	0.83553	155.97689	145.21382	59.03832	0.32098	 	3.65378E12	 	1.09957E-12	 	19449.485	33.0642	 
545.0	1.0	0.0	7.63428	7.19491	-8.69325	18.90296	22.34367	1.19315	0.83812	156.37608	145.4133	59.19891	0.32077	 	4.62954E12	 	8.62545E-13	 	19284.818	32.9334	 
540.0	1.0	0.0	7.63655	7.19277	-8.72044	18.88809	22.27657	1.18943	0.84074	156.7746	145.6117	59.3593	0.32056	 	5.88302E12	 	6.74617E-13	 	19120.789	32.8058	 
535.0	1.0	0.0	7.63882	7.19063	-8.74758	18.87324	22.20945	1.18569	0.84339	157.17246	145.809	59.51949	0.32034	 	7.49812E12	 	5.26049E-13	 	18957.381	32.6816	 
530.0	1.0	0.0	7.64109	7.1885	-8.77469	18.8584	22.14233	1.18193	0.84607	157.56963	146.00521	59.67948	0.32013	 	9.58558E12	 	4.08945E-13	 	18794.578	32.5606	 
525.0	1.0	0.0	7.64336	7.18636	-8.80175	18.84358	22.07518	1.17814	0.84879	157.96613	146.20034	59.83926	0.31992	 	1.2292E13	 	3.16919E-13	 	18632.367	32.4422	 
520.0	1.0	0.0	7.64563	7.18423	-8.82877	18.82878	22.00802	1.17433	0.85155	158.36195	146.39437	59.99884	0.31971	 	1.58122E13	 	2.44822E-13	 	18470.733	32.3268	 
515.0	1.0	0.0	7.64789	7.18211	-8.85574	18.81399	21.94085	1.1705	0.85433	158.75708	146.58732	60.1582	0.3195	 	2.04057E13	 	1.88514E-13	 	18309.663	32.214	 
510.0	1.0	0.0	7.65015	7.17999	-8.88268	18.79922	21.87366	1.16665	0.85715	159.15153	146.77918	60.31736	0.31928	 	2.64196E13	 	1.44679E-13	 	18149.145	32.1036	 
505.0	1.0	0.0	7.65241	7.17787	-8.90957	18.78447	21.80646	1.16278	0.86001	159.54528	146.96996	60.4763	0.31907	 	3.43199E13	 	1.10663E-13	 	17989.168	31.9954	 
500.0	1.0	0.0	7.65467	7.17575	-8.93643	18.76973	21.73924	1.15888	0.8629	159.93833	147.15964	60.63503	0.31886	 	4.47339E13	 	8.43556E-14	 	17829.719	31.8898	 
495.0	1.0	0.0	7.65692	7.17364	-8.96324	18.75501	21.672	1.15495	0.86584	160.33068	147.34824	60.79355	0.31865	 	5.85097E13	 	6.40774E-14	 	17670.789	31.786	 
490.0	1.0	0.0	7.65917	7.17153	-8.99001	18.7403	21.60475	1.15101	0.8688	160.72232	147.53575	60.95185	0.31844	 	7.67979E13	 	4.85006E-14	 	17512.368	31.6842	 
485.0	1.0	0.0	7.66142	7.16942	-9.01674	18.72562	21.53748	1.14704	0.87181	161.11326	147.72218	61.10993	0.31822	 	1.01165E14	 	3.65773E-14	 	17354.445	31.5846	 
480.0	1.0	0.0	7.66367	7.16732	-9.04342	18.71095	21.4702	1.14304	0.87486	161.50348	147.90751	61.26779	0.31801	 	1.3375299999999998E14	 	2.74831E-14	 	17197.013	31.4864	 
475.0	1.0	0.0	7.66592	7.16522	-9.07007	18.69629	21.4029	1.13903	0.87794	161.89299	148.09177	61.42543	0.3178	 	1.775E14	 	2.0572E-14	 	17040.062	31.3902	 
470.0	1.0	0.0	7.66816	7.16312	-9.09668	18.68165	21.33559	1.13498	0.88107	162.28177	148.27494	61.58285	0.31759	 	2.36456E14	 	1.53396E-14	 	16883.585	31.2954	 
465.0	1.0	0.0	7.6704	7.16103	-9.12324	18.66703	21.26826	1.13092	0.88424	162.66984	148.45702	61.74004	0.31738	 	3.16221E14	 	1.13931E-14	 	16727.573	31.2024	 
460.0	1.0	0.0	7.67264	7.15894	-9.14977	18.65243	21.20091	1.12682	0.88745	163.05717	148.63802	61.89701	0.31717	 	4.24575E14	 	8.42801E-15	 	16572.019	31.1108	 
455.0	1.0	0.0	7.67488	7.15685	-9.17625	18.63784	21.13355	1.12271	0.8907	163.44377	148.81793	62.05375	0.31695	 	5.72372E14	 	6.20911E-15	 	16416.916	31.0206	 
450.0	1.0	0.0	7.67711	7.15477	-9.20269	18.62327	21.06617	1.11856	0.894	163.82964	148.99676	62.21026	0.31674	 	7.74814E14	 	4.55531E-15	 	16262.258	30.9316	 
445.0	1.0	0.0	7.67935	7.15269	-9.2291	18.60872	20.99877	1.11439	0.89735	164.21477	149.17451	62.36654	0.31653	 	1.0533E15	 	3.32776E-15	 	16108.038	30.844	 
440.0	1.0	0.0	7.68158	7.15061	-9.25546	18.59418	20.93136	1.1102	0.90074	164.59916	149.35118	62.52259	0.31632	 	1.43805E15	 	2.42043E-15	 	15954.25	30.7576	 
435.0	1.0	0.0	7.68381	7.14854	-9.28178	18.57966	20.86393	1.10598	0.90418	164.9828	149.52676	62.67841	0.31611	 	1.97201E15	 	1.75268E-15	 	15800.888	30.6724	 
430.0	1.0	0.0	7.68603	7.14647	-9.30806	18.56515	20.79648	1.10173	0.90766	165.3657	149.70126	62.83399	0.31589	 	2.71642E15	 	1.26339E-15	 	15647.947	30.5882	 
425.0	1.0	0.0	7.68826	7.1444	-9.3343	18.55066	20.72902	1.09746	0.9112	165.74784	149.87468	62.98934	0.31568	 	3.75906E15	 	9.06476E-16	 	15495.421	30.5052	 
420.0	1.0	0.0	7.69048	7.14233	-9.3605	18.53619	20.66153	1.09316	0.91478	166.12922	150.04702	63.14445	0.31547	 	5.22634E15	 	6.47316E-16	 	15343.306	30.423	 
415.0	1.0	0.0	7.6927	7.14027	-9.38666	18.52174	20.59403	1.08883	0.91842	166.50985	150.21828	63.29932	0.31526	 	7.30125E15	 	4.60015E-16	 	15191.596	30.342	 
410.0	1.0	0.0	7.69492	7.13821	-9.41278	18.5073	20.52652	1.08447	0.92211	166.88971	150.38846	63.45395	0.31505	 	1.025E16	 	3.25296E-16	 	15040.287	30.2618	 
405.0	1.0	0.0	7.69713	7.13616	-9.43886	18.49288	20.45898	1.08009	0.92585	167.26881	150.55757	63.60833	0.31483	 	1.44619E16	 	2.28869E-16	 	14889.375	30.1824	 
400.0	1.0	0.0	7.69935	7.13411	-9.4649	18.47847	20.39143	1.07568	0.92965	167.64714	150.72559	63.76248	0.31462	 	2.05092E16	 	1.60195E-16	 	14738.855	30.104	 
395.0	1.0	0.0	7.70156	7.13206	-9.4909	18.46408	20.32385	1.07124	0.9335	168.02469	150.89254	63.91638	0.31441	 	2.92378E16	 	1.11536E-16	 	14588.724	30.0262	 
390.0	1.0	0.0	7.70377	7.13001	-9.51686	18.44971	20.25626	1.06677	0.93741	168.40147	151.05841	64.07004	0.3142	 	4.19048E16	 	7.72386E-17	 	14438.977	29.9494	 
385.0	1.0	0.0	7.70598	7.12797	-9.54278	18.43536	20.18865	1.06227	0.94138	168.77747	151.22321	64.22345	0.31399	 	6.03893E16	 	5.31927E-17	 	14289.611	29.8732	 
380.0	1.0	0.0	7.70818	7.12593	-9.56866	18.42102	20.12102	1.05774	0.94541	169.15268	151.38693	64.37661	0.31377	 	8.75159E16	 	3.64261E-17	 	14140.623	29.7976	 
375.0	1.0	0.0	7.71039	7.1239	-9.5945	18.4067	20.05338	1.05319	0.9495	169.52712	151.54958	64.52952	0.31356	 	1.27556E17	 	2.48005E-17	 	13992.009	29.7228	 
370.0	1.0	0.0	7.71259	7.12186	-9.6203	18.39239	19.98571	1.0486	0.95365	169.90076	151.71116	64.68218	0.31335	 	1.87008E17	 	1.67857E-17	 	13843.765	29.6488	 
365.0	1.0	0.0	7.71479	7.11983	-9.64606	18.3781	19.91802	1.04399	0.95787	170.27361	151.87166	64.83459	0.31314	 	2.7582E17	 	1.12923E-17	 	13695.89	29.575	 
360.0	1.0	0.0	7.71698	7.11781	-9.67178	18.36383	19.85031	1.03934	0.96215	170.64567	152.0311	64.98674	0.31293	 	4.09314E17	 	7.54982E-18	 	13548.379	29.5022	 
355.0	1.0	0.0	7.71918	7.11578	-9.69747	18.34957	19.78258	1.03466	0.9665	171.01692	152.18946	65.13864	0.31271	 	6.11249E17	 	5.0157E-18	 	13401.231	29.4296	 
350.0	1.0	0.0	7.72137	7.11376	-9.72311	18.33533	19.71484	1.02995	0.97092	171.38738	152.34676	65.29028	0.3125	 	9.18704E17	 	3.31058E-18	 	13254.442	29.3578	 
345.0	1.0	0.0	7.72356	7.11174	-9.74871	18.32111	19.64707	1.02521	0.97541	171.75704	152.50299	65.44167	0.31229	 	1.38994E18	 	2.17062E-18	 	13108.009	29.2866	 
340.0	1.0	0.0	7.72575	7.10973	-9.77428	18.30691	19.57928	1.02044	0.97997	172.12589	152.65815	65.5928	0.31208	 	2.11716E18	 	1.41352E-18	 	12961.932	29.2154	 
335.0	1.0	0.0	7.72793	7.10772	-9.7998	18.29272	19.51146	1.01564	0.9846	172.49393	152.81225	65.74367	0.31187	 	3.24724E18	 	9.14078E-19	 	12816.206	29.1452	 
330.0	1.0	0.0	7.73012	7.10571	-9.82529	18.27854	19.44363	1.0108	0.98931	172.86116	152.96529	65.89428	0.31166	 	5.01599E18	 	5.86888E-19	 	12670.83	29.0752	 
325.0	1.0	0.0	7.7323	7.1037	-9.85074	18.26439	19.37577	1.00593	0.9941	173.22758	153.11726	66.04463	0.31144	 	7.80472E18	 	3.74059E-19	 	12525.802	29.0056	 
320.0	1.0	0.0	7.73448	7.1017	-9.87614	18.25025	19.30789	1.00103	0.99897	173.59318	153.26817	66.19471	0.31123	 	1.22348E19	 	2.36622E-19	 	12381.12	28.9364	 
315.0	1.0	0.0	7.73666	7.0997	-9.90151	18.23613	19.23999	0.9961	1.00392	173.95797	153.41802	66.34453	0.31102	 	1.93266E19	 	1.48532E-19	 	12236.782	28.8676	 
310.0	1.0	0.0	7.73883	7.09771	-9.92684	18.22202	19.17207	0.99113	1.00895	174.32193	153.56682	66.49409	0.31081	 	3.07694E19	 	9.25013E-20	 	12092.786	28.7992	 
305.0	1.0	0.0	7.74101	7.09571	-9.95214	18.20793	19.10412	0.98612	1.01407	174.68507	153.71456	66.64338	0.3106	 	4.93831E19	 	5.71411E-20	 	11949.13	28.7312	 
300.0	1.0	0.0	7.74318	7.09372	-9.97739	18.19386	19.03615	0.98109	1.01928	175.04738	153.86124	66.7924	0.31038	 	7.9914E19	 	3.50052E-20	 	11805.814	28.6632	 
295.0	1.0	0.0	7.74535	7.09174	-10.0026	18.1798	18.96816	0.97601	1.02458	175.40887	154.00687	66.94116	0.31017	 	1.3042099999999998E20	 	2.12619E-20	 	11662.834	28.596	 
290.0	1.0	0.0	7.74752	7.08975	-10.02778	18.16576	18.90014	0.97091	1.02997	175.76953	154.15146	67.08965	0.30996	 	2.1470899999999997E20	 	1.28015E-20	 	11520.191	28.5286	 
285.0	1.0	0.0	7.74968	7.08777	-10.05292	18.15174	18.83209	0.96576	1.03545	176.12936	154.29499	67.23787	0.30975	 	3.56642E20	 	7.63844E-21	 	11377.882	28.4618	 
280.0	1.0	0.0	7.75184	7.08579	-10.07802	18.13773	18.76402	0.96058	1.04103	176.48836	154.43748	67.38582	0.30954	 	5.97861E20	 	4.51574E-21	 	11235.906	28.3952	 
275.0	1.0	0.0	7.75401	7.08382	-10.10308	18.12374	18.69593	0.95537	1.04672	176.84652	154.57892	67.5335	0.30932	 	1.01172E21	 	2.64438E-21	 	11094.262	28.3288	 
270.0	1.0	0.0	7.75616	7.08185	-10.1281	18.10977	18.62781	0.95011	1.05251	177.20385	154.71932	67.68091	0.30911	 	1.7287400000000001E21	 	1.53347E-21	 	10952.95	28.2624	 
265.0	1.0	0.0	7.75832	7.07988	-10.15308	18.09581	18.55966	0.94482	1.0584	177.56034	154.85868	67.82804	0.3089	 	2.98347E21	 	8.80375E-22	 	10811.968	28.1964	 
260.0	1.0	0.0	7.76048	7.07791	-10.17803	18.08187	18.49148	0.9395	1.0644	177.916	154.997	67.97491	0.30869	 	5.20188E21	 	5.00237E-22	 	10671.315	28.1306	 
255.0	1.0	0.0	7.76263	7.07595	-10.20294	18.06795	18.42328	0.93413	1.07051	178.27081	155.13428	68.1215	0.30848	 	9.1658E21	 	2.81238E-22	 	10530.991	28.0648	 
250.0	1.0	0.0	7.76478	7.07399	-10.22781	18.05404	18.35505	0.92873	1.07674	178.62479	155.27054	68.26782	0.30826	 	1.63261E22	 	1.56397E-22	 	10390.995	27.9992	 
245.0	1.0	0.0	7.76693	7.07203	-10.25264	18.04015	18.28679	0.92328	1.08309	178.97793	155.40576	68.41386	0.30805	 	2.9405999999999996E22	 	8.60017E-23	 	10251.326	27.9338	 
240.0	1.0	0.0	7.76907	7.07008	-10.27743	18.02628	18.21851	0.9178	1.08956	179.33022	155.53996	68.55963	0.30784	 	5.35757E22	 	4.6748E-23	 	10111.984	27.8684	 
235.0	1.0	0.0	7.77122	7.06813	-10.30219	18.01242	18.15019	0.91228	1.09615	179.68167	155.67313	68.70513	0.30763	 	9.877069999999999E22	 	2.51102E-23	 	9972.969	27.803	 
230.0	1.0	0.0	7.77336	7.06618	-10.3269	17.99858	18.08184	0.90672	1.10288	180.03229	155.80529	68.85035	0.30742	 	1.84319E23	 	1.33234E-23	 	9834.28	27.7378	 
225.0	1.0	0.0	7.7755	7.06424	-10.35159	17.98476	18.01346	0.90112	1.10974	180.38206	155.93643	68.99529	0.30721	 	3.48296E23	 	6.98068E-24	 	9695.917	27.6726	 
220.0	1.0	0.0	7.77764	7.0623	-10.37623	17.97095	17.94506	0.89547	1.11673	180.73099	156.06655	69.13996	0.30699	 	6.667049999999999E23	 	3.61021E-24	 	9557.88	27.6074	 
215.0	1.0	0.0	7.77977	7.06036	-10.40083	17.95716	17.87662	0.88979	1.12387	181.07908	156.19566	69.28436	0.30678	 	1.29329E24	 	1.84223E-24	 	9420.169	27.5422	 
210.0	1.0	0.0	7.78191	7.05842	-10.4254	17.94339	17.80814	0.88406	1.13115	181.42633	156.32377	69.42848	0.30657	 	2.54339E24	 	9.27161E-25	 	9282.784	27.477	 
205.0	1.0	0.0	7.78404	7.05649	-10.44993	17.92963	17.73964	0.87829	1.13858	181.77274	156.45088	69.57233	0.30636	 	5.07312E24	 	4.60019E-25	 	9145.726	27.4116	 
200.0	1.0	0.0	7.78617	7.05456	-10.47442	17.91589	17.6711	0.87248	1.14616	182.11831	156.57699	69.7159	0.30615	 	1.0267700000000001E25	 	2.24912E-25	 	9008.995	27.3462	 
195.0	1.0	0.0	7.7883	7.05263	-10.49888	17.90217	17.60252	0.86662	1.15391	182.46305	156.70211	69.8592	0.30593	 	2.1096700000000003E25	 	1.08307E-25	 	8872.591	27.2808	 
190.0	1.0	0.0	7.79042	7.05071	-10.5233	17.88846	17.53391	0.86072	1.16182	182.80695	156.82624	70.00223	0.30572	 	4.40257E25	 	5.13454E-26	 	8736.515	27.2152	 
185.0	1.0	0.0	7.79254	7.04879	-10.54768	17.87477	17.46527	0.85477	1.1699	183.15002	156.94938	70.14498	0.30551	 	9.33626E25	 	2.39509E-26	 	8600.768	27.1494	 
180.0	1.0	0.0	7.79467	7.04687	-10.57202	17.8611	17.39658	0.84878	1.17816	183.49226	157.07155	70.28746	0.3053	 	2.013E26	 	1.09871E-26	 	8465.35	27.0836	 
175.0	1.0	0.0	7.79679	7.04495	-10.59633	17.84744	17.32786	0.84274	1.1866	183.83367	157.19275	70.42967	0.30509	 	4.4153100000000004E26	 	4.95392E-27	 	8330.264	27.0172	 
170.0	1.0	0.0	7.7989	7.04304	-10.6206	17.8338	17.2591	0.83666	1.19523	184.17425	157.31298	70.57161	0.30487	 	9.8577E26	 	2.19413E-27	 	8195.509	26.951	 
165.0	1.0	0.0	7.80102	7.04113	-10.64483	17.82017	17.1903	0.83053	1.20405	184.51402	157.43224	70.71329	0.30466	 	2.24157E27	 	9.54021E-28	 	8061.088	26.8842	 
160.0	1.0	0.0	7.80313	7.03922	-10.66903	17.80657	17.12146	0.82436	1.21307	184.85297	157.55056	70.85469	0.30445	 	5.19474E27	 	4.06969E-28	 	7927.002	26.8172	 
155.0	1.0	0.0	7.80524	7.03732	-10.69319	17.79297	17.05258	0.81813	1.2223	185.19111	157.66793	70.99583	0.30424	 	1.22773E28	 	1.70208E-28	 	7793.252	26.75	 
150.0	1.0	0.0	7.80735	7.03542	-10.71731	17.7794	16.98366	0.81186	1.23174	185.52844	157.78436	71.13671	0.30403	 	2.96121E28	 	6.97449E-29	 	7659.841	26.6822	 
145.0	1.0	0.0	7.80946	7.03352	-10.7414	17.76584	16.91469	0.80554	1.24141	185.86497	157.89986	71.27732	0.30382	 	7.29422E28	 	2.79795E-29	 	7526.77	26.6142	 
140.0	1.0	0.0	7.81156	7.03163	-10.76545	17.7523	16.84568	0.79917	1.2513	186.2007	158.01443	71.41768	0.3036	 	1.83639E29	 	1.09807E-29	 	7394.042	26.5456	 
135.0	1.0	0.0	7.81366	7.02973	-10.78946	17.73878	16.77662	0.79274	1.26144	186.53564	158.12808	71.55777	0.30339	 	4.7290800000000006E29	 	4.2124E-30	 	7261.66	26.4764	 
130.0	1.0	0.0	7.81576	7.02784	-10.81344	17.72527	16.70751	0.78627	1.27183	186.8698	158.24083	71.69762	0.30318	 	1.24675E30	 	1.57825E-30	 	7129.625	26.407	 
125.0	1.0	0.0	7.81786	7.02596	-10.83738	17.71178	16.63836	0.77975	1.28247	187.20318	158.35269	71.83721	0.30297	 	3.3678599999999997E30	 	5.77005E-31	 	6997.942	26.3366	 
120.0	1.0	0.0	7.81996	7.02407	-10.86128	17.6983	16.56915	0.77317	1.29337	187.53579	158.46365	71.97655	0.30276	 	9.33055E30	 	2.05654E-31	 	6866.612	26.266	 
115.0	1.0	0.0	7.82205	7.02219	-10.88515	17.68484	16.4999	0.76654	1.30456	187.86765	158.57374	72.11564	0.30254	 	2.65376E31	 	7.13879E-32	 	6735.64	26.1944	 
110.0	1.0	0.0	7.82415	7.02032	-10.90898	17.6714	16.43059	0.75986	1.31603	188.19876	158.68296	72.2545	0.30233	 	7.75648E31	 	2.41097E-32	 	6605.03	26.122	 
105.0	1.0	0.0	7.82624	7.01844	-10.93277	17.65798	16.36122	0.75312	1.3278	188.52913	158.79133	72.39311	0.30212	 	2.3323E32	 	7.91344E-33	 	6474.784	26.0492	 
100.0	1.0	0.0	7.82833	7.01657	-10.95653	17.64457	16.2918	0.74633	1.33989	188.85878	158.89886	72.53149	0.30191	 	7.22303E32	 	2.52145E-33	 	6344.908	25.9752	 
95.0	1.0	0.0	7.83041	7.0147	-10.98026	17.63118	16.22233	0.73949	1.35229	189.18771	159.00556	72.66965	0.3017	 	2.30668E33	 	7.78975E-34	 	6215.407	25.9002	 
90.0	1.0	0.0	7.8325	7.01283	-11.00394	17.6178	16.15279	0.73258	1.36503	189.51595	159.11144	72.80757	0.30149	 	7.60577E33	 	2.33039E-34	 	6086.284	25.8246	 
85.0	1.0	0.0	7.83458	7.01097	-11.0276	17.60444	16.08319	0.72562	1.37813	189.84349	159.21652	72.94528	0.30127	 	2.5927800000000003E34	 	6.74195E-35	 	5957.547	25.7474	 
80.0	1.0	0.0	7.83666	7.00911	-11.05121	17.5911	16.01352	0.7186	1.39159	190.17037	159.32082	73.08278	0.30106	 	9.15105E34	 	1.88354E-35	 	5829.199	25.6696	 
75.0	1.0	0.0	7.83874	7.00725	-11.07479	17.57778	15.94379	0.71153	1.40542	190.4966	159.42436	73.22007	0.30085	 	3.3489399999999996E35	 	5.07394E-36	 	5701.248	25.5902	 
70.0	1.0	0.0	7.84081	7.00539	-11.09834	17.56447	15.87399	0.70439	1.41966	190.82219	159.52714	73.35717	0.30064	 	1.2728099999999998E36	 	1.31585E-36	 	5573.701	25.5094	 
65.0	1.0	0.0	7.84289	7.00354	-11.12184	17.55118	15.80412	0.6972	1.43431	191.14717	159.6292	73.49407	0.30043	 	5.03231E36	 	3.27966E-37	 	5446.564	25.4274	 
60.0	1.0	0.0	7.84496	7.00169	-11.14532	17.5379	15.73418	0.68994	1.44939	191.47155	159.73054	73.63078	0.30021	 	2.07344E37	 	7.84214E-38	 	5319.845	25.3438	 
55.0	1.0	0.0	7.84703	6.99984	-11.16876	17.52464	15.66416	0.68263	1.46493	191.79537	159.8312	73.76733	0.3	 	8.919799999999999E37	 	1.79558E-38	 	5193.552	25.2586	 
50.0	1.0	0.0	7.8491	6.998	-11.19216	17.5114	15.59406	0.67525	1.48094	192.11864	159.93119	73.90371	0.29979	 	4.01446E38	 	3.92883E-39	 	5067.695	25.1714	 
45.0	1.0	0.0	7.85116	6.99616	-11.21552	17.49818	15.52388	0.6678	1.49744	192.44139	160.03054	74.03993	0.29958	 	1.8942300000000002E39	 	8.19758E-40	 	4942.282	25.0826	 
40.0	1.0	0.0	7.85322	6.99432	-11.23886	17.48497	15.45361	0.6603	1.51447	192.76366	160.12927	74.17601	0.29937	 	9.391950000000001E39	 	1.62736E-40	 	4817.324	24.9916	 
35.0	1.0	0.0	7.85529	6.99249	-11.26215	17.47177	15.38325	0.65273	1.53203	193.08546	160.22742	74.31196	0.29915	 	4.90505E40	 	3.06624E-41	 	4692.832	24.8984	 
30.0	1.0	0.0	7.85735	6.99065	-11.28541	17.45859	15.3128	0.64509	1.55017	193.40685	160.32501	74.44778	0.29894	 	2.70527E41	 	5.46932E-42	 	4568.817	24.803	 
25.0	1.0	0.0	7.8594	6.98882	-11.30864	 	15.24226	0.63739	1.56891	193.72784	160.42207	74.58351	0.29873	 	1.57998E42	 	9.21022E-43	 	4445.293	 	 
