T (C)	Fraction solid (wt)-TOTAL	Fraction liquid (wt)-LIQUID	Density (g/(cm)^3)-TOTAL	Molar volume (cm^3)-TOTAL	Volume change (%)-  	Average expansion coeff. (10e-6 1/K)-  	Thermal conductivity (W/(m*K))-TOTAL	Electrical resistivity (10e-6 Ohm*m)-TOTAL	Electrical conductivity (10e6 1/(Ohm*m))-TOTAL	Young's modulus (GPa)-TOTAL	Bulk modulus (GPa)-TOTAL	Shear modulus(GPa)-TOTAL	Poisson's ratio-TOTAL	Liquid viscosity (mPa s)-  	Total viscosity (mPa s)-  	Liquid diffusivity (10e-9 (m^2)/s)-  	Total diffusivity (10e-9 (m^2)/s)-  	Surface Tension (mN/m)-  	Enthalpy (J/mole)-TOTAL	Specific heat (J/(mole K))-TOTAL	Latent heat (J/mole)-TOTAL
1500.0	0.0	1.0	6.83462	7.91378	0.0	28.28421	30.79208	1.87639	0.53294	0.0	104.42038	0.0	0.49974	6.42015	6.42015	1.34799	1.34799	1728.16131	61910.697	 	0.0
1495.0	0.0	1.0	6.8385	7.9093	-0.0566399	28.23591	30.71885	1.87556	0.53317	0.0	104.60254	0.0	0.49974	6.4756	6.4756	1.33268	1.33268	1730.0169	61690.81	43.9774	0.0
1490.0	0.0	1.0	6.84237	7.90483	-0.11313	28.18767	30.64562	1.87473	0.53341	0.0	104.78471	0.0	0.49974	6.53186	6.53186	1.31747	1.31747	1731.87488	61471.417	43.8786	0.0
1485.0	0.0	1.0	6.84623	7.90037	-0.16946	28.13948	30.57239	1.87389	0.53365	0.0	104.96687	0.0	0.49974	6.58893	6.58893	1.30235	1.30235	1733.73516	61252.517	43.78	0.0
1480.0	0.0	1.0	6.85008	7.89592	-0.22564	28.09136	30.49916	1.87305	0.53389	0.0	105.14903	0.0	0.49974	6.64682	6.64682	1.28734	1.28734	1735.59766	61034.105	43.6824	0.0
1475.0	0.0	1.0	6.85393	7.89149	-0.28167	28.04331	30.42593	1.8722	0.53413	0.0	105.33119	0.0	0.49974	6.70556	6.70556	1.27242	1.27242	1737.4623	60816.178	43.5854	0.0
1470.0	0.0	1.0	6.85777	7.88707	-0.33755	27.99531	30.3527	1.87135	0.53437	0.0	105.51335	0.0	0.49974	6.76517	6.76517	1.2576	1.2576	1739.32899	60598.734	43.4888	0.0
1465.0	0.0	1.0	6.86161	7.88266	-0.39327	27.94738	30.27947	1.8705	0.53462	0.0	105.69551	0.0	0.49974	6.82564	6.82564	1.24288	1.24288	1741.19766	60381.769	43.393	0.0
1460.0	0.0	1.0	6.86544	7.87826	-0.44885	27.89952	30.20624	1.86964	0.53486	0.0	105.87767	0.0	0.49974	6.88702	6.88702	1.22826	1.22826	1743.0682	60165.281	43.2976	0.0
1455.0	0.0	1.0	6.86926	7.87387	-0.50426	27.85172	30.13301	1.86877	0.53511	0.0	106.05983	0.0	0.49974	6.9493	6.9493	1.21374	1.21374	1744.94054	59949.265	43.2032	0.0
1450.0	0.0	1.0	6.87308	7.8695	-0.55953	27.80399	30.05978	1.86791	0.53536	0.0	106.24199	0.0	0.49974	7.01252	7.01252	1.19932	1.19932	1746.81459	59733.746	43.1038	0.0
1445.0	0.0	1.0	6.87689	7.86514	-0.61464	27.75632	29.98655	1.86703	0.53561	0.0	106.42415	0.0	0.49974	7.07668	7.07668	1.185	1.185	1748.69024	59518.767	42.9958	0.0
1440.0	0.0	1.0	6.8807	7.86079	-0.66961	27.70872	29.91332	1.86616	0.53586	0.0	106.60631	0.0	0.49974	7.14181	7.14181	1.17078	1.17078	1750.56741	59304.318	42.8898	0.0
1435.0	0.0	1.0	6.8845	7.85645	-0.72441	27.66119	29.8401	1.86528	0.53611	0.0	106.78847	0.0	0.49974	7.20792	7.20792	1.15665	1.15665	1752.446	59090.396	42.7844	0.0
1430.0	0.0	1.0	6.88829	7.85213	-0.77907	27.61373	29.76687	1.86439	0.53637	0.0	106.97063	0.0	0.49974	7.27504	7.27504	1.14263	1.14263	1754.32591	58876.998	42.6796	0.0
1425.0	0.0	1.0	6.89207	7.84781	-0.83357	27.56634	29.69364	1.8635	0.53662	0.0	107.15279	0.0	0.49974	7.34319	7.34319	1.1287	1.1287	1756.20705	58664.121	42.5754	0.0
1420.41	0.0	1.0	6.89554	7.84387	-0.88343	27.52293	29.62647	1.86268	0.53686	0.0	107.31987	0.0	0.49974	7.40662	7.40662	1.11601	1.11601	1757.93352	58469.309	42.4773	0.0050
1420.0	0.01172	0.98828	6.8977	7.84152	-0.91304	27.45149	29.66656	1.85971	0.53772	1.0318E-6	106.88856	3.44386E-7	0.49803	7.4096	7.52519	1.11529	1.09816	1757.77871	58348.221	292.667	103.537
1415.0	0.14134	0.85866	6.92245	7.81336	-1.26894	26.58995	30.11037	1.82689	0.54738	0.0223238	102.12958	0.00754737	0.47891	7.44377	11.35884	1.10689	0.72538	1756.03694	56992.798	271.085	1247.114
1410.0	0.24636	0.75364	6.94312	7.79015	-1.56217	25.89188	30.47206	1.79986	0.5556	0.2098	98.34676	0.0716892	0.4633	7.47876	33.84367	1.09845	0.24273	1754.49815	55858.319	226.896	2170.255
1405.0	0.33265	0.66735	6.9607	7.77046	-1.81101	25.30941	30.76981	1.77715	0.5627	0.70921	95.30772	0.2445	0.45035	7.51419	94.47252	1.09002	0.0866986	1753.14292	54892.06	193.252	2925.68
1404.12	0.34595	0.65405	6.96344	7.76748	-1.84865	25.22317	30.81561	1.77358	0.56383	0.83189	94.84886	0.28718	0.44835	7.52067	109.705	1.08851	0.0746214	1752.92063	54738.935	 	3041.817
1400.0	0.42724	0.57276	6.97916	7.74998	-2.06978	24.69559	30.99012	1.75926	0.56842	1.62303	93.25618	0.56481	0.43678	7.54677	272.65794	1.08208	0.0299505	1750.399	53723.142	233.784	3884.265
1395.0	0.50682	0.49318	6.99507	7.73248	-2.29092	24.18034	31.15373	1.74479	0.57314	3.05134	91.84342	1.07037	0.42537	7.57962	588.3256	1.07417	0.013839	1747.68764	52692.861	206.056	4704.71
1390.0	0.57036	0.42964	7.00838	7.71781	-2.47629	23.75958	31.27506	1.73281	0.5771	4.99146	90.83049	1.76234	0.41615	7.61287	1020.78493	1.06628	0.00795214	1745.31655	51832.653	172.042	5355.578
1385.0	0.622	0.378	7.01971	7.70543	-2.6328	23.41532	31.3633	1.72274	0.58047	7.38423	90.10613	2.62115	0.40859	7.64715	1552.76622	1.05831	0.005212	1743.24167	51098.631	146.804	5880.75
1380.0	0.66462	0.33538	7.02957	7.69474	-2.76789	23.12779	31.4268	1.71408	0.5834	10.13217	89.59585	3.61273	0.40229	7.68213	2168.38291	1.05031	0.00372103	1741.4284	50460.322	127.662	6310.697
1375.0	0.70023	0.29977	7.03826	7.68536	-2.8863	22.88449	31.47085	1.7065	0.586	13.12643	89.24824	4.69818	0.39697	7.71808	2855.35039	1.04226	0.00281724	1739.84577	49895.984	112.868	6667.161
1370.0	0.73035	0.26965	7.04605	7.67696	-2.99257	22.67324	31.49915	1.69979	0.58831	16.26405	89.02605	5.84019	0.39242	7.75461	3604.87369	1.0342	0.00222471	1738.46984	49389.764	101.244	6965.987
1365.0	0.75609	0.24391	7.05315	7.66937	-3.08843	22.48953	31.515	1.69377	0.5904	19.45964	88.90385	7.00743	0.3885	7.79173	4411.77162	1.02614	0.00181229	1737.27542	48929.89	91.9748	7218.947
1360.0	0.77827	0.22173	7.05965	7.66246	-3.17573	22.32851	31.52064	1.6883	0.59231	22.64549	88.86144	8.1748	0.38508	7.82976	5273.11676	1.01804	0.00151163	1736.24191	48507.467	84.4846	7434.933
1355.0	0.79756	0.20244	7.06568	7.65606	-3.2566	22.18439	31.5177	1.68328	0.59408	25.77313	88.88362	9.3241	0.38207	7.8683	6188.02965	1.00995	0.00128419	1735.35394	48115.671	78.3592	7620.766
1353.32	0.80338	0.19662	7.06758	7.65406	-3.28191	22.14095	31.51495	1.6817	0.59464	26.78868	88.90416	9.69793	0.38116	7.88151	6503.71163	1.00722	0.0012206	1735.08097	47991.054	 	7676.438
1350.0	0.81687	0.18313	7.07241	7.64893	-3.34671	22.01307	31.51737	1.67813	0.5959	29.27658	88.90057	10.61485	0.37904	7.91007	7247.39638	1.00153	0.00109311	1734.65331	47719.885	79.1572	7811.059
1345.0	0.83477	0.16523	7.07912	7.64189	-3.43569	21.84362	31.51357	1.67317	0.59767	32.86873	88.95091	11.94184	0.3762	7.95398	8412.77101	0.99293	9.38786E-4	1734.12138	47338.216	76.3338	7987.702
1340.0	0.85018	0.14982	7.08525	7.63548	-3.5167	21.69562	31.50173	1.66862	0.5993	36.23956	89.05712	13.19028	0.37372	7.99849	9629.67547	0.98436	8.17617E-4	1733.70629	46983.97	70.8492	8137.388
1335.0	0.86354	0.13646	7.09093	7.62958	-3.59127	21.56494	31.48337	1.66442	0.60081	39.39247	89.20849	14.36068	0.37154	8.04337	10902.48604	0.97583	7.19926E-4	1733.39531	46651.972	66.3996	8265.289
1330.0	0.87522	0.12478	7.09622	7.62411	-3.66039	21.4489	31.45967	1.6605	0.60223	42.33932	89.39657	15.45684	0.3696	8.08922	12237.12891	0.96728	6.39413E-4	1733.17583	46338.248	62.7448	8375.376
1325.44	0.88492	0.11508	7.1009	7.61933	-3.72067	21.35027	31.43464	1.65709	0.60347	44.92115	89.59364	16.41894	0.36797	8.13155	13530.32387	0.95951	5.76655E-4	1733.0468	46063.315	 	8465.012
1325.0	0.88739	0.11261	7.10164	7.61856	-3.7305	21.32915	31.43731	1.65649	0.60368	45.56358	89.58973	16.6587	0.36756	8.13874	13764.529	0.9584	5.66687E-4	1732.96071	46017.298	64.19	8493.144
1320.0	0.91151	0.0884891	7.10932	7.61044	-3.83312	21.11428	31.45451	1.65041	0.60591	52.18325	89.62163	19.13506	0.36355	8.22155	16380.16018	0.94578	4.74707E-4	1732.15741	45540.97	95.2656	8766.745
1315.0	0.92857	0.0714282	7.11558	7.60386	-3.91625	20.95442	31.44896	1.64552	0.60771	57.30243	89.77451	21.05706	0.36065	8.30775	18816.69603	0.93303	4.11941E-4	1731.46789	45148.075	78.579	8957.366
1310.0	0.94111	0.0588909	7.12093	7.59825	-3.98705	20.82932	31.42872	1.6414	0.60924	61.35483	90.00308	22.58261	0.35845	8.39717	21152.37414	0.92019	3.653E-4	1730.87061	44808.569	67.9012	9095.045
1305.0	0.95062	0.0493768	7.12569	7.5933	-4.04971	20.72708	31.3986	1.63778	0.61058	64.64427	90.28115	23.82346	0.35674	8.48973	23447.90611	0.90728	3.28497E-4	1730.34858	44504.802	60.7534	9197.432
1300.0	0.95804	0.0419608	7.13002	7.58878	-4.1068	20.64042	31.36162	1.63452	0.6118	67.37935	90.59286	24.85684	0.35535	8.58525	25750.04747	0.89434	2.9818E-4	1729.8885	44225.897	55.781	9275.401
1295.0	0.96395	0.0360466	7.13407	7.58458	-4.15979	20.5652	31.31976	1.6315	0.61293	69.70303	90.92847	25.73589	0.3542	8.68368	28095.33162	0.8814	2.72421E-4	1729.47598	43964.867	52.206	9335.935
1290.0	0.96876	0.0312352	7.13791	7.58061	-4.21001	20.4976	31.27427	1.62866	0.614	71.71658	91.28102	26.49843	0.35322	8.78446	30513.5203	0.8685	2.50032E-4	1729.10835	43717.06	49.5614	9383.684
1285.0	0.97275	0.027255	7.14158	7.57681	-4.25798	20.43616	31.22609	1.62596	0.61502	73.49125	91.64634	27.1711	0.35238	8.888	33029.93499	0.85564	2.30244E-4	1728.77367	43479.292	47.5536	9421.831
1280.0	0.97609	0.0239121	7.14513	7.57315	-4.30422	20.37939	31.17586	1.62335	0.61601	75.08002	92.02131	27.77377	0.35164	8.99458	35667.50582	0.84279	2.12533E-4	1728.46492	43249.307	45.997	9452.629
1275.0	0.97893	0.0210675	7.14859	7.56959	-4.3492	20.32595	31.12401	1.62082	0.61697	76.52127	92.40366	28.32083	0.35097	9.10337	38446.89447	0.83004	1.96534E-4	1728.18184	43025.483	44.7648	9477.697
1270.0	0.98138	0.01862	7.15198	7.56611	-4.39317	20.27511	31.07086	1.61835	0.61791	77.84428	92.79184	28.82333	0.35037	9.21473	41388.4625	0.81736	1.81977E-4	1727.92112	42806.622	43.7722	9498.23
1265.0	0.98351	0.0164912	7.15531	7.5627	-4.43627	20.22651	31.01671	1.61592	0.61884	79.07119	93.18462	29.28957	0.34982	9.32868	44511.95729	0.80476	1.68659E-4	1727.67571	42591.83	42.9584	9515.122
1260.0	0.98538	0.014621	7.15859	7.55934	-4.47874	20.17942	30.96174	1.61353	0.61976	80.21977	93.581	29.72626	0.34931	9.44474	47837.8528	0.79228	1.56423E-4	1727.44902	42380.413	42.2834	9529.062
1255.0	0.98703	0.0129662	7.16183	7.55603	-4.5206	20.13381	30.9061	1.61116	0.62067	81.30325	93.98043	30.1384	0.34883	9.56379	51387.24699	0.77987	1.45143E-4	1727.23085	42171.839	41.7148	9540.58
1250.0	0.98851	0.0114894	7.16504	7.55275	-4.562	20.08925	30.84988	1.60882	0.62157	82.33213	94.38236	30.52993	0.34838	9.68539	55181.88001	0.76756	1.3472E-4	1727.02374	41965.689	41.23	9550.093
1245.0	0.98984	0.0101618	7.16823	7.54951	-4.60303	20.04544	30.7932	1.60649	0.62248	83.31576	94.78632	30.90441	0.34796	9.80914	59245.19015	0.75539	1.25069E-4	1726.83108	41761.631	40.8116	9557.932
1240.0	0.99104	0.00896057	7.17139	7.54629	-4.6437	20.00238	30.73612	1.60417	0.62338	84.26084	95.19196	31.26435	0.34755	9.93587	63602.07583	0.7433	1.16117E-4	1726.643	41559.393	40.4476	9564.373
1235.0	0.99213	0.00786709	7.17454	7.54309	-4.68413	19.95973	30.67873	1.60186	0.62427	85.17369	95.5989	31.61215	0.34717	10.06475	68279.0592	0.73135	1.07806E-4	1726.46749	41358.755	40.1276	9569.635
1230.0	0.99313	0.00686582	7.17767	7.53991	-4.72429	19.91753	30.62103	1.59956	0.62517	86.05816	96.00711	31.94926	0.34679	10.19629	73304.9316	0.71953	1.00082E-4	1726.29796	41159.538	39.8434	9573.901
1225.0	0.99405	0.00594539	7.18079	7.53675	-4.76425	19.87564	30.56311	1.59726	0.62607	86.91887	96.41624	32.27744	0.34643	10.33046	78710.58654	0.70782	9.28985E-5	1726.13573	40961.593	39.589	9577.314
1220.0	0.99491	0.0050944	7.1839	7.5336	-4.80402	19.83398	30.50493	1.59496	0.62697	87.75862	96.8263	32.59774	0.34608	10.46729	84530.40408	0.69623	8.62139E-5	1725.98029	40764.796	39.3594	9579.995
1215.0	0.9957	0.00430457	7.187	7.53047	-4.84364	19.79245	30.44662	1.59267	0.62788	88.58063	97.23688	32.91139	0.34574	10.60686	90799.74353	0.68477	7.99924E-5	1725.83328	40569.043	39.1506	9582.048
1210.0	0.99643	0.00356761	7.19009	7.52734	-4.88311	19.75104	30.38813	1.59037	0.62878	89.38723	97.64813	33.21927	0.34541	10.7492	97560.05474	0.67343	7.41993E-5	1725.6871	40374.245	38.9596	9583.558
1205.0	0.99712	0.00287731	7.19318	7.52423	-4.92246	19.70965	30.32951	1.58807	0.62969	90.18087	98.05983	33.5223	0.34509	10.89434	104854.4074	0.66222	6.88048E-5	1725.54789	40180.328	38.7834	9584.598
1200.0	0.99777	0.00222848	7.19626	7.52112	-4.96169	19.66831	30.27076	1.58577	0.63061	90.96212	98.47189	33.8207	0.34477	11.04241	112729.1617	0.65113	6.37819E-5	1725.4118	39987.226	38.6204	9585.23
1195.0	0.99838	0.00161594	7.19934	7.51802	-5.00084	19.62686	30.21189	1.58347	0.63152	91.73362	98.88421	34.11548	0.34446	11.19286	121237.6982	0.6402	5.91044E-5	1725.28487	39794.883	38.4686	9585.51
1191.25	0.99878	0.00121622	7.2016	7.51574	-5.02966	19.59736	30.16749	1.58175	0.63221	92.28998	99.19417	34.32811	0.34423	11.30796	128052.9673	0.63206	5.58156E-5	1725.18688	39651.034	 	9585.447
1191.25	0.99878	0.00121622	7.2016	7.51574	-5.02966	19.59736	30.16749	1.58175	0.63221	92.28998	99.19417	34.32811	0.34423	11.30797	128052.9854	0.63206	5.58156E-5	1725.18688	39651.034	 	9585.447
1190.0	0.99892	0.00107501	7.20236	7.51498	-5.03937	19.58706	30.15276	1.58117	0.63244	92.47873	99.29708	34.40027	0.34416	11.34694	130413.4498	0.62936	5.47587E-5	1725.1736	39603.305	38.3156	9585.429
1185.0	0.99948	5.2397E-4	7.20543	7.51189	-5.07834	19.54549	30.09372	1.57886	0.63337	93.23431	99.70984	34.68916	0.34385	11.50532	140363.5312	0.61857	5.07031E-5	1725.12829	39412.269	38.2072	9585.207
1180.0	1.0	0.0	7.2085	7.50881	-5.11723	19.50383	30.03461	1.57654	0.6343	93.98217	100.12268	34.97518	0.34355	 	151132.6179	 	4.69287E-5	 	39221.875	38.0788	9584.744
1175.0	1.0	0.0	7.2109	7.50631	-5.14882	19.48561	29.97346	1.57433	0.63519	94.49378	100.53838	35.17085	0.34335	 	162427.44	 	4.35152E-5	 	39030.467	38.2816	 
1170.0	1.0	0.0	7.2133	7.50382	-5.18036	19.46739	29.91231	1.5721	0.63609	95.00613	100.95379	35.36685	0.34315	 	174658.6237	 	4.03281E-5	 	38843.874	37.3186	 
1165.0	1.0	0.0	7.2157	7.50133	-5.21184	19.44918	29.85115	1.56986	0.637	95.51918	101.36888	35.56316	0.34295	 	187911.1614	 	3.73541E-5	 	38657.518	37.2712	 
1160.0	1.0	0.0	7.21809	7.49884	-5.24328	19.43098	29.79	1.56761	0.63791	96.03292	101.78364	35.75979	0.34275	 	202278.4107	 	3.45803E-5	 	38471.4	37.2236	 
1155.0	1.0	0.0	7.22048	7.49635	-5.27467	19.41278	29.72884	1.56536	0.63883	96.54732	102.19804	35.95673	0.34255	 	217862.9803	 	3.19946E-5	 	38285.523	37.1754	 
1150.0	1.0	0.0	7.22287	7.49388	-5.306	19.39459	29.66768	1.56309	0.63976	97.06237	102.61206	36.15397	0.34235	 	234777.7159	 	2.95856E-5	 	38099.892	37.1262	 
1145.0	1.0	0.0	7.22526	7.4914	-5.33729	19.37641	29.60652	1.56082	0.64069	97.57805	103.0257	36.3515	0.34215	 	253146.7998	 	2.73424E-5	 	37914.508	37.0768	 
1140.0	1.0	0.0	7.22765	7.48893	-5.36852	19.35823	29.54536	1.55854	0.64163	98.09433	103.43892	36.54931	0.34194	 	273106.975	 	2.52547E-5	 	37729.369	37.0278	 
1135.0	1.0	0.0	7.23003	7.48646	-5.39971	19.34006	29.4842	1.55624	0.64257	98.61119	103.8517	36.74741	0.34174	 	294808.9124	 	2.33128E-5	 	37544.474	36.979	 
1130.0	1.0	0.0	7.23241	7.484	-5.43084	19.3219	29.42303	1.55394	0.64353	99.12863	104.26404	36.94577	0.34154	 	318418.7352	 	2.15076E-5	 	37359.823	36.9302	 
1125.0	1.0	0.0	7.23479	7.48154	-5.46193	19.30375	29.36187	1.55163	0.64448	99.64661	104.6759	37.1444	0.34134	 	344119.7237	 	1.98304E-5	 	37175.413	36.882	 
1120.0	1.0	0.0	7.23716	7.47908	-5.49296	19.2856	29.3007	1.54931	0.64545	100.16512	105.08727	37.34328	0.34114	 	372114.2196	 	1.82729E-5	 	36991.243	36.834	 
1115.0	1.0	0.0	7.23954	7.47663	-5.52394	19.26745	29.23953	1.54698	0.64642	100.68413	105.49814	37.54241	0.34094	 	402625.7565	 	1.68276E-5	 	36807.311	36.7864	 
1110.0	1.0	0.0	7.24191	7.47418	-5.55488	19.24932	29.17836	1.54464	0.6474	101.20363	105.90848	37.74178	0.34074	 	435901.4454	 	1.5487E-5	 	36623.617	36.7388	 
1105.0	1.0	0.0	7.24427	7.47174	-5.58576	19.23119	29.11719	1.54229	0.64839	101.72361	106.31827	37.94139	0.34054	 	472214.6463	 	1.42444E-5	 	36440.158	36.6918	 
1100.0	1.0	0.0	7.24664	7.4693	-5.61659	19.21307	29.05602	1.53993	0.64938	102.24403	106.7275	38.14123	0.34033	 	511867.9638	 	1.30932E-5	 	36256.932	36.6452	 
1095.0	1.0	0.0	7.24901	7.46686	-5.64737	19.19495	28.99485	1.53755	0.65038	102.76488	107.13615	38.34129	0.34013	 	555196.6076	 	1.20275E-5	 	36073.939	36.5986	 
1090.0	1.0	0.0	7.25137	7.46443	-5.6781	19.17685	28.93367	1.53517	0.65139	103.28615	107.54421	38.54156	0.33993	 	602572.1653	 	1.10413E-5	 	35891.177	36.5524	 
1085.0	1.0	0.0	7.25373	7.462	-5.70879	19.15874	28.8725	1.53278	0.65241	103.80781	107.95164	38.74203	0.33973	 	654406.8413	 	1.01295E-5	 	35708.643	36.5068	 
1080.0	1.0	0.0	7.25608	7.45958	-5.73942	19.14065	28.81132	1.53038	0.65343	104.32984	108.35845	38.94271	0.33953	 	711158.2234	 	9.28681E-6	 	35526.336	36.4614	 
1075.0	1.0	0.0	7.25844	7.45716	-5.77	19.12256	28.75014	1.52797	0.65446	104.85222	108.7646	39.14358	0.33933	 	773334.6465	 	8.50859E-6	 	35344.255	36.4162	 
1070.0	1.0	0.0	7.26079	7.45474	-5.80053	19.10448	28.68896	1.52555	0.6555	105.37495	109.17009	39.34464	0.33913	 	841501.2324	 	7.79034E-6	 	35162.397	36.3716	 
1065.0	1.0	0.0	7.26314	7.45233	-5.83101	19.0864	28.62778	1.52312	0.65655	105.89799	109.57489	39.54587	0.33893	 	916286.6974	 	7.12788E-6	 	34980.761	36.3272	 
1060.0	1.0	0.0	7.26549	7.44992	-5.86144	19.06834	28.56659	1.52068	0.6576	106.42133	109.97899	39.74728	0.33872	 	998391.0307	 	6.51726E-6	 	34799.344	36.2834	 
1055.0	1.0	0.0	7.26784	7.44751	-5.89182	19.05028	28.50541	1.51823	0.65866	106.94495	110.38238	39.94885	0.33852	 	1088594.161	 	5.95481E-6	 	34618.146	36.2396	 
1050.0	1.0	0.0	7.27018	7.44511	-5.92215	19.03222	28.44422	1.51577	0.65973	107.46883	110.78503	40.15058	0.33832	 	1187765.75	 	5.43707E-6	 	34437.164	36.1964	 
1045.0	1.0	0.0	7.27252	7.44272	-5.95243	19.01417	28.38304	1.5133	0.66081	107.99295	111.18693	40.35246	0.33812	 	1296876.262	 	4.96081E-6	 	34256.395	36.1538	 
1040.0	1.0	0.0	7.27486	7.44033	-5.98267	18.99613	28.32185	1.51081	0.6619	108.5173	111.58806	40.55449	0.33792	 	1417009.493	 	4.52302E-6	 	34075.839	36.1112	 
1035.0	1.0	0.0	7.27719	7.43794	-6.01285	18.9781	28.26066	1.50832	0.66299	109.04186	111.98842	40.75665	0.33772	 	1549376.757	 	4.12085E-6	 	33895.492	36.0694	 
1030.0	1.0	0.0	7.27953	7.43555	-6.04298	18.96007	28.19946	1.50581	0.66409	109.5666	112.38797	40.95895	0.33752	 	1695332.973	 	3.75168E-6	 	33715.353	36.0278	 
1025.0	1.0	0.0	7.28186	7.43317	-6.07306	18.94205	28.13827	1.5033	0.6652	110.09152	112.78672	41.16137	0.33732	 	1856394.907	 	3.41304E-6	 	33535.42	35.9866	 
1020.0	1.0	0.0	7.28419	7.4308	-6.10309	18.92404	28.07708	1.50077	0.66632	110.61659	113.18463	41.36391	0.33711	 	2034261.886	 	3.10262E-6	 	33355.69	35.946	 
1015.0	1.0	0.0	7.28651	7.42842	-6.13307	18.90603	28.01588	1.49823	0.66745	111.14179	113.5817	41.56656	0.33691	 	2230839.347	 	2.81828E-6	 	33176.161	35.9058	 
1010.0	1.0	0.0	7.28884	7.42605	-6.163	18.88803	27.95468	1.49569	0.66859	111.66711	113.97792	41.76931	0.33671	 	2448265.608	 	2.55803E-6	 	32996.831	35.866	 
1005.0	1.0	0.0	7.29116	7.42369	-6.19289	18.87004	27.89348	1.49313	0.66974	112.19253	114.37326	41.97217	0.33651	 	2688942.356	 	2.31999E-6	 	32817.697	35.8268	 
1000.0	1.0	0.0	7.29348	7.42133	-6.22272	18.85205	27.83228	1.49056	0.67089	112.71803	114.76771	42.17511	0.33631	 	2955569.384	 	2.10245E-6	 	32638.757	35.788	 
995.0	1.0	0.0	7.2958	7.41897	-6.2525	18.83407	27.77108	1.48797	0.67205	113.24359	115.16125	42.37814	0.33611	 	3251184.204	 	1.90378E-6	 	32460.009	35.7496	 
990.0	1.0	0.0	7.29811	7.41662	-6.28224	18.8161	27.70987	1.48538	0.67323	113.7692	115.55388	42.58125	0.33591	 	3579207.279	 	1.72248E-6	 	32281.449	35.712	 
985.0	1.0	0.0	7.30042	7.41427	-6.31192	18.79813	27.64867	1.48278	0.67441	114.29484	115.94558	42.78442	0.33571	 	3943493.691	 	1.55718E-6	 	32103.075	35.6748	 
980.0	1.0	0.0	7.30273	7.41192	-6.34155	18.78017	27.58746	1.48016	0.6756	114.82049	116.33633	42.98767	0.3355	 	4348392.244	 	1.40657E-6	 	31924.885	35.638	 
975.0	1.0	0.0	7.30504	7.40958	-6.37114	18.76222	27.52625	1.47753	0.6768	115.34613	116.72611	43.19097	0.3353	 	4798813.123	 	1.26946E-6	 	31746.875	35.602	 
970.0	1.0	0.0	7.30735	7.40725	-6.40067	18.74427	27.46504	1.47489	0.67801	115.87174	117.11493	43.39432	0.3351	 	5300305.415	 	1.14475E-6	 	31569.044	35.5662	 
965.0	1.0	0.0	7.30965	7.40491	-6.43016	18.72633	27.40383	1.47224	0.67924	116.39732	117.50275	43.59772	0.3349	 	5859146.037	 	1.0314E-6	 	31391.387	35.5314	 
960.0	1.0	0.0	7.31195	7.40258	-6.45959	18.7084	27.34262	1.46958	0.68047	116.92283	117.88957	43.80116	0.3347	 	6482441.831	 	9.28462E-7	 	31213.902	35.497	 
955.0	1.0	0.0	7.31425	7.40026	-6.48898	18.69047	27.2814	1.46691	0.68171	117.44827	118.27537	44.00464	0.3345	 	7178246.898	 	8.35064E-7	 	31036.585	35.4634	 
950.0	1.0	0.0	7.31654	7.39794	-6.51831	18.67255	27.22019	1.46422	0.68296	117.97361	118.66014	44.20813	0.3343	 	7955697.583	 	7.50392E-7	 	30859.435	35.43	 
945.0	1.0	0.0	7.31884	7.39562	-6.5476	18.65464	27.15897	1.46152	0.68422	118.49885	119.04387	44.41165	0.3341	 	8825167.931	 	6.73697E-7	 	30682.447	35.3976	 
940.0	1.0	0.0	7.32113	7.3933	-6.57684	18.63674	27.09775	1.45881	0.68549	119.02395	119.42654	44.61518	0.3339	 	9798448.885	 	6.04288E-7	 	30505.617	35.366	 
935.0	1.0	0.0	7.32341	7.39099	-6.60603	18.61884	27.03653	1.45609	0.68677	119.54891	119.80814	44.81872	0.33369	 	1.088895509E7	 	5.41529E-7	 	30328.943	35.3348	 
930.0	1.0	0.0	7.3257	7.38869	-6.63517	18.60094	26.97531	1.45335	0.68806	120.07371	120.18866	45.02226	0.33349	 	1.211196378E7	 	4.84833E-7	 	30152.421	35.3044	 
925.0	1.0	0.0	7.32798	7.38639	-6.66426	18.58306	26.91408	1.45061	0.68937	120.59833	120.56808	45.22579	0.33329	 	1.348489107E7	 	4.33661E-7	 	29976.047	35.2748	 
920.0	1.0	0.0	7.33026	7.38409	-6.6933	18.56518	26.85286	1.44785	0.69068	121.12275	120.94639	45.42931	0.33309	 	1.502761177E7	 	3.87518E-7	 	29799.818	35.2458	 
915.0	1.0	0.0	7.33254	7.38179	-6.72229	18.54731	26.79163	1.44507	0.69201	121.64696	121.32358	45.63282	0.33289	 	1.676283008E7	 	3.45948E-7	 	29623.729	35.2178	 
910.0	1.0	0.0	7.33482	7.3795	-6.75123	18.52944	26.7304	1.44229	0.69334	122.17094	121.69962	45.83629	0.33269	 	1.871650966E7	 	3.08533E-7	 	29447.777	35.1904	 
905.0	1.0	0.0	7.33709	7.37722	-6.78012	18.51159	26.66917	1.43949	0.69469	122.69467	122.07452	46.03974	0.33249	 	2.091837322E7	 	2.7489E-7	 	29271.957	35.164	 
900.0	1.0	0.0	7.33936	7.37493	-6.80897	18.49373	26.60794	1.43668	0.69605	123.21814	122.44826	46.24314	0.33229	 	2.340248336E7	 	2.44669E-7	 	29096.264	35.1386	 
895.0	1.0	0.0	7.34163	7.37266	-6.83776	18.47589	26.54671	1.43386	0.69742	123.74132	122.82082	46.44651	0.33208	 	2.620791895E7	 	2.17547E-7	 	28920.696	35.1136	 
890.0	1.0	0.0	7.3439	7.37038	-6.86651	18.45805	26.48548	1.43102	0.6988	124.2642	123.1922	46.64982	0.33188	 	2.937956331E7	 	1.93231E-7	 	28745.246	35.09	 
885.0	1.0	0.0	7.34616	7.36811	-6.8952	18.44022	26.42424	1.42817	0.7002	124.78677	123.56238	46.85307	0.33168	 	3.296902406E7	 	1.71453E-7	 	28569.91	35.0672	 
880.0	1.0	0.0	7.34842	7.36584	-6.92385	18.42239	26.36301	1.42531	0.7016	125.309	123.93134	47.05626	0.33148	 	3.703570773E7	 	1.51968E-7	 	28394.684	35.0452	 
875.0	1.0	0.0	7.35068	7.36358	-6.95245	18.40458	26.30177	1.42243	0.70302	125.83089	124.29908	47.25938	0.33128	 	4.164807675E7	 	1.34552E-7	 	28219.562	35.0244	 
870.0	1.0	0.0	7.35294	7.36132	-6.98099	18.38677	26.24053	1.41954	0.70445	126.35241	124.66558	47.46243	0.33108	 	4.688512152E7	 	1.19002E-7	 	28044.539	35.0046	 
865.0	1.0	0.0	7.35519	7.35906	-7.00949	18.36896	26.1793	1.41664	0.7059	126.87354	125.03083	47.66539	0.33088	 	5.283808658E7	 	1.05133E-7	 	27869.609	34.986	 
860.0	1.0	0.0	7.35744	7.35681	-7.03795	18.35116	26.11806	1.41372	0.70735	127.39428	125.39482	47.86826	0.33068	 	5.961249715E7	 	9.27762E-8	 	27694.767	34.9684	 
855.0	1.0	0.0	7.35969	7.35457	-7.06635	18.33337	26.05682	1.41079	0.70882	127.9146	125.75754	48.07104	0.33047	 	6.733054133E7	 	8.17789E-8	 	27520.006	34.9522	 
850.0	1.0	0.0	7.36193	7.35232	-7.0947	18.31559	25.99557	1.40785	0.7103	128.43448	126.11898	48.27372	0.33027	 	7.613387414E7	 	7.20023E-8	 	27345.321	34.937	 
845.0	1.0	0.0	7.36418	7.35008	-7.123	18.29781	25.93433	1.40489	0.7118	128.95392	126.47912	48.47629	0.33007	 	8.618692209E7	 	6.33207E-8	 	27170.705	34.9232	 
840.0	1.0	0.0	7.36642	7.34785	-7.15126	18.28004	25.87309	1.40192	0.71331	129.47289	126.83795	48.67874	0.32987	 	9.768078295E7	 	5.562E-8	 	26996.152	34.9106	 
835.0	1.0	0.0	7.36866	7.34561	-7.17947	18.26228	25.81185	1.39893	0.71483	129.99138	127.19546	48.88108	0.32967	 	1.10837834E8	 	4.87975E-8	 	26821.655	34.8994	 
830.0	1.0	0.0	7.37089	7.34338	-7.20762	18.24452	25.75061	1.39593	0.71637	130.50937	127.55164	49.08329	0.32947	 	1.259171847E8	 	4.27599E-8	 	26647.205	34.89	 
825.0	1.0	0.0	7.37313	7.34116	-7.23573	18.22677	25.68936	1.39292	0.71792	131.02685	127.90649	49.28536	0.32927	 	1.432211375E8	 	3.74232E-8	 	26472.797	34.8816	 
820.0	1.0	0.0	7.37536	7.33894	-7.26379	18.20903	25.62812	1.38989	0.71948	131.54379	128.25998	49.4873	0.32907	 	1.631028535E8	 	3.27118E-8	 	26298.422	34.875	 
815.0	1.0	0.0	7.37759	7.33672	-7.2918	18.19129	25.56688	1.38685	0.72106	132.06019	128.6121	49.68909	0.32887	 	1.859754605E8	 	2.85575E-8	 	26124.071	34.8702	 
810.0	1.0	0.0	7.37981	7.33451	-7.31977	18.17356	25.50563	1.38379	0.72265	132.57602	128.96285	49.89073	0.32866	 	2.123228906E8	 	2.48988E-8	 	25949.736	34.867	 
805.0	1.0	0.0	7.38204	7.3323	-7.34768	18.15584	25.44439	1.38072	0.72426	133.09128	129.31222	50.09222	0.32846	 	2.427127929E8	 	2.16807E-8	 	25775.408	34.8656	 
800.0	1.0	0.0	7.38426	7.3301	-7.37555	18.13812	25.38315	1.37763	0.72588	133.60594	129.66019	50.29354	0.32826	 	2.778119432E8	 	1.88537E-8	 	25601.078	34.866	 
795.0	1.0	0.0	7.38647	7.32789	-7.40336	18.12041	25.32191	1.37453	0.72752	134.11998	130.00675	50.49469	0.32806	 	3.184046584E8	 	1.63734E-8	 	25426.735	34.8686	 
790.0	1.0	0.0	7.38869	7.3257	-7.43113	18.10271	25.26067	1.37141	0.72918	134.6334	130.3519	50.69567	0.32786	 	3.654148358E8	 	1.42002E-8	 	25252.37	34.873	 
785.0	1.0	0.0	7.3909	7.3235	-7.45885	18.08501	25.19943	1.36828	0.73085	135.14618	130.69562	50.89646	0.32766	 	4.199323704E8	 	1.22986E-8	 	25077.97	34.88	 
780.0	1.0	0.0	7.39311	7.32131	-7.48652	18.06732	25.13819	1.36513	0.73253	135.6583	131.0379	51.09707	0.32746	 	4.832448678E8	 	1.06368E-8	 	24903.525	34.889	 
775.0	1.0	0.0	7.39532	7.31913	-7.51414	18.04964	25.07695	1.36197	0.73423	136.16974	131.37874	51.29748	0.32726	 	5.568757742E8	 	9.18654E-9	 	24729.022	34.9006	 
770.0	1.0	0.0	7.39753	7.31695	-7.54172	18.03196	25.01571	1.35879	0.73595	136.68049	131.71812	51.4977	0.32705	 	6.426302943E8	 	7.92268E-9	 	24554.449	34.9146	 
765.0	1.0	0.0	7.39973	7.31477	-7.56924	18.01429	24.95447	1.35559	0.73768	137.19053	132.05602	51.69771	0.32685	 	7.426507747E8	 	6.82279E-9	 	24379.791	34.9316	 
760.0	1.0	0.0	7.40193	7.31259	-7.59672	17.99663	24.89324	1.35238	0.73944	137.69985	132.39245	51.8975	0.32665	 	8.594836131E8	 	5.86695E-9	 	24205.035	34.9512	 
755.0	1.0	0.0	7.40413	7.31042	-7.62415	17.97898	24.83201	1.34916	0.7412	138.20843	132.72739	52.09708	0.32645	 	9.961602249E8	 	5.03749E-9	 	24030.164	34.9742	 
750.0	1.0	0.0	7.40632	7.30826	-7.65153	17.96133	24.77077	1.34591	0.74299	138.71626	133.06084	52.29644	0.32625	 	1.156295182E9	 	4.31874E-9	 	23855.163	35.0002	 
745.0	1.0	0.0	7.40852	7.30609	-7.67886	17.94368	24.70954	1.34266	0.74479	139.22332	133.39277	52.49557	0.32605	 	1.344205367E9	 	3.69686E-9	 	23680.014	35.0298	 
740.0	1.0	0.0	7.41071	7.30393	-7.70614	17.92605	24.64831	1.33938	0.74661	139.72959	133.72319	52.69446	0.32585	 	1.565054891E9	 	3.15959E-9	 	23504.699	35.063	 
735.0	1.0	0.0	7.41289	7.30178	-7.73338	17.90842	24.58709	1.33609	0.74845	140.23507	134.05208	52.8931	0.32565	 	1.825031651E9	 	2.69613E-9	 	23329.198	35.1002	 
730.0	1.0	0.0	7.41508	7.29963	-7.76057	17.8908	24.52586	1.33278	0.75031	140.73973	134.37944	53.0915	0.32544	 	2.131562806E9	 	2.29697E-9	 	23153.489	35.1418	 
725.0	1.0	0.0	7.41726	7.29748	-7.78771	17.87318	24.46463	1.32946	0.75219	141.24355	134.70525	53.28965	0.32524	 	2.493578237E9	 	1.95371E-9	 	22977.552	35.1874	 
720.0	1.0	0.0	7.41944	7.29533	-7.8148	17.85557	24.40341	1.32612	0.75408	141.74653	135.0295	53.48754	0.32504	 	2.92183323E9	 	1.659E-9	 	22801.36	35.2384	 
715.0	1.0	0.0	7.42162	7.29319	-7.84184	17.83797	24.34218	1.32276	0.756	142.24865	135.35219	53.68516	0.32484	 	3.42930445E9	 	1.40638E-9	 	22624.888	35.2944	 
710.0	1.0	0.0	7.42379	7.29106	-7.86883	17.82038	24.28096	1.31939	0.75793	142.74989	135.67331	53.88252	0.32464	 	4.031676732E9	 	1.1902E-9	 	22448.109	35.3558	 
705.0	1.0	0.0	7.42597	7.28893	-7.89578	17.80279	24.21974	1.31599	0.75988	143.25024	135.99285	54.07959	0.32444	 	4.747942655E9	 	1.00551E-9	 	22270.991	35.4236	 
700.0	1.0	0.0	7.42813	7.2868	-7.92268	17.78521	24.15852	1.31258	0.76186	143.74968	136.31079	54.27638	0.32424	 	5.601142449E9	 	8.47988E-10	 	22093.503	35.4976	 
695.0	1.0	0.0	7.4303	7.28467	-7.94953	17.76763	24.09729	1.30916	0.76385	144.2482	136.62713	54.47289	0.32404	 	6.619278837E9	 	7.13869E-10	 	21915.608	35.579	 
690.0	1.0	0.0	7.43247	7.28255	-7.97633	17.75007	24.03607	1.30571	0.76586	144.74577	136.94187	54.66909	0.32384	 	7.836450412E9	 	5.99876E-10	 	21737.268	35.668	 
685.0	1.0	0.0	7.43463	7.28043	-8.00308	17.73251	23.97485	1.30225	0.7679	145.2424	137.25498	54.865	0.32363	 	9.29425855E9	 	5.03159E-10	 	21558.442	35.7652	 
680.0	1.0	0.0	7.43679	7.27832	-8.02979	17.71495	23.91363	1.29877	0.76996	145.73806	137.56647	55.0606	0.32343	 	1.10436E10	 	4.21249E-10	 	21379.084	35.8716	 
675.0	1.0	0.0	7.43894	7.27621	-8.05645	17.6974	23.8524	1.29528	0.77204	146.23273	137.87633	55.25589	0.32323	 	1.3146599999999998E10	 	3.52005E-10	 	21199.144	35.988	 
670.0	1.0	0.0	7.4411	7.27411	-8.08306	17.67986	23.79117	1.29176	0.77414	146.72641	138.18454	55.45087	0.32303	 	1.5679899999999998E10	 	2.93578E-10	 	21018.567	36.1154	 
665.0	1.0	0.0	7.44325	7.272	-8.10962	17.66233	23.72994	1.28823	0.77626	147.21907	138.4911	55.64551	0.32283	 	1.87375E10	 	2.4437E-10	 	20837.294	36.2546	 
660.0	1.0	0.0	7.44539	7.2699	-8.13613	17.6448	23.66871	1.28468	0.7784	147.71071	138.796	55.83983	0.32263	 	2.24351E10	 	2.03006E-10	 	20655.258	36.4072	 
655.0	1.0	0.0	7.44754	7.26781	-8.1626	17.62728	23.60748	1.28111	0.78057	148.2013	139.09923	56.03382	0.32243	 	2.6915999999999996E10	 	1.68304E-10	 	20472.388	36.574	 
650.0	1.0	0.0	7.44968	7.26572	-8.18902	17.60977	23.54624	1.27752	0.78277	148.69084	139.40078	56.22746	0.32223	 	3.2357099999999996E10	 	1.39248E-10	 	20288.603	36.757	 
645.0	1.0	0.0	7.45182	7.26363	-8.21539	17.59226	23.485	1.27392	0.78498	149.1793	139.70065	56.42076	0.32203	 	3.89781E10	 	1.14969E-10	 	20103.815	36.9576	 
640.0	1.0	0.0	7.45396	7.26155	-8.24171	17.57476	23.42375	1.27029	0.78722	149.66668	139.99883	56.6137	0.32182	 	4.705199999999999E10	 	9.47219E-11	 	19917.925	37.178	 
635.0	1.0	0.0	7.4561	7.25947	-8.26798	17.55727	23.3625	1.26665	0.78949	150.15296	140.2953	56.80629	0.32162	 	5.691899999999999E10	 	7.7873E-11	 	19730.823	37.4204	 
630.0	1.0	0.0	7.45823	7.25739	-8.29421	17.53978	23.30124	1.26299	0.79177	150.63811	140.59007	56.99851	0.32142	 	6.90038E10	 	6.38813E-11	 	19542.388	37.687	 
625.0	1.0	0.0	7.46036	7.25532	-8.32039	17.5223	23.23998	1.2593	0.79409	151.12214	140.88312	57.19036	0.32122	 	8.38379E10	 	5.22872E-11	 	19352.482	37.9812	 
620.0	1.0	0.0	7.46249	7.25326	-8.34652	17.50483	23.17871	1.2556	0.79643	151.60503	141.17444	57.38184	0.32102	 	1.02088E11	 	4.27008E-11	 	19160.954	38.3056	 
615.0	1.0	0.0	7.46461	7.25119	-8.37261	17.48736	23.11743	1.25189	0.7988	152.08675	141.46403	57.57293	0.32082	 	1.24593E11	 	3.4792E-11	 	18957.791	40.6326	 
610.0	1.0	0.0	7.46673	7.24913	-8.39864	17.4699	23.05615	1.24815	0.80119	152.5673	141.75189	57.76364	0.32062	 	1.5241E11	 	2.82819E-11	 	18750.523	41.4536	 
605.0	1.0	0.0	7.46885	7.24707	-8.42463	17.45245	22.99486	1.24439	0.80361	153.04666	142.03799	57.95396	0.32042	 	1.86874E11	 	2.29354E-11	 	18545.182	41.0682	 
600.0	1.0	0.0	7.47097	7.24502	-8.45057	17.435	22.93356	1.24061	0.80606	153.52482	142.32234	58.14388	0.32021	 	2.29678E11	 	1.85548E-11	 	18341.697	40.697	 
595.0	1.0	0.0	7.47308	7.24297	-8.47647	17.41756	22.87225	1.23681	0.80853	154.00176	142.60493	58.3334	0.32001	 	2.82971E11	 	1.49741E-11	 	18139.998	40.3398	 
590.0	1.0	0.0	7.47519	7.24093	-8.50231	17.40013	22.81093	1.23299	0.81103	154.47746	142.88575	58.52251	0.31981	 	3.4949E11	 	1.20542E-11	 	17940.021	39.9954	 
585.0	1.0	0.0	7.4773	7.23888	-8.52811	17.3827	22.74961	1.22916	0.81357	154.95193	143.1648	58.7112	0.31961	 	4.32729E11	 	9.67909E-12	 	17741.704	39.6634	 
580.0	1.0	0.0	7.47941	7.23685	-8.55386	17.36528	22.68827	1.2253	0.81613	155.42513	143.44206	58.89948	0.31941	 	5.3716E11	 	7.7519E-12	 	17544.991	39.3426	 
575.0	1.0	0.0	7.48151	7.23481	-8.57957	17.34787	22.62693	1.22142	0.81872	155.89706	143.71753	59.08733	0.31921	 	6.68527E11	 	6.19213E-12	 	17349.825	39.0332	 
570.0	1.0	0.0	7.48361	7.23278	-8.60522	17.33046	22.56558	1.21752	0.82134	156.3677	143.9912	59.27474	0.31901	 	8.34221E11	 	4.93299E-12	 	17156.156	38.7338	 
565.0	1.0	0.0	7.48571	7.23076	-8.63083	17.31307	22.50422	1.2136	0.82399	156.83704	144.26307	59.46172	0.31881	 	1.04378E12	 	3.91922E-12	 	16963.933	38.4446	 
560.0	1.0	0.0	7.4878	7.22873	-8.6564	17.29567	22.44284	1.20966	0.82668	157.30506	144.53313	59.64826	0.31861	 	1.30956E12	 	3.10516E-12	 	16773.111	38.1644	 
555.0	1.0	0.0	7.48989	7.22671	-8.68191	17.27829	22.38146	1.2057	0.8294	157.77175	144.80137	59.83435	0.3184	 	1.64759E12	 	2.45327E-12	 	16583.644	37.8934	 
550.0	1.0	0.0	7.49198	7.2247	-8.70738	17.26091	22.32007	1.20171	0.83214	158.2371	145.06778	60.01999	0.3182	 	2.07876E12	 	1.93268E-12	 	16395.492	37.6304	 
545.0	1.0	0.0	7.49407	7.22269	-8.7328	17.24354	22.25867	1.19771	0.83493	158.70109	145.33236	60.20517	0.318	 	2.63035E12	 	1.51812E-12	 	16208.613	37.3758	 
540.0	1.0	0.0	7.49615	7.22068	-8.75817	17.22617	22.19727	1.19368	0.83774	159.16371	145.59511	60.38989	0.3178	 	3.33808E12	 	1.18894E-12	 	16022.972	37.1282	 
535.0	1.0	0.0	7.49823	7.21867	-8.78349	17.20881	22.13585	1.18963	0.84059	159.62495	145.85601	60.57414	0.3176	 	4.24893E12	 	9.28323E-13	 	15838.531	36.8882	 
530.0	1.0	0.0	7.50031	7.21667	-8.80877	17.19146	22.07442	1.18556	0.84348	160.08478	146.11506	60.75791	0.3174	 	5.42482E12	 	7.226E-13	 	15655.256	36.655	 
525.0	1.0	0.0	7.50239	7.21468	-8.834	17.17412	22.01299	1.18147	0.8464	160.54321	146.37225	60.9412	0.3172	 	6.94766E12	 	5.60703E-13	 	15473.116	36.428	 
520.0	1.0	0.0	7.50446	7.21268	-8.85919	17.15678	21.95155	1.17736	0.84936	161.0002	146.62758	61.12401	0.317	 	8.92615E12	 	4.33689E-13	 	15292.079	36.2074	 
515.0	1.0	0.0	7.50653	7.21069	-8.88432	17.13945	21.8901	1.17322	0.85236	161.45576	146.88104	61.30632	0.3168	 	1.1505E13	 	3.34355E-13	 	15112.117	35.9924	 
510.0	1.0	0.0	7.5086	7.20871	-8.90941	17.12212	21.82865	1.16906	0.85539	161.90987	147.13263	61.48814	0.31659	 	1.48778E13	 	2.56918E-13	 	14933.202	35.783	 
505.0	1.0	0.0	7.51066	7.20673	-8.93446	17.10481	21.76719	1.16487	0.85846	162.36251	147.38233	61.66946	0.31639	 	1.93036E13	 	1.96748E-13	 	14755.306	35.5792	 
500.0	1.0	0.0	7.51273	7.20475	-8.95945	17.08749	21.70572	1.16067	0.86157	162.81367	147.63015	61.85027	0.31619	 	2.51316E13	 	1.50152E-13	 	14578.406	35.38	 
495.0	1.0	0.0	7.51479	7.20277	-8.9844	17.07019	21.64424	1.15644	0.86473	163.26333	147.87608	62.03057	0.31599	 	3.2833E13	 	1.14188E-13	 	14402.477	35.1858	 
490.0	1.0	0.0	7.51684	7.2008	-9.0093	17.05289	21.58277	1.15218	0.86792	163.7115	148.12011	62.21036	0.31579	 	4.30466E13	 	8.65283E-14	 	14227.495	34.9964	 
485.0	1.0	0.0	7.5189	7.19884	-9.03416	17.0356	21.52128	1.1479	0.87115	164.15814	148.36223	62.38962	0.31559	 	5.66414E13	 	6.53292E-14	 	14053.44	34.811	 
480.0	1.0	0.0	7.52095	7.19687	-9.05897	17.01832	21.4598	1.1436	0.87443	164.60325	148.60244	62.56835	0.31539	 	7.48047E13	 	4.91404E-14	 	13880.291	34.6298	 
475.0	1.0	0.0	7.523	7.19491	-9.08373	17.00104	21.3983	1.13927	0.87775	165.04682	148.84074	62.74655	0.31519	 	9.91641E13	 	3.68231E-14	 	13708.027	34.4528	 
470.0	1.0	0.0	7.52504	7.19296	-9.10844	16.98377	21.33681	1.13492	0.88112	165.48883	149.07712	62.92422	0.31499	 	1.3195999999999998E14	 	2.74865E-14	 	13536.63	34.2794	 
465.0	1.0	0.0	7.52708	7.19101	-9.13311	16.96651	21.27531	1.13054	0.88453	165.92927	149.31158	63.10134	0.31478	 	1.7629E14	 	2.04363E-14	 	13366.082	34.1096	 
460.0	1.0	0.0	7.52912	7.18906	-9.15773	16.94925	21.21381	1.12614	0.88799	166.36813	149.5441	63.27791	0.31458	 	2.36453E14	 	1.51333E-14	 	13196.365	33.9434	 
455.0	1.0	0.0	7.53116	7.18711	-9.1823	16.932	21.15231	1.12171	0.8915	166.80539	149.77469	63.45393	0.31438	 	3.1844E14	 	1.11604E-14	 	13027.462	33.7806	 
450.0	1.0	0.0	7.5332	7.18517	-9.20683	16.91476	21.09081	1.11726	0.89505	167.24105	150.00334	63.62939	0.31418	 	4.30638E14	 	8.19602E-15	 	12859.358	33.6208	 
445.0	1.0	0.0	7.53523	7.18324	-9.23131	16.89752	21.0293	1.11278	0.89865	167.67508	150.23004	63.80429	0.31398	 	5.8484E14	 	5.99328E-15	 	12692.039	33.4638	 
440.0	1.0	0.0	7.53726	7.1813	-9.25574	16.88029	20.9678	1.10827	0.90231	168.10748	150.45479	63.97862	0.31378	 	7.97702E14	 	4.36342E-15	 	12525.488	33.3102	 
435.0	1.0	0.0	7.53928	7.17937	-9.28013	16.86307	20.90629	1.10374	0.90601	168.53824	150.67759	64.15238	0.31358	 	1.09285E15	 	3.16265E-15	 	12359.692	33.1592	 
430.0	1.0	0.0	7.54131	7.17745	-9.30447	16.84585	20.84479	1.09918	0.90977	168.96734	150.89844	64.32556	0.31338	 	1.50398E15	 	2.28189E-15	 	12194.638	33.0108	 
425.0	1.0	0.0	7.54333	7.17552	-9.32876	16.82864	20.78328	1.09459	0.91358	169.39478	151.11731	64.49816	0.31318	 	2.07931E15	 	1.63876E-15	 	12030.313	32.865	 
420.0	1.0	0.0	7.54534	7.1736	-9.35301	16.81144	20.72178	1.08998	0.91745	169.82053	151.33423	64.67018	0.31297	 	2.8883E15	 	1.17131E-15	 	11866.704	32.7218	 
415.0	1.0	0.0	7.54736	7.17169	-9.37721	16.79424	20.66027	1.08534	0.92137	170.24459	151.54917	64.8416	0.31277	 	4.03135E15	 	8.33142E-16	 	11703.801	32.5806	 
410.0	1.0	0.0	7.54937	7.16978	-9.40136	16.77705	20.59877	1.08067	0.92535	170.66695	151.76213	65.01242	0.31257	 	5.65448E15	 	5.89672E-16	 	11541.59	32.4422	 
405.0	1.0	0.0	7.55138	7.16787	-9.42547	16.75987	20.53726	1.07597	0.92939	171.08759	151.97312	65.18264	0.31237	 	7.97101E15	 	4.1524E-16	 	11380.062	32.3056	 
400.0	1.0	0.0	7.55339	7.16597	-9.44953	16.74269	20.47576	1.07125	0.93349	171.50651	152.18212	65.35226	0.31217	 	1.12944E16	 	2.90896E-16	 	11219.205	32.1714	 
395.0	1.0	0.0	7.55539	7.16406	-9.47355	16.72552	20.41426	1.06649	0.93765	171.92369	152.38914	65.52127	0.31197	 	1.60874E16	 	2.02709E-16	 	11059.011	32.0388	 
390.0	1.0	0.0	7.55739	7.16217	-9.49751	16.70836	20.35276	1.06171	0.94188	172.33912	152.59416	65.68966	0.31177	 	2.30378E16	 	1.40494E-16	 	10899.468	31.9086	 
385.0	1.0	0.0	7.55939	7.16028	-9.52143	16.6912	20.29126	1.0569	0.94616	172.75279	152.7972	65.85743	0.31157	 	3.3172300000000004E16	 	9.68358E-17	 	10740.567	31.7802	 
380.0	1.0	0.0	7.56138	7.15839	-9.54531	16.67406	20.22976	1.05206	0.95052	173.16469	152.99824	66.02458	0.31137	 	4.80337E16	 	6.63673E-17	 	10582.3	31.6534	 
375.0	1.0	0.0	7.56338	7.1565	-9.56914	16.65691	20.16826	1.04719	0.95494	173.57481	153.19728	66.1911	0.31116	 	6.9953100000000008E16	 	4.52226E-17	 	10424.657	31.5286	 
370.0	1.0	0.0	7.56537	7.15462	-9.59292	16.63978	20.10676	1.04229	0.95943	173.98314	153.39432	66.35699	0.31096	 	1.02475E17	 	3.06324E-17	 	10267.631	31.4052	 
365.0	1.0	0.0	7.56735	7.15274	-9.61666	16.62265	20.04526	1.03736	0.96399	174.38967	153.58935	66.52225	0.31076	 	1.51021E17	 	2.0624E-17	 	10111.212	31.2838	 
360.0	1.0	0.0	7.56934	7.15086	-9.64035	16.60553	19.98377	1.0324	0.96862	174.79438	153.78238	66.68686	0.31056	 	2.23937E17	 	1.37996E-17	 	9955.393	31.1638	 
355.0	1.0	0.0	7.57132	7.14899	-9.66399	16.58841	19.92227	1.02741	0.97332	175.19728	153.9734	66.85083	0.31036	 	3.34155E17	 	9.17491E-18	 	9800.166	31.0454	 
350.0	1.0	0.0	7.5733	7.14713	-9.68759	16.5713	19.86078	1.02238	0.97811	175.59834	154.1624	67.01415	0.31016	 	5.01845E17	 	6.06051E-18	 	9645.525	30.9282	 
345.0	1.0	0.0	7.57527	7.14526	-9.71114	16.5542	19.79929	1.01733	0.98296	175.99757	154.3494	67.17682	0.30996	 	7.58679E17	 	3.9767E-18	 	9491.461	30.8128	 
340.0	1.0	0.0	7.57725	7.1434	-9.73464	16.53711	19.73779	1.01225	0.9879	176.39494	154.53438	67.33883	0.30976	 	1.15473E18	 	2.59162E-18	 	9337.969	30.6984	 
335.0	1.0	0.0	7.57921	7.14155	-9.7581	16.52002	19.6763	1.00713	0.99292	176.79046	154.71734	67.50018	0.30956	 	1.76976E18	 	1.67719E-18	 	9185.04	30.5858	 
330.0	1.0	0.0	7.58118	7.13969	-9.78151	16.50294	19.61481	1.00198	0.99802	177.18411	154.89829	67.66087	0.30935	 	2.73168E18	 	1.07766E-18	 	9032.67	30.474	 
325.0	1.0	0.0	7.58315	7.13784	-9.80488	16.48586	19.55332	0.9968	1.00321	177.57589	155.07722	67.82089	0.30915	 	4.24723E18	 	6.87371E-19	 	8880.851	30.3638	 
320.0	1.0	0.0	7.58511	7.136	-9.8282	16.4688	19.49182	0.99158	1.00849	177.96578	155.25413	67.98024	0.30895	 	6.65304E18	 	4.35142E-19	 	8729.577	30.2548	 
315.0	1.0	0.0	7.58707	7.13416	-9.85148	16.45173	19.43033	0.98634	1.01385	178.35378	155.42902	68.13892	0.30875	 	1.05016E19	 	2.73349E-19	 	8578.844	30.1466	 
310.0	1.0	0.0	7.58902	7.13232	-9.8747	16.43468	19.36884	0.98106	1.01931	178.73988	155.60189	68.29692	0.30855	 	1.6707E19	 	1.7036E-19	 	8428.644	30.04	 
305.0	1.0	0.0	7.59097	7.13048	-9.89789	16.41763	19.30735	0.97574	1.02486	179.12407	155.77274	68.45424	0.30835	 	2.6794E19	 	1.05315E-19	 	8278.974	29.934	 
300.0	1.0	0.0	7.59292	7.12865	-9.92102	16.40059	19.24585	0.9704	1.03051	179.50635	155.94157	68.61088	0.30815	 	4.33273E19	 	6.45645E-20	 	8129.826	29.8296	 
295.0	1.0	0.0	7.59487	7.12683	-9.94411	16.38356	19.18436	0.96501	1.03625	179.88671	156.10838	68.76683	0.30795	 	7.06586E19	 	3.9245E-20	 	7981.197	29.7258	 
290.0	1.0	0.0	7.59681	7.125	-9.96716	16.36653	19.12287	0.9596	1.0421	180.26514	156.27318	68.92209	0.30775	 	1.1623799999999998E20	 	2.36463E-20	 	7833.082	29.623	 
285.0	1.0	0.0	7.59875	7.12318	-9.99016	16.34951	19.06137	0.95415	1.04806	180.64164	156.43595	69.07666	0.30754	 	1.92934E20	 	1.41198E-20	 	7685.474	29.5216	 
280.0	1.0	0.0	7.60069	7.12136	-10.01311	16.3325	18.99987	0.94866	1.05412	181.0162	156.59671	69.23054	0.30734	 	3.23188E20	 	8.35363E-21	 	7538.371	29.4206	 
275.0	1.0	0.0	7.60263	7.11955	-10.03602	16.31549	18.93838	0.94314	1.06029	181.38882	156.75546	69.38372	0.30714	 	5.4650399999999993E20	 	4.89545E-21	 	7391.768	29.3206	 
270.0	1.0	0.0	7.60456	7.11774	-10.05888	16.29849	18.87688	0.93758	1.06658	181.75949	156.9122	69.53621	0.30694	 	9.331199999999999E20	 	2.84099E-21	 	7245.66	29.2216	 
265.0	1.0	0.0	7.60649	7.11594	-10.0817	16.28149	18.81538	0.93198	1.07298	182.12821	157.06693	69.68799	0.30674	 	1.6091800000000001E21	 	1.63225E-21	 	7100.042	29.1236	 
260.0	1.0	0.0	7.60842	7.11414	-10.10447	16.26451	18.75388	0.92635	1.0795	182.49497	157.21965	69.83907	0.30654	 	2.80359E21	 	9.28157E-22	 	6954.913	29.0258	 
255.0	1.0	0.0	7.61034	7.11234	-10.12719	16.24753	18.69238	0.92068	1.08615	182.85978	157.37037	69.98945	0.30634	 	4.936230000000001E21	 	5.22214E-22	 	6810.266	28.9294	 
250.0	1.0	0.0	7.61226	7.11054	-10.14987	16.23055	18.63087	0.91498	1.09292	183.22262	157.51909	70.13912	0.30614	 	8.7857E21	 	2.90627E-22	 	6666.1	28.8332	 
245.0	1.0	0.0	7.61418	7.10875	-10.1725	16.21359	18.56937	0.90923	1.09983	183.58349	157.66581	70.28809	0.30594	 	1.58123E22	 	1.59937E-22	 	6522.409	28.7382	 
240.0	1.0	0.0	7.61609	7.10696	-10.19509	16.19663	18.50786	0.90345	1.10686	183.9424	157.81055	70.43634	0.30573	 	2.8786499999999996E22	 	8.70045E-23	 	6379.192	28.6434	 
235.0	1.0	0.0	7.61801	7.10518	-10.21763	16.17968	18.44635	0.89763	1.11404	184.29934	157.9533	70.5839	0.30553	 	5.3028499999999996E22	 	4.67702E-23	 	6236.444	28.5496	 
230.0	1.0	0.0	7.61992	7.1034	-10.24013	16.16273	18.38485	0.89177	1.12136	184.65432	158.09408	70.73074	0.30533	 	9.88793E22	 	2.48358E-23	 	6094.163	28.4562	 
225.0	1.0	0.0	7.62182	7.10162	-10.26258	16.14579	18.32334	0.88588	1.12883	185.00733	158.23288	70.87687	0.30513	 	1.8669699999999997E23	 	1.3023E-23	 	5952.346	28.3634	 
220.0	1.0	0.0	7.62373	7.09985	-10.28498	16.12886	18.26182	0.87994	1.13644	185.35837	158.36972	71.0223	0.30493	 	3.5708299999999996E23	 	6.74056E-24	 	5810.99	28.2712	 
215.0	1.0	0.0	7.62563	7.09808	-10.30734	16.11193	18.20031	0.87396	1.14422	185.70744	158.5046	71.16702	0.30473	 	6.921089999999999E23	 	3.44243E-24	 	5670.092	28.1796	 
210.0	1.0	0.0	7.62752	7.09631	-10.32966	16.09501	18.13879	0.86794	1.15215	186.05456	158.63752	71.31103	0.30453	 	1.35997E24	 	1.73396E-24	 	5529.65	28.0884	 
205.0	1.0	0.0	7.62942	7.09455	-10.35192	16.0781	18.07728	0.86188	1.16025	186.39971	158.76851	71.45433	0.30433	 	2.7103500000000003E24	 	8.61046E-25	 	5389.663	27.9974	 
200.0	1.0	0.0	7.63131	7.09279	-10.37415	16.06119	18.01576	0.85578	1.16852	186.74291	158.89757	71.59693	0.30413	 	5.48089E24	 	4.21342E-25	 	5250.126	27.9074	 
195.0	1.0	0.0	7.6332	7.09104	-10.39633	16.04429	17.95424	0.84964	1.17697	187.08416	159.02471	71.73882	0.30393	 	1.12516E25	 	2.03076E-25	 	5111.04	27.8172	 
190.0	1.0	0.0	7.63509	7.08929	-10.41846	16.0274	17.89271	0.84346	1.1856	187.42347	159.14993	71.88002	0.30372	 	2.34596E25	 	9.63579E-26	 	4972.402	27.7276	 
185.0	1.0	0.0	7.63697	7.08754	-10.44055	16.01052	17.83119	0.83723	1.19441	187.76084	159.27326	72.02051	0.30352	 	4.97046E25	 	4.49881E-26	 	4834.21	27.6384	 
180.0	1.0	0.0	7.63885	7.08579	-10.46259	15.99364	17.76966	0.83096	1.20343	188.09628	159.3947	72.16031	0.30332	 	1.0707000000000001E26	 	2.06566E-26	 	4696.463	27.5494	 
175.0	1.0	0.0	7.64073	7.08405	-10.48458	15.97677	17.70814	0.82465	1.21264	188.4298	159.51428	72.29941	0.30312	 	2.3462900000000003E26	 	9.32243E-27	 	4559.16	27.4606	 
170.0	1.0	0.0	7.6426	7.08232	-10.50654	15.9599	17.64661	0.81829	1.22206	188.76142	159.63199	72.43783	0.30292	 	5.2333800000000003E26	 	4.1329E-27	 	4422.299	27.3722	 
165.0	1.0	0.0	7.64447	7.08058	-10.52844	15.94304	17.58508	0.81189	1.2317	189.09114	159.74787	72.57556	0.30272	 	1.18888E27	 	1.79876E-27	 	4285.881	27.2836	 
160.0	1.0	0.0	7.64634	7.07885	-10.5503	15.92619	17.52354	0.80544	1.24155	189.41897	159.86192	72.71261	0.30252	 	2.75246E27	 	7.68077E-28	 	4149.904	27.1954	 
155.0	1.0	0.0	7.6482	7.07713	-10.57212	15.90935	17.46201	0.79895	1.25164	189.74494	159.97416	72.84898	0.30232	 	6.49861E27	 	3.2156E-28	 	4014.368	27.1072	 
150.0	1.0	0.0	7.65007	7.0754	-10.59389	15.89251	17.40047	0.79241	1.26197	190.06906	160.08462	72.98468	0.30212	 	1.56581E28	 	1.31899E-28	 	3879.272	27.0192	 
145.0	1.0	0.0	7.65193	7.07368	-10.61562	15.87568	17.33894	0.78583	1.27254	190.39134	160.19331	73.11973	0.30192	 	3.8529400000000003E28	 	5.29697E-29	 	3744.617	26.931	 
140.0	1.0	0.0	7.65378	7.07197	-10.6373	15.85885	17.2774	0.7792	1.28337	190.71181	160.30026	73.25412	0.30171	 	9.689710000000001E28	 	2.08106E-29	 	3610.404	26.8426	 
135.0	1.0	0.0	7.65564	7.07026	-10.65893	15.84203	17.21585	0.77252	1.29447	191.03049	160.40549	73.38786	0.30151	 	2.49255E29	 	7.99213E-30	 	3476.631	26.7546	 
130.0	1.0	0.0	7.65749	7.06855	-10.68052	15.82522	17.15431	0.76579	1.30584	191.3474	160.50902	73.52096	0.30131	 	6.563810000000001E29	 	2.99776E-30	 	3343.301	26.666	 
125.0	1.0	0.0	7.65933	7.06684	-10.70207	15.80842	17.09276	0.75902	1.31749	191.66256	160.61089	73.65343	0.30111	 	1.77105E30	 	1.09724E-30	 	3210.415	26.5772	 
120.0	1.0	0.0	7.66118	7.06514	-10.72357	15.79162	17.03122	0.75219	1.32944	191.97601	160.71111	73.78529	0.30091	 	4.90084E30	 	3.91538E-31	 	3077.972	26.4886	 
115.0	1.0	0.0	7.66302	7.06344	-10.74502	15.77483	16.96967	0.74532	1.3417	192.28778	160.80973	73.91654	0.30071	 	1.3921899999999998E31	 	1.36078E-31	 	2945.976	26.3992	 
110.0	1.0	0.0	7.66486	7.06175	-10.76643	15.75805	16.90812	0.7384	1.35428	192.5979	160.90677	74.04719	0.30051	 	4.06409E31	 	4.60143E-32	 	2814.429	26.3094	 
105.0	1.0	0.0	7.66669	7.06006	-10.7878	15.74127	16.84657	0.73143	1.36719	192.9064	161.00226	74.17727	0.30031	 	1.22048E32	 	1.51224E-32	 	2683.331	26.2196	 
100.0	1.0	0.0	7.66853	7.05837	-10.80912	15.7245	16.78501	0.7244	1.38045	193.21332	161.09625	74.30677	0.30011	 	3.7748299999999996E32	 	4.82472E-33	 	2552.687	26.1288	 
95.0	1.0	0.0	7.67036	7.05669	-10.8304	15.70774	16.72346	0.71733	1.39407	193.51871	161.18877	74.43573	0.2999	 	1.20388E33	 	1.49254E-33	 	2422.499	26.0376	 
90.0	1.0	0.0	7.67218	7.05501	-10.85163	15.69098	16.6619	0.7102	1.40806	193.82261	161.27987	74.56415	0.2997	 	3.96407E33	 	4.47127E-34	 	2292.77	25.9458	 
85.0	1.0	0.0	7.67401	7.05333	-10.87281	15.67423	16.60034	0.70302	1.42244	194.12507	161.36959	74.69206	0.2995	 	1.34943E34	 	1.29539E-34	 	2163.504	25.8532	 
80.0	1.0	0.0	7.67583	7.05166	-10.89395	15.65748	16.53878	0.69578	1.43723	194.42614	161.45798	74.81948	0.2993	 	4.75579E34	 	3.62429E-35	 	2034.706	25.7596	 
75.0	1.0	0.0	7.67765	7.04999	-10.91505	15.64075	16.47721	0.68849	1.45244	194.72587	161.54509	74.94642	0.2991	 	1.7378399999999998E35	 	9.77785E-36	 	1906.38	25.6652	 
70.0	1.0	0.0	7.67946	7.04832	-10.9361	15.62402	16.41565	0.68115	1.4681	195.02434	161.63097	75.07291	0.2989	 	6.59474E35	 	2.53964E-36	 	1778.532	25.5696	 
65.0	1.0	0.0	7.68127	7.04666	-10.95711	15.60729	16.35408	0.67375	1.48422	195.32161	161.71568	75.19898	0.2987	 	2.60324E36	 	6.3399E-37	 	1651.166	25.4732	 
60.0	1.0	0.0	7.68308	7.045	-10.97807	15.59058	16.29251	0.6663	1.50083	195.61774	161.79929	75.32465	0.2985	 	1.0708499999999999E37	 	1.51844E-37	 	1524.29	25.3752	 
55.0	1.0	0.0	7.68489	7.04334	-10.99899	15.57387	16.23094	0.65879	1.51794	195.91281	161.88186	75.44995	0.2983	 	4.599E37	 	3.48254E-38	 	1397.91	25.276	 
50.0	1.0	0.0	7.68669	7.04169	-11.01987	15.55717	16.16937	0.65122	1.53558	196.20691	161.96347	75.57491	0.2981	 	2.06625E38	 	7.63322E-39	 	1272.034	25.1752	 
45.0	1.0	0.0	7.68849	7.04004	-11.04069	15.54047	16.10779	0.6436	1.55377	196.50013	162.04418	75.69958	0.29789	 	9.73224E38	 	1.59553E-39	 	1146.671	25.0726	 
40.0	1.0	0.0	7.69029	7.0384	-11.06148	15.52378	16.04621	0.63591	1.57254	196.79255	162.12408	75.82397	0.29769	 	4.81654E39	 	3.17325E-40	 	1021.828	24.9686	 
35.0	1.0	0.0	7.69208	7.03676	-11.08222	15.50709	15.98463	0.62817	1.59193	197.08429	162.20327	75.94815	0.29749	 	2.5107E40	 	5.99037E-41	 	897.516	24.8624	 
30.0	1.0	0.0	7.69387	7.03512	-11.10291	15.49042	15.92305	0.62037	1.61195	197.37546	162.28182	76.07214	0.29729	 	1.3820100000000002E41	 	1.07062E-41	 	773.747	24.7538	 
25.0	1.0	0.0	7.69566	7.03349	-11.12357	 	15.86147	0.6125	1.63264	197.66618	162.35985	76.19599	0.29709	 	8.05504E41	 	1.80657E-42	 	650.53	 	 
