T (C)	Fraction solid (wt)-TOTAL	Fraction liquid (wt)-LIQUID	Density (g/(cm)^3)-TOTAL	Molar volume (cm^3)-TOTAL	Volume change (%)-  	Average expansion coeff. (10e-6 1/K)-  	Thermal conductivity (W/(m*K))-TOTAL	Electrical resistivity (10e-6 Ohm*m)-TOTAL	Electrical conductivity (10e6 1/(Ohm*m))-TOTAL	Young's modulus (GPa)-TOTAL	Bulk modulus (GPa)-TOTAL	Shear modulus(GPa)-TOTAL	Poisson's ratio-TOTAL	Liquid viscosity (mPa s)-  	Total viscosity (mPa s)-  	Liquid diffusivity (10e-9 (m^2)/s)-  	Total diffusivity (10e-9 (m^2)/s)-  	Surface Tension (mN/m)-  	Enthalpy (J/mole)-TOTAL	Specific heat (J/(mole K))-TOTAL	Latent heat (J/mole)-TOTAL
1500.0	0.0	1.0	6.94525	7.85756	0.0	26.33025	31.37283	1.84166	0.54299	0.0	105.59738	0.0	0.49975	6.69851	6.69851	1.29197	1.29197	1763.2272	64816.719	 	0.0
1495.0	0.0	1.0	6.94914	7.85317	-0.0558861	26.27831	31.29847	1.84083	0.54323	0.0	105.78373	0.0	0.49975	6.75688	6.75688	1.2772	1.2772	1765.0023	64595.017	44.3404	0.0
1490.0	0.0	1.0	6.95301	7.84879	-0.11162	26.22642	31.22411	1.84	0.54348	0.0	105.97007	0.0	0.49975	6.81608	6.81608	1.26253	1.26253	1766.77412	64373.83	44.2374	0.0
1485.0	0.0	1.0	6.95688	7.84442	-0.16719	26.17457	31.14976	1.83916	0.54373	0.0	106.15642	0.0	0.49975	6.87615	6.87615	1.24795	1.24795	1768.54261	64153.154	44.1352	0.0
1480.0	0.0	1.0	6.96075	7.84007	-0.22261	26.12276	31.0754	1.83832	0.54398	0.0	106.34276	0.0	0.49975	6.9371	6.9371	1.23347	1.23347	1770.30775	63932.986	44.0336	0.0
1475.0	0.0	1.0	6.96461	7.83573	-0.27787	26.071	31.00104	1.83747	0.54423	0.0	106.52911	0.0	0.49975	6.99894	6.99894	1.21908	1.21908	1772.06949	63713.322	43.9328	0.0
1470.0	0.0	1.0	6.96846	7.8314	-0.33298	26.01927	30.92668	1.83662	0.54448	0.0	106.71545	0.0	0.49975	7.06169	7.06169	1.20479	1.20479	1773.8278	63494.16	43.8324	0.0
1465.0	0.0	1.0	6.9723	7.82708	-0.38794	25.96759	30.85233	1.83576	0.54473	0.0	106.9018	0.0	0.49975	7.12537	7.12537	1.1906	1.1906	1775.58263	63275.496	43.7328	0.0
1460.0	0.0	1.0	6.97614	7.82277	-0.44273	25.91595	30.77797	1.83491	0.54499	0.0	107.08814	0.0	0.49975	7.18999	7.18999	1.17651	1.17651	1777.33395	63057.326	43.634	0.0
1455.0	0.0	1.0	6.97997	7.81848	-0.49737	25.86436	30.70361	1.83404	0.54524	0.0	107.27449	0.0	0.49975	7.25558	7.25558	1.16251	1.16251	1779.08171	62839.648	43.5356	0.0
1450.0	0.0	1.0	6.98379	7.8142	-0.55186	25.81281	30.62926	1.83318	0.5455	0.0	107.46083	0.0	0.49975	7.32215	7.32215	1.14861	1.14861	1780.82587	62622.483	43.433	0.0
1445.0	0.0	1.0	6.98761	7.80993	-0.60619	25.76131	30.5549	1.83231	0.54576	0.0	107.64718	0.0	0.49975	7.38973	7.38973	1.1348	1.1348	1782.56639	62405.866	43.3234	0.0
1441.9	0.0	1.0	6.98998	7.80729	-0.63982	25.72936	30.50877	1.83176	0.54592	0.0	107.76277	0.0	0.49975	7.43217	7.43217	1.12628	1.12628	1783.64424	62271.753	43.2395	0.012
1440.0	0.0690802	0.93092	7.00223	7.79351	-0.81514	25.30275	30.74264	1.81582	0.55072	0.00126518	105.16165	4.2466E-4	0.48964	7.44369	8.22632	1.12329	1.01643	1783.01461	61579.203	364.813	610.584
1435.0	0.22244	0.77756	7.03002	7.76279	-1.20614	24.36043	31.27054	1.77995	0.56181	0.13912	99.44693	0.047415	0.46705	7.47434	18.78508	1.11542	0.44381	1781.48273	60012.088	313.423	1962.161
1430.0	0.33963	0.66037	7.052	7.73858	-1.51417	23.63118	31.67763	1.75193	0.5708	0.77046	95.16559	0.26574	0.44962	7.50557	61.76795	1.10753	0.13458	1780.10214	58769.929	248.432	2989.315
1425.0	0.43136	0.56864	7.06989	7.7191	-1.76212	23.05645	31.99778	1.72931	0.57826	2.03848	91.90364	0.70985	0.43586	7.53707	149.78277	1.09966	0.0553351	1778.8528	57756.806	202.625	3787.963
1420.0	0.50465	0.49535	7.08479	7.7029	-1.96834	22.58892	32.25163	1.71065	0.58457	3.87558	89.38313	1.36007	0.42478	7.56884	282.68225	1.09182	0.0292337	1777.72318	56909.826	169.396	4420.997
1419.06	0.51649	0.48351	7.08725	7.70029	-2.00146	22.51572	32.29218	1.70755	0.58563	4.26395	88.98723	1.49825	0.42298	7.57502	311.64782	1.09033	0.0265019	1777.51777	56767.712	 	4522.923
1415.0	0.59077	0.40923	7.10118	7.68528	-2.1926	22.06973	32.45385	1.69497	0.58998	7.10035	87.6656	2.51364	0.41236	7.59665	606.2045	1.08461	0.0135919	1775.21814	55826.203	216.725	5291.196
1410.0	0.66116	0.33884	7.11502	7.67045	-2.38127	21.6424	32.59459	1.68265	0.5943	11.28809	86.5758	4.02513	0.4022	7.62358	1067.69466	1.07758	0.00769418	1772.65697	54891.223	186.996	6013.27
1405.0	0.71466	0.28534	7.12618	7.65864	-2.53163	21.31531	32.68839	1.67284	0.59778	15.85779	85.88723	5.68625	0.3944	7.65115	1598.55434	1.07051	0.00512378	1770.33637	54135.885	151.068	6556.22
1400.0	0.75624	0.24376	7.13545	7.64889	-2.6557	21.05701	32.74854	1.66479	0.60067	20.49287	85.46968	7.38078	0.38826	7.67931	2171.48387	1.06341	0.00376067	1768.22833	53506.635	125.85	6973.593
1395.0	0.7892	0.2108	7.14337	7.6406	-2.76121	20.84722	32.78399	1.65802	0.60313	24.98253	85.24259	9.02985	0.38333	7.7078	2770.12783	1.05631	0.00293915	1766.30946	52968.393	107.648	7300.466
1390.0	0.81583	0.18417	7.15028	7.63345	-2.85212	20.67574	32.80125	1.65219	0.60526	29.21736	85.15368	10.59137	0.3793	7.73726	3387.0931	1.04913	0.00239657	1764.55186	52496.9	94.2986	7561.095
1385.0	0.83774	0.16226	7.15647	7.62705	-2.93358	20.52882	32.80462	1.64705	0.60715	33.16752	85.16476	12.05274	0.37593	7.76696	4021.21646	1.04198	0.00201258	1762.9458	52074.854	84.4092	7772.781
1380.0	0.85603	0.14397	7.16211	7.62128	-3.007	20.4029	32.79733	1.64245	0.60885	36.8219	85.25297	13.40849	0.37308	7.79728	4672.47983	1.0348	0.00172684	1761.46952	51690.804	76.81	7946.968
1375.0	0.87148	0.12852	7.1673	7.616	-3.07421	20.29319	32.78155	1.63827	0.6104	40.189	85.40089	14.66071	0.37064	7.8285	5342.07796	1.02755	0.00150582	1760.11006	51336.482	70.8644	8091.924
1370.0	0.88467	0.11533	7.17216	7.6111	-3.13655	20.19614	32.75903	1.63442	0.61184	43.29218	85.59576	15.81724	0.36851	7.86031	6032.92251	1.02029	0.00132934	1758.85569	51005.791	66.1382	8213.741
1365.0	0.89605	0.10395	7.17675	7.6065	-3.19515	20.10873	32.73101	1.63084	0.61318	46.15557	85.82766	16.8864	0.36665	7.89266	6748.04009	1.01302	0.00118485	1757.69844	50694.157	62.3268	8316.992
1360.0	0.90592	0.0940791	7.18112	7.60213	-3.2508	20.02892	32.6984	1.62749	0.61444	48.80282	86.08999	17.87651	0.365	7.92552	7490.73511	1.00574	0.00106411	1756.63066	50398.086	59.2142	8405.166
1355.43	0.9138	0.0862049	7.18491	7.59835	-3.29885	19.9633	32.66534	1.62458	0.61555	51.03196	86.35112	18.71143	0.36366	7.95636	8192.85635	0.99904	9.70198E-4	1755.71818	50139.636	 	8474.039
1355.0	0.91473	0.0852657	7.18538	7.59788	-3.30485	19.95296	32.66292	1.62427	0.61566	51.2989	86.37068	18.81148	0.3635	7.95975	8269.28991	0.99835	9.60977E-4	1755.74208	50113.023	57.0126	8482.815
1350.0	0.92492	0.0750757	7.19061	7.59274	-3.37032	19.84436	32.63266	1.62078	0.61699	54.27998	86.61852	19.92981	0.36178	8.00199	9179.70521	0.99003	8.63012E-4	1756.03024	49811.896	60.2254	8577.011
1345.0	0.93362	0.0663824	7.19547	7.58799	-3.43066	19.74939	32.59759	1.61753	0.61823	56.97888	86.89889	20.94387	0.36028	8.04446	10119.08726	0.98177	7.80484E-4	1756.36073	49527.104	56.9584	8655.348
1340.0	0.9411	0.0588977	7.20003	7.58358	-3.48689	19.66534	32.55861	1.61446	0.6194	59.436	87.20505	21.86836	0.35895	8.08767	11093.31986	0.9735	7.09741E-4	1756.73002	49255.445	54.3318	8721.027
1335.0	0.9476	0.0524015	7.20435	7.57941	-3.53987	19.58988	32.51639	1.61154	0.62052	61.68633	87.53224	22.71609	0.35777	8.13124	12108.3271	0.96529	6.4823E-4	1757.13714	48994.485	52.192	8776.48
1330.0	0.95328	0.0467222	7.20846	7.57548	-3.58994	19.52215	32.47153	1.60875	0.6216	63.75813	87.87693	23.49739	0.35671	8.17556	13170.09906	0.95707	5.94117E-4	1757.57168	48742.341	50.4288	8823.584
1325.0	0.95827	0.0417269	7.21241	7.57172	-3.63778	19.46029	32.4244	1.60607	0.62264	65.67632	88.23602	24.22147	0.35575	8.22032	14284.74114	0.94889	5.46049E-4	1758.03648	48497.544	48.9594	8863.81
1320.0	0.96269	0.0373063	7.21622	7.56811	-3.68368	19.40352	32.37539	1.60346	0.62365	67.4603	88.60699	24.89549	0.35487	8.26589	15458.04978	0.94071	5.03024E-4	1758.52706	48258.925	47.7238	8898.321
1315.0	0.96662	0.0333752	7.2199	7.56464	-3.72789	19.35117	32.32475	1.60094	0.62463	69.12793	88.98839	25.52605	0.35407	8.31232	16696.68921	0.93251	4.64246E-4	1759.03856	48025.548	46.6754	8928.05
1310.0	0.97014	0.029862	7.22348	7.56127	-3.77075	19.30235	32.27271	1.59847	0.6256	70.69388	89.37846	26.11859	0.35333	8.35936	18007.31865	0.92435	4.29101E-4	1759.57172	47796.656	45.7784	8953.752
1305.0	0.97329	0.0267093	7.22698	7.558	-3.8124	19.25662	32.21948	1.59605	0.62655	72.17037	89.77592	26.67766	0.35264	8.4073	19396.54746	0.91618	3.9711E-4	1760.12344	47571.63	45.0052	8976.044
1300.0	0.97613	0.0238676	7.2304	7.5548	-3.8531	19.21334	32.16518	1.59368	0.62748	73.56826	90.17974	27.2073	0.352	8.45585	20871.95677	0.90803	3.67869E-4	1760.69621	47349.958	44.3344	8995.434
1295.0	0.9787	0.0212971	7.23375	7.55167	-3.89289	19.1724	32.10998	1.59135	0.6284	74.89659	90.58901	27.71087	0.35139	8.50539	22441.26516	0.89987	3.41057E-4	1761.28294	47131.215	43.7486	9012.345
1290.0	0.98104	0.0189637	7.23704	7.54861	-3.93188	19.13347	32.05398	1.58905	0.62931	76.16395	91.00324	28.1916	0.35083	8.55608	24113.02081	0.89169	3.16399E-4	1761.88138	46915.046	43.2338	9027.13
1285.0	0.98316	0.0168366	7.24029	7.5456	-3.97021	19.09618	31.99727	1.58677	0.63021	77.37658	91.42157	28.6518	0.35029	8.60754	25895.88084	0.88352	2.93674E-4	1762.49346	46701.151	42.779	9040.083
1280.0	0.98511	0.0148921	7.24349	7.54263	-4.00795	19.06032	31.93995	1.58452	0.63111	78.54138	91.84361	29.09407	0.34978	8.66014	27799.81952	0.87534	2.72683E-4	1763.11689	46489.276	42.375	9051.461
1275.0	0.98689	0.0131087	7.24665	7.53971	-4.04521	19.02564	31.88206	1.58228	0.632	79.66318	92.26875	29.52021	0.3493	8.7136	29834.98343	0.86717	2.53264E-4	1763.75278	46279.205	42.0142	9061.475
1270.0	0.98853	0.0114656	7.24978	7.53682	-4.08199	18.99208	31.82371	1.58007	0.63289	80.74716	92.6967	29.93216	0.34884	8.76837	32012.64599	0.85897	2.35274E-4	1764.39626	46070.751	41.6908	9070.308
1265.0	0.99005	0.00994549	7.25288	7.53395	-4.11841	18.95935	31.76491	1.57786	0.63377	81.79889	93.12717	30.33204	0.34839	8.82405	34345.65711	0.85078	2.18582E-4	1765.05139	45863.755	41.3992	9078.119
1260.0	0.99148	0.00851722	7.25596	7.53112	-4.15452	18.92731	31.70584	1.57566	0.63465	82.82805	93.55938	30.7235	0.34796	8.88153	36849.18712	0.84253	2.03069E-4	1765.70843	45658.082	41.1346	9085.039
1255.0	0.99283	0.00717052	7.25904	7.5283	-4.19041	18.89565	31.64648	1.57347	0.63554	83.83741	93.99325	31.1076	0.34754	8.93965	39538.05386	0.83432	1.88642E-4	1766.37857	45453.626	40.8912	9091.171
1250.0	0.9941	0.00589818	7.2621	7.5255	-4.22605	18.86449	31.58685	1.57128	0.63642	84.82903	94.42873	31.4851	0.34713	8.99961	42428.04649	0.82605	1.75217E-4	1767.04873	45250.293	40.6666	9096.608
1245.0	0.99531	0.00469091	7.26515	7.52271	-4.2615	18.83368	31.527	1.5691	0.63731	85.80491	94.86556	31.85676	0.34673	9.06078	45535.97878	0.81778	1.62722E-4	1767.72465	45047.999	40.4588	9101.431
1244.4	0.99551	0.004489	7.26556	7.52236	-4.26598	18.82921	31.51993	1.56883	0.63742	85.94493	94.91763	31.91011	0.34667	9.06813	45936.3257	0.81679	1.61241E-4	1767.80744	45023.442	 	9102.417
1240.0	0.99733	0.00267053	7.2685	7.51926	-4.30547	18.77648	31.46894	1.56681	0.63824	87.16152	95.3147	32.37473	0.34614	9.2703	49072.52416	0.79666	1.50498E-4	1766.54648	44826.201	44.3596	9126.189
1235.0	0.99885	0.00114725	7.27172	7.51586	-4.34866	18.72122	31.41051	1.56454	0.63916	88.33605	95.76388	32.82335	0.34563	9.50218	52787.14475	0.77465	1.39445E-4	1765.28548	44610.807	43.0788	9144.973
1230.0	1.0	0.0	7.27485	7.51257	-4.39061	18.66935	31.35164	1.56228	0.64009	89.36549	96.21185	33.2166	0.34519	 	56712.2318	 	1.29364E-4	 	44401.496	41.8622	9158.106
1225.0	1.0	0.0	7.27719	7.51015	-4.42136	18.65177	31.28961	1.56017	0.64095	89.89485	96.65533	33.41839	0.34499	 	60638.48348	 	1.20585E-4	 	44170.484	46.2024	 
1220.0	1.0	0.0	7.27952	7.50774	-4.45206	18.6342	31.22758	1.55806	0.64183	90.42547	97.099	33.62071	0.34479	 	64867.26174	 	1.12348E-4	 	43979.312	38.2344	 
1215.0	1.0	0.0	7.28186	7.50533	-4.48271	18.61664	31.16554	1.55593	0.6427	90.95733	97.54284	33.82355	0.34459	 	69424.15254	 	1.04622E-4	 	43788.378	38.1868	 
1210.0	1.0	0.0	7.28419	7.50292	-4.51331	18.59908	31.1035	1.55379	0.64359	91.49038	97.98681	34.0269	0.34438	 	74337.09277	 	9.73792E-5	 	43597.698	38.136	 
1205.0	1.0	0.0	7.28653	7.50052	-4.54386	18.58152	31.04147	1.55165	0.64447	92.02462	98.43089	34.23075	0.34418	 	79636.60309	 	9.05926E-5	 	43407.274	38.0848	 
1200.0	1.0	0.0	7.28885	7.49813	-4.57437	18.56397	30.97943	1.5495	0.64537	92.56001	98.87505	34.43509	0.34398	 	85356.04541	 	8.42363E-5	 	43217.107	38.0334	 
1195.0	1.0	0.0	7.29118	7.49573	-4.60483	18.54642	30.91739	1.54734	0.64627	93.09653	99.31926	34.63991	0.34378	 	91531.9079	 	7.82861E-5	 	43027.195	37.9824	 
1190.0	1.0	0.0	7.29351	7.49334	-4.63523	18.52888	30.85534	1.54517	0.64718	93.63415	99.7635	34.8452	0.34357	 	98204.12064	 	7.27187E-5	 	42837.537	37.9316	 
1185.0	1.0	0.0	7.29583	7.49096	-4.66559	18.51134	30.7933	1.54299	0.64809	94.17285	100.20773	35.05096	0.34337	 	105416.4053	 	6.7512E-5	 	42648.13	37.8814	 
1180.0	1.0	0.0	7.29815	7.48858	-4.6959	18.4938	30.73125	1.54081	0.64901	94.7126	100.65194	35.25716	0.34317	 	113216.6629	 	6.26451E-5	 	42458.974	37.8312	 
1175.0	1.0	0.0	7.30047	7.4862	-4.72617	18.47627	30.66921	1.53861	0.64994	95.25338	101.0961	35.46382	0.34297	 	121657.4041	 	5.80981E-5	 	42270.067	37.7814	 
1170.0	1.0	0.0	7.30278	7.48383	-4.75638	18.45875	30.60716	1.53641	0.65087	95.79517	101.54018	35.67091	0.34276	 	130796.2266	 	5.38521E-5	 	42081.407	37.732	 
1165.0	1.0	0.0	7.3051	7.48145	-4.78655	18.44123	30.54511	1.53419	0.65181	96.33793	101.98415	35.87843	0.34256	 	140696.3461	 	4.98894E-5	 	41892.993	37.6828	 
1160.0	1.0	0.0	7.30741	7.47909	-4.81666	18.42371	30.48306	1.53197	0.65275	96.88165	102.42799	36.08636	0.34236	 	151427.1854	 	4.61928E-5	 	41704.824	37.6338	 
1155.0	1.0	0.0	7.30972	7.47673	-4.84673	18.4062	30.421	1.52974	0.65371	97.4263	102.87167	36.29471	0.34216	 	163065.0311	 	4.27464E-5	 	41516.896	37.5856	 
1150.0	1.0	0.0	7.31203	7.47437	-4.87675	18.38869	30.35895	1.5275	0.65466	97.97185	103.31518	36.50345	0.34195	 	175693.7633	 	3.95349E-5	 	41329.21	37.5372	 
1145.0	1.0	0.0	7.31433	7.47201	-4.90673	18.37119	30.29689	1.52525	0.65563	98.51829	103.75847	36.71259	0.34175	 	189405.6688	 	3.6544E-5	 	41141.762	37.4896	 
1140.0	1.0	0.0	7.31663	7.46966	-4.93665	18.35369	30.23484	1.52299	0.6566	99.06558	104.20154	36.92211	0.34155	 	204302.3478	 	3.37599E-5	 	40954.552	37.442	 
1135.0	1.0	0.0	7.31893	7.46731	-4.96652	18.33619	30.17278	1.52073	0.65758	99.6137	104.64435	37.132	0.34135	 	220495.7241	 	3.11699E-5	 	40767.578	37.3948	 
1130.0	1.0	0.0	7.32123	7.46497	-4.99635	18.3187	30.11072	1.51845	0.65857	100.16264	105.08688	37.34226	0.34114	 	238109.1739	 	2.87617E-5	 	40580.837	37.3482	 
1125.0	1.0	0.0	7.32353	7.46263	-5.02613	18.30122	30.04865	1.51617	0.65956	100.71236	105.52911	37.55288	0.34094	 	257278.7853	 	2.65238E-5	 	40394.329	37.3016	 
1120.0	1.0	0.0	7.32582	7.46029	-5.05586	18.28374	29.98659	1.51387	0.66056	101.26284	105.97101	37.76384	0.34074	 	278154.7663	 	2.44455E-5	 	40208.05	37.2558	 
1115.0	1.0	0.0	7.32811	7.45796	-5.08554	18.26626	29.92452	1.51157	0.66157	101.81406	106.41256	37.97514	0.34054	 	300903.0197	 	2.25163E-5	 	40021.999	37.2102	 
1110.0	1.0	0.0	7.3304	7.45563	-5.11518	18.24879	29.86246	1.50925	0.66258	102.36599	106.85374	38.18677	0.34033	 	325706.9053	 	2.07266E-5	 	39836.175	37.1648	 
1105.0	1.0	0.0	7.33269	7.45331	-5.14476	18.23132	29.80039	1.50693	0.6636	102.91862	107.29452	38.39873	0.34013	 	352769.2137	 	1.90674E-5	 	39650.574	37.1202	 
1100.0	1.0	0.0	7.33497	7.45099	-5.1743	18.21386	29.73832	1.50459	0.66463	103.47191	107.73488	38.61099	0.33993	 	382314.3788	 	1.75301E-5	 	39465.196	37.0756	 
1095.0	1.0	0.0	7.33725	7.44867	-5.20379	18.1964	29.67624	1.50225	0.66567	104.02584	108.17479	38.82356	0.33973	 	414590.9585	 	1.61065E-5	 	39280.038	37.0316	 
1090.0	1.0	0.0	7.33953	7.44636	-5.23323	18.17895	29.61417	1.4999	0.66671	104.5804	108.61424	39.03643	0.33952	 	449874.4204	 	1.4789E-5	 	39095.098	36.988	 
1085.0	1.0	0.0	7.34181	7.44405	-5.26262	18.1615	29.55209	1.49754	0.66776	105.13555	109.05321	39.24958	0.33932	 	488470.2695	 	1.35705E-5	 	38910.373	36.945	 
1080.0	1.0	0.0	7.34408	7.44174	-5.29197	18.14405	29.49002	1.49516	0.66882	105.69128	109.49166	39.46301	0.33912	 	530717.5656	 	1.24443E-5	 	38725.862	36.9022	 
1075.0	1.0	0.0	7.34635	7.43944	-5.32126	18.12661	29.42794	1.49278	0.66989	106.24755	109.92958	39.67671	0.33892	 	576992.879	 	1.14039E-5	 	38541.562	36.86	 
1070.0	1.0	0.0	7.34862	7.43714	-5.35051	18.10917	29.36585	1.49039	0.67097	106.80436	110.36695	39.89068	0.33871	 	627714.7451	 	1.04436E-5	 	38357.471	36.8182	 
1065.0	1.0	0.0	7.35089	7.43485	-5.37971	18.09174	29.30377	1.48799	0.67205	107.36167	110.80374	40.1049	0.33851	 	683348.6833	 	9.55761E-6	 	38173.587	36.7768	 
1060.0	1.0	0.0	7.35316	7.43256	-5.40886	18.07432	29.24169	1.48557	0.67314	107.91946	111.23994	40.31936	0.33831	 	744412.8557	 	8.74081E-6	 	37989.907	36.736	 
1055.0	1.0	0.0	7.35542	7.43027	-5.43797	18.05689	29.1796	1.48315	0.67424	108.47771	111.67552	40.53406	0.33811	 	811484.4546	 	7.98829E-6	 	37806.428	36.6958	 
1050.0	1.0	0.0	7.35768	7.42799	-5.46703	18.03947	29.11751	1.48072	0.67535	109.0364	112.11046	40.74898	0.3379	 	885206.9153	 	7.29543E-6	 	37623.149	36.6558	 
1045.0	1.0	0.0	7.35994	7.42571	-5.49603	18.02206	29.05542	1.47828	0.67646	109.5955	112.54474	40.96413	0.3377	 	966298.07	 	6.65795E-6	 	37440.066	36.6166	 
1040.0	1.0	0.0	7.3622	7.42343	-5.52499	18.00465	28.99333	1.47582	0.67759	110.15499	112.97834	41.17949	0.3375	 	1055559.372	 	6.07181E-6	 	37257.177	36.5778	 
1035.0	1.0	0.0	7.36445	7.42116	-5.55391	17.98724	28.93124	1.47336	0.67872	110.71485	113.41124	41.39505	0.3373	 	1153886.341	 	5.53326E-6	 	37074.479	36.5396	 
1030.0	1.0	0.0	7.3667	7.41889	-5.58277	17.96984	28.86914	1.47088	0.67986	111.27506	113.84342	41.6108	0.33709	 	1262280.395	 	5.03878E-6	 	36891.969	36.502	 
1025.0	1.0	0.0	7.36895	7.41663	-5.61159	17.95245	28.80704	1.4684	0.68101	111.83559	114.27485	41.82674	0.33689	 	1381862.275	 	4.58508E-6	 	36709.645	36.4648	 
1020.0	1.0	0.0	7.3712	7.41437	-5.64035	17.93506	28.74494	1.4659	0.68217	112.39642	114.70553	42.04286	0.33669	 	1513887.284	 	4.1691E-6	 	36527.503	36.4284	 
1015.0	1.0	0.0	7.37344	7.41211	-5.66907	17.91767	28.68284	1.4634	0.68334	112.95753	115.13542	42.25915	0.33649	 	1659762.589	 	3.78798E-6	 	36345.541	36.3924	 
1010.0	1.0	0.0	7.37568	7.40986	-5.69775	17.90029	28.62074	1.46088	0.68452	113.5189	115.56451	42.47561	0.33628	 	1821066.915	 	3.43905E-6	 	36163.756	36.357	 
1005.0	1.0	0.0	7.37792	7.40761	-5.72637	17.88291	28.55863	1.45835	0.68571	114.08051	115.99279	42.69221	0.33608	 	1999572.938	 	3.11983E-6	 	35982.143	36.3226	 
1000.0	1.0	0.0	7.38016	7.40536	-5.75495	17.86553	28.49653	1.45581	0.6869	114.64233	116.42022	42.90896	0.33588	 	2197272.812	 	2.82802E-6	 	35800.701	36.2884	 
995.0	1.0	0.0	7.38239	7.40312	-5.78348	17.84816	28.43442	1.45326	0.68811	115.20433	116.84679	43.12585	0.33568	 	2416407.257	 	2.56146E-6	 	35619.426	36.255	 
990.0	1.0	0.0	7.38463	7.40088	-5.81196	17.8308	28.37231	1.4507	0.68932	115.76651	117.27249	43.34287	0.33547	 	2659498.772	 	2.31815E-6	 	35438.314	36.2224	 
985.0	1.0	0.0	7.38686	7.39865	-5.84039	17.81344	28.31019	1.44813	0.69055	116.32884	117.69729	43.56001	0.33527	 	2929389.563	 	2.09624E-6	 	35257.361	36.1906	 
980.0	1.0	0.0	7.38908	7.39642	-5.86878	17.79608	28.24808	1.44555	0.69178	116.89129	118.12117	43.77726	0.33507	 	3229284.907	 	1.89401E-6	 	35076.565	36.1592	 
975.0	1.0	0.0	7.39131	7.39419	-5.89711	17.77873	28.18596	1.44295	0.69302	117.45384	118.54412	43.99461	0.33487	 	3562802.788	 	1.70986E-6	 	34895.922	36.1286	 
970.0	1.0	0.0	7.39353	7.39197	-5.9254	17.76138	28.12385	1.44035	0.69428	118.01648	118.96612	44.21206	0.33466	 	3934030.751	 	1.54231E-6	 	34715.427	36.099	 
965.0	1.0	0.0	7.39575	7.38975	-5.95365	17.74404	28.06173	1.43773	0.69554	118.57917	119.38714	44.4296	0.33446	 	4347591.093	 	1.38999E-6	 	34535.076	36.0702	 
960.0	1.0	0.0	7.39797	7.38753	-5.98184	17.7267	27.9996	1.4351	0.69682	119.14191	119.80718	44.64723	0.33426	 	4808715.693	 	1.25162E-6	 	34354.867	36.0418	 
955.0	1.0	0.0	7.40019	7.38532	-6.00999	17.70937	27.93748	1.43246	0.6981	119.70466	120.22621	44.86492	0.33406	 	5323331.981	 	1.12604E-6	 	34174.794	36.0146	 
950.0	1.0	0.0	7.4024	7.38311	-6.03809	17.69204	27.87535	1.42981	0.6994	120.26741	120.64421	45.08268	0.33385	 	5898161.812	 	1.01216E-6	 	33994.853	35.9882	 
945.0	1.0	0.0	7.40461	7.38091	-6.06614	17.67471	27.81323	1.42714	0.7007	120.83013	121.06117	45.30049	0.33365	 	6540835.29	 	9.0898E-7	 	33815.04	35.9626	 
940.0	1.0	0.0	7.40682	7.37871	-6.09414	17.65739	27.7511	1.42447	0.70202	121.39281	121.47708	45.51836	0.33345	 	7260021.949	 	8.15574E-7	 	33635.35	35.938	 
935.0	1.0	0.0	7.40902	7.37651	-6.1221	17.64008	27.68897	1.42178	0.70334	121.95542	121.8919	45.73626	0.33325	 	8065582.081	 	7.31092E-7	 	33455.778	35.9144	 
930.0	1.0	0.0	7.41123	7.37432	-6.15001	17.62277	27.62683	1.41908	0.70468	122.51793	122.30563	45.9542	0.33304	 	8968741.498	 	6.54749E-7	 	33276.32	35.8916	 
925.0	1.0	0.0	7.41343	7.37213	-6.17787	17.60546	27.5647	1.41637	0.70603	123.08034	122.71825	46.17216	0.33284	 	9982293.57	 	5.85825E-7	 	33096.971	35.8698	 
920.0	1.0	0.0	7.41563	7.36995	-6.20568	17.58816	27.50256	1.41364	0.70739	123.64261	123.12973	46.39013	0.33264	 	1.112083305E7	 	5.23654E-7	 	32917.725	35.8492	 
915.0	1.0	0.0	7.41782	7.36776	-6.23345	17.57086	27.44043	1.41091	0.70876	124.20474	123.54008	46.60812	0.33244	 	1.240102697E7	 	4.67628E-7	 	32738.577	35.8296	 
910.0	1.0	0.0	7.42002	7.36559	-6.26117	17.55356	27.37829	1.40816	0.71015	124.76669	123.94926	46.82611	0.33223	 	1.384192885E7	 	4.17186E-7	 	32559.521	35.8112	 
905.0	1.0	0.0	7.42221	7.36341	-6.28884	17.53627	27.31615	1.4054	0.71154	125.32844	124.35726	47.04409	0.33203	 	1.546534357E7	 	3.71816E-7	 	32380.552	35.7938	 
900.0	1.0	0.0	7.42439	7.36124	-6.31646	17.51899	27.254	1.40262	0.71295	125.88997	124.76406	47.26205	0.33183	 	1.729625143E7	 	3.31046E-7	 	32201.664	35.7776	 
895.0	1.0	0.0	7.42658	7.35907	-6.34404	17.50171	27.19186	1.39984	0.71437	126.45127	125.16965	47.47999	0.33163	 	1.936330182E7	 	2.94446E-7	 	32022.851	35.7626	 
890.0	1.0	0.0	7.42876	7.35691	-6.37156	17.48443	27.12972	1.39704	0.7158	127.0123	125.574	47.6979	0.33142	 	2.169938824E7	 	2.61622E-7	 	31844.105	35.7492	 
885.0	1.0	0.0	7.43095	7.35475	-6.39904	17.46716	27.06757	1.39423	0.71724	127.57306	125.97712	47.91577	0.33122	 	2.434231924E7	 	2.32215E-7	 	31665.421	35.7368	 
880.0	1.0	0.0	7.43312	7.3526	-6.42648	17.44989	27.00543	1.3914	0.7187	128.13351	126.37896	48.1336	0.33102	 	2.733560186E7	 	2.05894E-7	 	31486.792	35.7258	 
875.0	1.0	0.0	7.4353	7.35044	-6.45386	17.43263	26.94328	1.38856	0.72017	128.69364	126.77953	48.35137	0.33082	 	3.07293578E7	 	1.82361E-7	 	31308.21	35.7164	 
870.0	1.0	0.0	7.43747	7.3483	-6.4812	17.41537	26.88114	1.38571	0.72165	129.25343	127.17881	48.56907	0.33061	 	3.458139594E7	 	1.61342E-7	 	31129.669	35.7082	 
865.0	1.0	0.0	7.43964	7.34615	-6.50849	17.39812	26.81899	1.38285	0.72314	129.81285	127.57677	48.78671	0.33041	 	3.895846953E7	 	1.42588E-7	 	30951.159	35.702	 
860.0	1.0	0.0	7.44181	7.34401	-6.53574	17.38087	26.75684	1.37997	0.72465	130.37189	127.9734	49.00426	0.33021	 	4.393775165E7	 	1.25874E-7	 	30772.674	35.697	 
855.0	1.0	0.0	7.44398	7.34187	-6.56293	17.36363	26.6947	1.37708	0.72617	130.93052	128.3687	49.22173	0.33001	 	4.960856897E7	 	1.10993E-7	 	30594.204	35.694	 
850.0	1.0	0.0	7.44614	7.33974	-6.59008	17.34639	26.63255	1.37418	0.72771	131.48872	128.76263	49.43911	0.3298	 	5.607444175E7	 	9.77596E-8	 	30415.741	35.6926	 
845.0	1.0	0.0	7.4483	7.33761	-6.61719	17.32915	26.5704	1.37126	0.72926	132.04647	129.15519	49.65638	0.3296	 	6.345548718E7	 	8.60038E-8	 	30237.277	35.6928	 
840.0	1.0	0.0	7.45046	7.33549	-6.64424	17.31192	26.50826	1.36833	0.73082	132.60376	129.54636	49.87354	0.3294	 	7.189125446E7	 	7.55726E-8	 	30058.8	35.6954	 
835.0	1.0	0.0	7.45262	7.33336	-6.67125	17.29469	26.44611	1.36538	0.7324	133.16055	129.93613	50.09059	0.3292	 	8.154407371E7	 	6.63274E-8	 	29880.302	35.6996	 
830.0	1.0	0.0	7.45477	7.33125	-6.69821	17.27747	26.38397	1.36242	0.73399	133.71684	130.32448	50.3075	0.32899	 	9.260301714E7	 	5.81428E-8	 	29701.771	35.7062	 
825.0	1.0	0.0	7.45692	7.32913	-6.72512	17.26025	26.32183	1.35945	0.73559	134.27259	130.71139	50.52429	0.32879	 	1.052885906E8	 	5.09058E-8	 	29523.198	35.7146	 
820.0	1.0	0.0	7.45907	7.32702	-6.75199	17.24304	26.25969	1.35646	0.73721	134.8278	131.09685	50.74093	0.32859	 	1.198582982E8	 	4.45142E-8	 	29344.57	35.7256	 
815.0	1.0	0.0	7.46122	7.32491	-6.7788	17.22583	26.19755	1.35346	0.73885	135.38243	131.48086	50.95743	0.32839	 	1.366132511E8	 	3.88761E-8	 	29165.874	35.7392	 
810.0	1.0	0.0	7.46336	7.32281	-6.80558	17.20862	26.13542	1.35044	0.7405	135.93647	131.86338	51.17376	0.32819	 	1.559060285E8	 	3.39088E-8	 	28987.1	35.7548	 
805.0	1.0	0.0	7.4655	7.32071	-6.8323	17.19142	26.07329	1.34741	0.74216	136.4899	132.24441	51.38994	0.32798	 	1.7815004E8	 	2.95379E-8	 	28808.232	35.7736	 
800.0	1.0	0.0	7.46764	7.31861	-6.85898	17.17423	26.01116	1.34437	0.74384	137.0427	132.62393	51.60594	0.32778	 	2.038306939E8	 	2.56967E-8	 	28629.258	35.7948	 
795.0	1.0	0.0	7.46978	7.31652	-6.88561	17.15704	25.94903	1.34131	0.74554	137.59484	133.00193	51.82176	0.32758	 	2.335187381E8	 	2.23253E-8	 	28450.162	35.8192	 
790.0	1.0	0.0	7.47191	7.31443	-6.91219	17.13985	25.88691	1.33823	0.74725	138.14632	133.3784	52.03739	0.32738	 	2.678862203E8	 	1.93701E-8	 	28270.928	35.8468	 
785.0	1.0	0.0	7.47404	7.31235	-6.93873	17.12267	25.82479	1.33514	0.74898	138.6971	133.75332	52.25283	0.32717	 	3.077256115E8	 	1.6783E-8	 	28091.541	35.8774	 
780.0	1.0	0.0	7.47617	7.31026	-6.96521	17.10549	25.76267	1.33204	0.75073	139.24716	134.12667	52.46807	0.32697	 	3.539727533E8	 	1.45214E-8	 	27911.981	35.912	 
775.0	1.0	0.0	7.47829	7.30819	-6.99166	17.08832	25.70056	1.32892	0.75249	139.7965	134.49845	52.68309	0.32677	 	4.077344369E8	 	1.25468E-8	 	27732.232	35.9498	 
770.0	1.0	0.0	7.48042	7.30611	-7.01805	17.07115	25.63846	1.32578	0.75427	140.34508	134.86864	52.8979	0.32657	 	4.703216017E8	 	1.08253E-8	 	27552.272	35.992	 
765.0	1.0	0.0	7.48254	7.30404	-7.0444	17.05398	25.57635	1.32263	0.75607	140.89288	135.23722	53.11248	0.32636	 	5.432893606E8	 	9.32643E-9	 	27372.081	36.0382	 
760.0	1.0	0.0	7.48465	7.30198	-7.0707	17.03682	25.51425	1.31947	0.75788	141.4399	135.60418	53.32683	0.32616	 	6.284853345E8	 	8.02334E-9	 	27191.636	36.089	 
755.0	1.0	0.0	7.48677	7.29991	-7.09695	17.01967	25.45216	1.31628	0.75971	141.9861	135.96952	53.54093	0.32596	 	7.281081161E8	 	6.89203E-9	 	27010.914	36.1444	 
750.0	1.0	0.0	7.48888	7.29785	-7.12316	17.00252	25.39007	1.31309	0.76156	142.53147	136.33321	53.75479	0.32576	 	8.447781045E8	 	5.9113E-9	 	26829.889	36.205	 
745.0	1.0	0.0	7.49099	7.2958	-7.14932	16.98537	25.32799	1.30987	0.76343	143.07599	136.69524	53.96839	0.32555	 	9.816234698E8	 	5.06237E-9	 	26648.533	36.2712	 
740.0	1.0	0.0	7.4931	7.29375	-7.17543	16.96823	25.26591	1.30664	0.76532	143.61964	137.0556	54.18173	0.32535	 	1.142384659E9	 	4.32861E-9	 	26466.817	36.3432	 
735.0	1.0	0.0	7.4952	7.2917	-7.2015	16.95109	25.20383	1.3034	0.76723	144.1624	137.41428	54.3948	0.32515	 	1.331541664E9	 	3.69536E-9	 	26284.71	36.4214	 
730.0	1.0	0.0	7.4973	7.28965	-7.22752	16.93395	25.14176	1.30013	0.76915	144.70424	137.77126	54.60759	0.32495	 	1.554469276E9	 	3.14971E-9	 	26102.177	36.5066	 
725.0	1.0	0.0	7.4994	7.28761	-7.25349	16.91683	25.0797	1.29685	0.7711	145.24516	138.12653	54.82009	0.32474	 	1.817626817E9	 	2.68027E-9	 	25919.182	36.599	 
720.0	1.0	0.0	7.5015	7.28558	-7.27941	16.8997	25.01763	1.29356	0.77306	145.78512	138.48009	55.0323	0.32454	 	2.128790439E9	 	2.27703E-9	 	25735.685	36.6994	 
715.0	1.0	0.0	7.5036	7.28354	-7.30529	16.88258	24.95557	1.29025	0.77505	146.32412	138.83191	55.24421	0.32434	 	2.49733803E9	 	1.93122E-9	 	25551.644	36.8082	 
710.0	1.0	0.0	7.50569	7.28151	-7.33112	16.86547	24.89352	1.28692	0.77705	146.86213	139.18198	55.45581	0.32414	 	2.934599319E9	 	1.63515E-9	 	25367.011	36.9266	 
705.0	1.0	0.0	7.50778	7.27949	-7.35691	16.84835	24.83146	1.28357	0.77907	147.39913	139.53029	55.66709	0.32393	 	3.454286895E9	 	1.38208E-9	 	25181.737	37.0548	 
700.0	1.0	0.0	7.50986	7.27746	-7.38264	16.83125	24.76941	1.28021	0.78112	147.9351	139.87684	55.87805	0.32373	 	4.073027848E9	 	1.16614E-9	 	24995.766	37.1942	 
695.0	1.0	0.0	7.51195	7.27545	-7.40834	16.81415	24.70736	1.27683	0.78319	148.47003	140.2216	56.08868	0.32353	 	4.811020815E9	 	9.82182E-10	 	24809.038	37.3456	 
690.0	1.0	0.0	7.51403	7.27343	-7.43398	16.79705	24.64531	1.27344	0.78528	149.00389	140.56456	56.29897	0.32333	 	5.692849572E9	 	8.25754E-10	 	24621.487	37.5102	 
685.0	1.0	0.0	7.51611	7.27142	-7.45958	16.77995	24.58325	1.27002	0.78739	149.53666	140.90572	56.50892	0.32312	 	6.74849252E9	 	6.92968E-10	 	24433.042	37.689	 
680.0	1.0	0.0	7.51818	7.26941	-7.48513	16.76287	24.5212	1.26659	0.78952	150.06833	141.24506	56.71851	0.32292	 	8.014577727E9	 	5.80453E-10	 	24243.624	37.8836	 
675.0	1.0	0.0	7.52025	7.26741	-7.51063	16.74578	24.45915	1.26315	0.79167	150.59888	141.58258	56.92774	0.32272	 	9.535946492E9	 	4.85288E-10	 	24053.144	38.096	 
670.0	1.0	0.0	7.52233	7.26541	-7.53609	16.7287	24.39709	1.25968	0.79385	151.12829	141.91824	57.13661	0.32252	 	1.13676E10	 	4.04947E-10	 	23861.508	38.3272	 
665.0	1.0	0.0	7.52439	7.26341	-7.5615	16.71163	24.33503	1.2562	0.79605	151.65653	142.25206	57.3451	0.32231	 	1.3577199999999998E10	 	3.37248E-10	 	23668.608	38.58	 
660.0	1.0	0.0	7.52646	7.26142	-7.58687	16.69456	24.27296	1.2527	0.79828	152.1836	142.58401	57.5532	0.32211	 	1.6247899999999998E10	 	2.80311E-10	 	23474.328	38.856	 
655.0	1.0	0.0	7.52852	7.25943	-7.61218	16.67749	24.21089	1.24918	0.80053	152.70947	142.91409	57.76092	0.32191	 	1.94827E10	 	2.32518E-10	 	23278.537	39.1582	 
650.0	1.0	0.0	7.53058	7.25744	-7.63745	16.66043	24.14881	1.24564	0.8028	153.23412	143.24228	57.96824	0.32171	 	2.3408499999999996E10	 	1.9248E-10	 	23081.089	39.4896	 
645.0	1.0	0.0	7.53264	7.25546	-7.66268	16.64337	24.08673	1.24209	0.80509	153.75753	143.56857	58.17515	0.32151	 	2.8183199999999996E10	 	1.59005E-10	 	22881.823	39.8532	 
640.0	1.0	0.0	7.53469	7.25348	-7.68786	16.62632	24.02463	1.23852	0.80742	154.27969	143.89295	58.38166	0.3213	 	3.4002399999999996E10	 	1.31075E-10	 	22680.556	40.2534	 
635.0	1.0	0.0	7.53674	7.25151	-7.71299	16.60927	23.96253	1.23493	0.80976	154.80057	144.21542	58.58774	0.3211	 	4.11102E10	 	1.07819E-10	 	22462.294	43.6524	 
630.0	1.0	0.0	7.53879	7.24954	-7.73807	16.59222	23.90041	1.23132	0.81213	155.32016	144.53595	58.7934	0.3209	 	4.981069999999999E10	 	8.8496E-11	 	22242.589	43.941	 
625.0	1.0	0.0	7.54084	7.24757	-7.76311	16.57518	23.83828	1.2277	0.81453	155.83845	144.85454	58.99863	0.3207	 	6.048469999999999E10	 	7.24753E-11	 	22025.118	43.4942	 
620.0	1.0	0.0	7.54288	7.24561	-7.7881	16.55815	23.77614	1.22405	0.81696	156.3554	145.17118	59.20342	0.32049	 	7.36095E10	 	5.92212E-11	 	21809.796	43.0644	 
615.0	1.0	0.0	7.54492	7.24365	-7.81305	16.54112	23.71398	1.22039	0.81941	156.871	145.48585	59.40775	0.32029	 	8.9785E10	 	4.82802E-11	 	21596.546	42.65	 
610.0	1.0	0.0	7.54696	7.24169	-7.83795	16.52409	23.65181	1.21671	0.82189	157.38524	145.79856	59.61164	0.32009	 	1.09767E11	 	3.9269E-11	 	21385.292	42.2508	 
605.0	1.0	0.0	7.549	7.23974	-7.8628	16.50707	23.58962	1.21301	0.82439	157.8981	146.10928	59.81506	0.31989	 	1.3451E11	 	3.18641E-11	 	21175.964	41.8656	 
600.0	1.0	0.0	7.55103	7.23779	-7.8876	16.49005	23.52742	1.2093	0.82693	158.40955	146.418	60.01801	0.31968	 	1.65222E11	 	2.57934E-11	 	20968.496	41.4936	 
595.0	1.0	0.0	7.55306	7.23584	-7.91236	16.47304	23.46519	1.20556	0.82949	158.91958	146.72472	60.22049	0.31948	 	2.03438E11	 	2.08281E-11	 	20762.823	41.1346	 
590.0	1.0	0.0	7.55509	7.2339	-7.93708	16.45603	23.40295	1.2018	0.83208	159.42817	147.02943	60.42248	0.31928	 	2.51109E11	 	1.67768E-11	 	20558.885	40.7876	 
585.0	1.0	0.0	7.55711	7.23196	-7.96174	16.43902	23.34069	1.19803	0.8347	159.9353	147.33212	60.62398	0.31908	 	3.10728E11	 	1.34794E-11	 	20356.626	40.4518	 
580.0	1.0	0.0	7.55914	7.23003	-7.98636	16.42202	23.27841	1.19423	0.83736	160.44096	147.63277	60.82499	0.31887	 	3.8548E11	 	1.08021E-11	 	20155.991	40.127	 
575.0	1.0	0.0	7.56116	7.2281	-8.01094	16.40503	23.21611	1.19042	0.84004	160.94513	147.93138	61.02549	0.31867	 	4.79456E11	 	8.63397E-12	 	19956.929	39.8124	 
570.0	1.0	0.0	7.56317	7.22617	-8.03547	16.38804	23.15379	1.18659	0.84275	161.44778	148.22794	61.22547	0.31847	 	5.97914E11	 	6.8826E-12	 	19759.39	39.5078	 
565.0	1.0	0.0	7.56519	7.22425	-8.05995	16.37105	23.09145	1.18274	0.8455	161.94891	148.52244	61.42495	0.31827	 	7.47641E11	 	5.47161E-12	 	19563.329	39.2122	 
560.0	1.0	0.0	7.5672	7.22233	-8.08438	16.35407	23.02909	1.17887	0.84827	162.44849	148.81486	61.62389	0.31806	 	9.37416E11	 	4.33788E-12	 	19368.701	38.9256	 
555.0	1.0	0.0	7.56921	7.22041	-8.10877	16.33709	22.96671	1.17497	0.85108	162.9465	149.1052	61.8223	0.31786	 	1.17863E12	 	3.4294E-12	 	19175.465	38.6472	 
550.0	1.0	0.0	7.57121	7.2185	-8.13311	16.32012	22.90431	1.17106	0.85393	163.44294	149.39346	62.02018	0.31766	 	1.48611E12	 	2.70343E-12	 	18983.58	38.377	 
545.0	1.0	0.0	7.57321	7.21659	-8.15741	16.30315	22.84188	1.16713	0.8568	163.93777	149.67961	62.2175	0.31746	 	1.8792E12	 	2.12494E-12	 	18793.01	38.114	 
540.0	1.0	0.0	7.57521	7.21468	-8.18166	16.28619	22.77944	1.16318	0.85972	164.43099	149.96366	62.41428	0.31725	 	2.38325E12	 	1.66528E-12	 	18603.717	37.8586	 
535.0	1.0	0.0	7.57721	7.21278	-8.20587	16.26923	22.71698	1.1592	0.86266	164.92257	150.24559	62.61049	0.31705	 	3.03153E12	 	1.30112E-12	 	18415.667	37.61	 
530.0	1.0	0.0	7.57921	7.21088	-8.23002	16.25227	22.6545	1.15521	0.86565	165.4125	150.52539	62.80613	0.31685	 	3.86788E12	 	1.01347E-12	 	18228.829	37.3676	 
525.0	1.0	0.0	7.5812	7.20899	-8.25414	16.23532	22.592	1.15119	0.86867	165.90076	150.80306	63.00121	0.31665	 	4.95028E12	 	7.8694E-13	 	18043.17	37.1318	 
520.0	1.0	0.0	7.58319	7.2071	-8.2782	16.21838	22.52948	1.14715	0.87172	166.38733	151.07859	63.1957	0.31645	 	6.35559E12	 	6.09097E-13	 	17858.661	36.9018	 
515.0	1.0	0.0	7.58517	7.20521	-8.30222	16.20143	22.46694	1.1431	0.87482	166.8722	151.35196	63.3896	0.31624	 	8.18611E12	 	4.69914E-13	 	17675.273	36.6776	 
510.0	1.0	0.0	7.58716	7.20333	-8.32619	16.1845	22.40439	1.13902	0.87795	167.35535	151.62318	63.58291	0.31604	 	1.05784E13	 	3.61336E-13	 	17492.981	36.4584	 
505.0	1.0	0.0	7.58914	7.20144	-8.35012	16.16756	22.34182	1.13491	0.88113	167.83676	151.89223	63.77562	0.31584	 	1.37155E13	 	2.76909E-13	 	17311.758	36.2446	 
500.0	1.0	0.0	7.59112	7.19957	-8.374	16.15063	22.27924	1.13079	0.88434	168.31642	152.1591	63.96773	0.31564	 	1.78436E13	 	2.11479E-13	 	17131.578	36.036	 
495.0	1.0	0.0	7.59309	7.1977	-8.39784	16.13371	22.21665	1.12664	0.88759	168.79431	152.42379	64.15921	0.31543	 	2.32947E13	 	1.60944E-13	 	16952.42	35.8316	 
490.0	1.0	0.0	7.59506	7.19583	-8.42163	16.11679	22.15404	1.12247	0.89089	169.27041	152.68629	64.35008	0.31523	 	3.05187E13	 	1.22048E-13	 	16774.26	35.632	 
485.0	1.0	0.0	7.59703	7.19396	-8.44537	16.09988	22.09142	1.11828	0.89423	169.7447	152.94658	64.54032	0.31503	 	4.01272E13	 	9.22152E-14	 	16597.077	35.4366	 
480.0	1.0	0.0	7.599	7.1921	-8.46907	16.08297	22.02879	1.11406	0.89762	170.21718	153.20467	64.72993	0.31483	 	5.29551E13	 	6.94161E-14	 	16420.851	35.2452	 
475.0	1.0	0.0	7.60096	7.19024	-8.49272	16.06606	21.96615	1.10982	0.90105	170.68781	153.46055	64.91889	0.31462	 	7.01462E13	 	5.20561E-14	 	16245.561	35.058	 
470.0	1.0	0.0	7.60293	7.18839	-8.51632	16.04916	21.9035	1.10556	0.90452	171.1566	153.7142	65.10721	0.31442	 	9.32738E13	 	3.88869E-14	 	16071.188	34.8746	 
465.0	1.0	0.0	7.60488	7.18653	-8.53988	16.03226	21.84085	1.10127	0.90804	171.62351	153.96562	65.29488	0.31422	 	1.24511E14	 	2.8935E-14	 	15897.716	34.6944	 
460.0	1.0	0.0	7.60684	7.18469	-8.5634	16.01537	21.77818	1.09696	0.91161	172.08854	154.21481	65.48188	0.31402	 	1.66872E14	 	2.14435E-14	 	15725.125	34.5182	 
455.0	1.0	0.0	7.60879	7.18284	-8.58686	15.99848	21.71551	1.09262	0.91523	172.55166	154.46176	65.66822	0.31381	 	2.24555E14	 	1.58265E-14	 	15553.4	34.345	 
450.0	1.0	0.0	7.61074	7.181	-8.61028	15.9816	21.65284	1.08826	0.9189	173.01287	154.70645	65.85389	0.31361	 	3.0343E14	 	1.1632E-14	 	15382.525	34.175	 
445.0	1.0	0.0	7.61269	7.17917	-8.63366	15.96472	21.59016	1.08387	0.92262	173.47214	154.94889	66.03888	0.31341	 	4.11748E14	 	8.51276E-15	 	15212.484	34.0082	 
440.0	1.0	0.0	7.61463	7.17733	-8.65699	15.94784	21.52748	1.07946	0.92639	173.92947	155.18906	66.22318	0.31321	 	5.6114999999999994E14	 	6.20282E-15	 	15043.263	33.8442	 
435.0	1.0	0.0	7.61658	7.1755	-8.68027	15.93097	21.4648	1.07502	0.93022	174.38483	155.42696	66.40679	0.313	 	7.68138E14	 	4.49959E-15	 	14874.847	33.6832	 
430.0	1.0	0.0	7.61851	7.17368	-8.70351	15.9141	21.40211	1.07056	0.93409	174.83821	155.66259	66.5897	0.3128	 	1.05622E15	 	3.24924E-15	 	14707.223	33.5248	 
425.0	1.0	0.0	7.62045	7.17185	-8.7267	15.89724	21.33942	1.06607	0.93803	175.2896	155.89594	66.77192	0.3126	 	1.45903E15	 	2.33546E-15	 	14540.377	33.3692	 
420.0	1.0	0.0	7.62238	7.17004	-8.74985	15.88039	21.27673	1.06155	0.94202	175.73898	156.12699	66.95342	0.3124	 	2.02494E15	 	1.67071E-15	 	14374.296	33.2162	 
415.0	1.0	0.0	7.62431	7.16822	-8.77295	15.86353	21.21405	1.05701	0.94607	176.18633	156.35576	67.1342	0.3122	 	2.82385E15	 	1.1894E-15	 	14208.97	33.0652	 
410.0	1.0	0.0	7.62624	7.16641	-8.79601	15.84668	21.15136	1.05244	0.95018	176.63165	156.58222	67.31427	0.31199	 	3.95732E15	 	8.42562E-16	 	14044.385	32.917	 
405.0	1.0	0.0	7.62816	7.1646	-8.81902	15.82984	21.08867	1.04784	0.95435	177.07491	156.80638	67.4936	0.31179	 	5.57358E15	 	5.93852E-16	 	13880.53	32.771	 
400.0	1.0	0.0	7.63009	7.1628	-8.84198	15.813	21.02598	1.04321	0.95858	177.5161	157.02823	67.67221	0.31159	 	7.89023E15	 	4.16398E-16	 	13717.395	32.627	 
395.0	1.0	0.0	7.63201	7.161	-8.8649	15.79617	20.9633	1.03856	0.96287	177.95521	157.24777	67.85007	0.31139	 	1.12284E16	 	2.90431E-16	 	13554.968	32.4854	 
390.0	1.0	0.0	7.63392	7.1592	-8.88777	15.77934	20.90061	1.03388	0.96723	178.39223	157.46498	68.02719	0.31118	 	1.60646E16	 	2.01479E-16	 	13393.24	32.3456	 
385.0	1.0	0.0	7.63583	7.15741	-8.9106	15.76251	20.83793	1.02917	0.97165	178.82713	157.67987	68.20357	0.31098	 	2.31098E16	 	1.39E-16	 	13232.201	32.2078	 
380.0	1.0	0.0	7.63774	7.15562	-8.93338	15.74569	20.77525	1.02444	0.97615	179.25991	157.89243	68.37918	0.31078	 	3.3431200000000004E16	 	9.53559E-17	 	13071.841	32.072	 
375.0	1.0	0.0	7.63965	7.15383	-8.95611	15.72887	20.71257	1.01967	0.98071	179.69056	158.10266	68.55403	0.31058	 	4.86401E16	 	6.50381E-17	 	12912.15	31.9382	 
370.0	1.0	0.0	7.64156	7.15205	-8.9788	15.71206	20.64989	1.01487	0.98534	180.11905	158.31055	68.72812	0.31037	 	7.1183600000000008E16	 	4.4098E-17	 	12753.121	31.8058	 
365.0	1.0	0.0	7.64346	7.15027	-9.00145	15.69525	20.58721	1.01005	0.99005	180.54538	158.51609	68.90144	0.31017	 	1.04802E17	 	2.97195E-17	 	12594.743	31.6756	 
360.0	1.0	0.0	7.64536	7.14849	-9.02405	15.67845	20.52453	1.0052	0.99483	180.96954	158.7193	69.07398	0.30997	 	1.55246E17	 	1.99055E-17	 	12437.009	31.5468	 
355.0	1.0	0.0	7.64725	7.14672	-9.0466	15.66165	20.46185	1.00031	0.99969	181.3915	158.92015	69.24574	0.30977	 	2.3142E17	 	1.3248E-17	 	12279.91	31.4198	 
350.0	1.0	0.0	7.64914	7.14495	-9.06911	15.64485	20.39918	0.9954	1.00462	181.81127	159.11865	69.41671	0.30956	 	3.47195E17	 	8.76003E-18	 	12123.44	31.294	 
345.0	1.0	0.0	7.65103	7.14319	-9.09157	15.62806	20.3365	0.99046	1.00964	182.22883	159.3148	69.58688	0.30936	 	5.24332E17	 	5.75406E-18	 	11967.589	31.1702	 
340.0	1.0	0.0	7.65292	7.14142	-9.11399	15.61128	20.27383	0.98548	1.01473	182.64416	159.50859	69.75627	0.30916	 	7.97203E17	 	3.75392E-18	 	11812.35	31.0478	 
335.0	1.0	0.0	7.65481	7.13967	-9.13636	15.5945	20.21115	0.98048	1.01991	183.05726	159.70003	69.92485	0.30896	 	1.22049E18	 	2.43201E-18	 	11657.717	30.9266	 
330.0	1.0	0.0	7.65669	7.13791	-9.15868	15.57772	20.14848	0.97544	1.02518	183.46811	159.8891	70.09262	0.30875	 	1.88179E18	 	1.56437E-18	 	11503.682	30.807	 
325.0	1.0	0.0	7.65857	7.13616	-9.18096	15.56095	20.0858	0.97037	1.03053	183.87671	160.0758	70.25958	0.30855	 	2.92257E18	 	9.98924E-19	 	11350.239	30.6886	 
320.0	1.0	0.0	7.66044	7.13441	-9.2032	15.54418	20.02312	0.96527	1.03598	184.28303	160.26015	70.42573	0.30835	 	4.57287E18	 	6.33086E-19	 	11197.38	30.5718	 
315.0	1.0	0.0	7.66231	7.13267	-9.22539	15.52741	19.96045	0.96014	1.04151	184.68709	160.44212	70.59107	0.30815	 	7.20986E18	 	3.98151E-19	 	11045.1	30.456	 
310.0	1.0	0.0	7.66418	7.13093	-9.24753	15.51065	19.89776	0.95498	1.04714	185.08885	160.62173	70.75557	0.30795	 	1.14568E19	 	2.48429E-19	 	10893.393	30.3414	 
305.0	1.0	0.0	7.66605	7.12919	-9.26963	15.4939	19.83508	0.94978	1.05287	185.48832	160.79898	70.91925	0.30774	 	1.83522E19	 	1.53758E-19	 	10742.251	30.2284	 
300.0	1.0	0.0	7.66791	7.12746	-9.29168	15.47715	19.7724	0.94455	1.0587	185.88549	160.97385	71.0821	0.30754	 	2.96408E19	 	9.43768E-20	 	10591.671	30.116	 
295.0	1.0	0.0	7.66977	7.12573	-9.31369	15.4604	19.70971	0.93929	1.06463	186.28034	161.14636	71.24412	0.30734	 	4.82796E19	 	5.74363E-20	 	10441.645	30.0052	 
290.0	1.0	0.0	7.67163	7.12401	-9.33565	15.44366	19.64702	0.934	1.07067	186.67288	161.3165	71.4053	0.30714	 	7.93243E19	 	3.46501E-20	 	10292.168	29.8954	 
285.0	1.0	0.0	7.67349	7.12228	-9.35757	15.42693	19.58432	0.92867	1.07681	187.06308	161.48428	71.56564	0.30693	 	1.3149799999999998E20	 	2.07166E-20	 	10143.236	29.7864	 
280.0	1.0	0.0	7.67534	7.12057	-9.37944	15.41019	19.52162	0.9233	1.08307	187.45095	161.64969	71.72513	0.30673	 	2.1999199999999997E20	 	1.22722E-20	 	9994.842	29.6788	 
275.0	1.0	0.0	7.67719	7.11885	-9.40127	15.39347	19.45892	0.91791	1.08944	187.83648	161.81274	71.88378	0.30653	 	3.7151699999999997E20	 	7.20124E-21	 	9846.983	29.5718	 
270.0	1.0	0.0	7.67904	7.11714	-9.42305	15.37674	19.39621	0.91247	1.09592	188.21966	161.97343	72.04158	0.30633	 	6.334989999999999E20	 	4.18466E-21	 	9699.653	29.466	 
265.0	1.0	0.0	7.68088	7.11543	-9.44479	15.36002	19.3335	0.90701	1.10253	188.60049	162.13177	72.19853	0.30612	 	1.091E21	 	2.40749E-21	 	9552.847	29.3612	 
260.0	1.0	0.0	7.68272	7.11373	-9.46648	15.34331	19.27078	0.9015	1.10926	188.97896	162.28775	72.35462	0.30592	 	1.89819E21	 	1.37087E-21	 	9406.561	29.2572	 
255.0	1.0	0.0	7.68456	7.11203	-9.48812	15.3266	19.20805	0.89597	1.11611	189.35507	162.44138	72.50985	0.30572	 	3.33742E21	 	7.72383E-22	 	9260.79	29.1542	 
250.0	1.0	0.0	7.68639	7.11033	-9.50973	15.30989	19.14532	0.89039	1.1231	189.72882	162.59266	72.66423	0.30552	 	5.93161E21	 	4.30467E-22	 	9115.531	29.0518	 
245.0	1.0	0.0	7.68822	7.10863	-9.53128	15.29319	19.08259	0.88478	1.13022	190.1002	162.74161	72.81775	0.30531	 	1.0660099999999998E22	 	2.37237E-22	 	8970.78	28.9502	 
240.0	1.0	0.0	7.69005	7.10694	-9.55279	15.27649	19.01985	0.87913	1.13748	190.46921	162.88822	72.97041	0.30511	 	1.93782E22	 	1.29246E-22	 	8826.532	28.8496	 
235.0	1.0	0.0	7.69188	7.10526	-9.57426	15.2598	18.9571	0.87345	1.14489	190.83585	163.0325	73.12221	0.30491	 	3.5643299999999997E22	 	6.95827E-23	 	8682.783	28.7498	 
230.0	1.0	0.0	7.6937	7.10357	-9.59568	15.24311	18.89434	0.86773	1.15244	191.20011	163.17446	73.27315	0.30471	 	6.635999999999999E22	 	3.70065E-23	 	8539.531	28.6504	 
225.0	1.0	0.0	7.69552	7.1019	-9.61705	15.22643	18.83158	0.86197	1.16014	191.56201	163.3141	73.42323	0.30451	 	1.251E23	 	1.94352E-23	 	8396.772	28.5518	 
220.0	1.0	0.0	7.69733	7.10022	-9.63838	15.20975	18.76881	0.85617	1.16799	191.92154	163.45144	73.57244	0.3043	 	2.3889E23	 	1.00755E-23	 	8254.502	28.454	 
215.0	1.0	0.0	7.69915	7.09855	-9.65967	15.19308	18.70603	0.85033	1.17601	192.2787	163.58649	73.72079	0.3041	 	4.62269E23	 	5.15401E-24	 	8112.719	28.3566	 
210.0	1.0	0.0	7.70096	7.09688	-9.68091	15.17641	18.64324	0.84446	1.18419	192.63349	163.71924	73.86828	0.3039	 	9.06838E23	 	2.60039E-24	 	7971.419	28.26	 
205.0	1.0	0.0	7.70277	7.09521	-9.7021	15.15974	18.58044	0.83854	1.19254	192.98593	163.84972	74.01491	0.3037	 	1.80421E24	 	1.29349E-24	 	7830.601	28.1636	 
200.0	1.0	0.0	7.70457	7.09355	-9.72325	15.14308	18.51764	0.83259	1.20107	193.33601	163.97794	74.16069	0.30349	 	3.6421900000000003E24	 	6.34049E-25	 	7690.26	28.0682	 
195.0	1.0	0.0	7.70637	7.09189	-9.74436	15.12642	18.45483	0.82659	1.20978	193.68374	164.1039	74.30561	0.30329	 	7.46376E24	 	3.06136E-25	 	7550.395	27.973	 
190.0	1.0	0.0	7.70817	7.09024	-9.76542	15.10977	18.39201	0.82056	1.21868	194.02914	164.22762	74.44967	0.30309	 	1.5534E25	 	1.45521E-25	 	7411.003	27.8784	 
185.0	1.0	0.0	7.70997	7.08859	-9.78643	15.09312	18.32918	0.81448	1.22777	194.3722	164.34912	74.59289	0.30289	 	3.28517E25	 	6.8067E-26	 	7272.083	27.784	 
180.0	1.0	0.0	7.71176	7.08694	-9.8074	15.07648	18.26634	0.80837	1.23706	194.71294	164.46842	74.73526	0.30268	 	7.0634E25	 	3.13123E-26	 	7133.632	27.6902	 
175.0	1.0	0.0	7.71355	7.08529	-9.82833	15.05984	18.20349	0.80221	1.24656	195.05138	164.58552	74.87679	0.30248	 	1.5448600000000002E26	 	1.41586E-26	 	6995.649	27.5966	 
170.0	1.0	0.0	7.71534	7.08365	-9.84921	15.04321	18.14063	0.79601	1.25627	195.38752	164.70044	75.01748	0.30228	 	3.43904E26	 	6.28926E-27	 	6858.132	27.5034	 
165.0	1.0	0.0	7.71712	7.08202	-9.87005	15.02658	18.07777	0.78976	1.26621	195.72138	164.81322	75.15734	0.30208	 	7.796850000000001E26	 	2.74277E-27	 	6721.08	27.4104	 
160.0	1.0	0.0	7.7189	7.08038	-9.89084	15.00995	18.01489	0.78347	1.27637	196.05298	164.92386	75.29638	0.30188	 	1.8013999999999998E27	 	1.17359E-27	 	6584.492	27.3176	 
155.0	1.0	0.0	7.72068	7.07875	-9.91158	14.99333	17.952	0.77714	1.28676	196.38233	165.03239	75.43459	0.30167	 	4.2442E27	 	4.92364E-28	 	6448.366	27.2252	 
150.0	1.0	0.0	7.72245	7.07713	-9.93228	14.97671	17.8891	0.77077	1.29741	196.70946	165.13883	75.57199	0.30147	 	1.02042E28	 	2.02396E-28	 	6312.703	27.1326	 
145.0	1.0	0.0	7.72422	7.0755	-9.95294	14.9601	17.82619	0.76435	1.3083	197.03439	165.24322	75.7086	0.30127	 	2.50539E28	 	8.14598E-29	 	6177.502	27.0402	 
140.0	1.0	0.0	7.72599	7.07388	-9.97355	14.94349	17.76327	0.75788	1.31946	197.35714	165.34556	75.8444	0.30107	 	6.28658E28	 	3.2076E-29	 	6042.762	26.948	 
135.0	1.0	0.0	7.72776	7.07227	-9.99412	14.92689	17.70034	0.75137	1.3309	197.67775	165.44591	75.97943	0.30086	 	1.61341E29	 	1.2347E-29	 	5908.483	26.8558	 
130.0	1.0	0.0	7.72952	7.07065	-10.01464	14.91029	17.6374	0.74482	1.34261	197.99624	165.54428	76.11368	0.30066	 	4.2386500000000005E29	 	4.64222E-30	 	5774.667	26.7632	 
125.0	1.0	0.0	7.73128	7.06905	-10.03512	14.8937	17.57445	0.73821	1.35462	198.31264	165.6407	76.24717	0.30046	 	1.1409E30	 	1.70328E-30	 	5641.313	26.6708	 
120.0	1.0	0.0	7.73304	7.06744	-10.05555	14.87711	17.51149	0.73157	1.36693	198.62699	165.73523	76.37991	0.30026	 	3.14925E30	 	6.0931E-31	 	5508.422	26.5782	 
115.0	1.0	0.0	7.73479	7.06584	-10.07594	14.86052	17.44851	0.72487	1.37956	198.93932	165.82788	76.51192	0.30005	 	8.92333E30	 	2.12305E-31	 	5375.995	26.4854	 
110.0	1.0	0.0	7.73654	7.06424	-10.09628	14.84394	17.38553	0.71812	1.39252	199.24969	165.91871	76.64322	0.29985	 	2.59808E31	 	7.19784E-32	 	5244.035	26.392	 
105.0	1.0	0.0	7.73829	7.06264	-10.11658	14.82737	17.32253	0.71133	1.40582	199.55813	166.00775	76.77381	0.29965	 	7.78133E31	 	2.3719E-32	 	5112.542	26.2986	 
100.0	1.0	0.0	7.74003	7.06105	-10.13683	14.81079	17.25952	0.70449	1.41947	199.86469	166.09505	76.90372	0.29945	 	2.40006E32	 	7.58837E-33	 	4981.518	26.2048	 
95.0	1.0	0.0	7.74177	7.05946	-10.15704	14.79423	17.19649	0.69759	1.4335	200.16943	166.18066	77.03297	0.29925	 	7.63269E32	 	2.35415E-33	 	4850.967	26.1102	 
90.0	1.0	0.0	7.74351	7.05788	-10.17721	14.77766	17.13346	0.69065	1.44791	200.47239	166.26463	77.16158	0.29904	 	2.5059300000000002E33	 	7.07299E-34	 	4720.891	26.0152	 
85.0	1.0	0.0	7.74524	7.0563	-10.19733	14.7611	17.07041	0.68366	1.46272	200.77365	166.34702	77.28957	0.29884	 	8.505070000000001E33	 	2.05529E-34	 	4591.294	25.9194	 
80.0	1.0	0.0	7.74698	7.05472	-10.21741	14.74455	17.00735	0.67661	1.47795	201.07327	166.42789	77.41697	0.29864	 	2.98823E34	 	5.76809E-35	 	4462.179	25.823	 
75.0	1.0	0.0	7.7487	7.05315	-10.23744	14.728	16.94427	0.66952	1.49362	201.37132	166.5073	77.5438	0.29844	 	1.0884899999999999E35	 	1.56109E-35	 	4333.55	25.7258	 
70.0	1.0	0.0	7.75043	7.05158	-10.25742	14.71145	16.88118	0.66237	1.50974	201.66787	166.58531	77.6701	0.29823	 	4.11717E35	 	4.06792E-36	 	4205.413	25.6274	 
65.0	1.0	0.0	7.75215	7.05001	-10.27737	14.69491	16.81808	0.65517	1.52633	201.96302	166.66201	77.79589	0.29803	 	1.6197899999999998E36	 	1.01892E-36	 	4077.772	25.5282	 
60.0	1.0	0.0	7.75387	7.04845	-10.29726	14.67838	16.75496	0.64791	1.54343	202.25684	166.73746	77.92122	0.29783	 	6.64007E36	 	2.4488E-37	 	3950.634	25.4276	 
55.0	1.0	0.0	7.75559	7.04689	-10.31712	14.66185	16.69183	0.6406	1.56104	202.54943	166.81175	78.04611	0.29763	 	2.84158E37	 	5.63637E-38	 	3824.004	25.326	 
50.0	1.0	0.0	7.7573	7.04533	-10.33693	14.64532	16.62869	0.63323	1.5792	202.8409	166.88497	78.1706	0.29742	 	1.27199E38	 	1.23995E-38	 	3697.889	25.223	 
45.0	1.0	0.0	7.75901	7.04378	-10.35669	14.6288	16.56553	0.62581	1.59792	203.13136	166.95721	78.29475	0.29722	 	5.968579999999999E38	 	2.60164E-39	 	3572.299	25.118	 
40.0	1.0	0.0	7.76072	7.04223	-10.37641	14.61228	16.50235	0.61834	1.61724	203.42092	167.02858	78.41859	0.29702	 	2.94236E39	 	5.19449E-40	 	3447.24	25.0118	 
35.0	1.0	0.0	7.76242	7.04068	-10.39608	14.59576	16.43916	0.6108	1.63719	203.70973	167.09918	78.54217	0.29682	 	1.52758E40	 	9.84564E-41	 	3322.723	24.9034	 
30.0	1.0	0.0	7.76413	7.03914	-10.41572	14.57926	16.37596	0.60321	1.6578	203.99791	167.16913	78.66555	0.29662	 	8.37355E40	 	1.76699E-41	 	3198.757	24.7932	 
25.0	1.0	0.0	7.76582	7.0376	-10.4353	 	16.31274	0.59556	1.67909	204.28561	167.23856	78.78879	0.29641	 	4.85956E41	 	2.9945E-42	 	3075.354	 	 
