T (C)	Fraction solid (wt)-TOTAL	Fraction liquid (wt)-LIQUID	Density (g/(cm)^3)-TOTAL	Molar volume (cm^3)-TOTAL	Volume change (%)-  	Average expansion coeff. (10e-6 1/K)-  	Thermal conductivity (W/(m*K))-TOTAL	Electrical resistivity (10e-6 Ohm*m)-TOTAL	Electrical conductivity (10e6 1/(Ohm*m))-TOTAL	Young's modulus (GPa)-TOTAL	Bulk modulus (GPa)-TOTAL	Shear modulus(GPa)-TOTAL	Poisson's ratio-TOTAL	Liquid viscosity (mPa s)-  	Total viscosity (mPa s)-  	Liquid diffusivity (10e-9 (m^2)/s)-  	Total diffusivity (10e-9 (m^2)/s)-  	Surface Tension (mN/m)-  	Enthalpy (J/mole)-TOTAL	Specific heat (J/(mole K))-TOTAL	Latent heat (J/mole)-TOTAL
1500.0	0.03355	0.96645	7.02102	7.80579	0.0	22.07893	32.68112	1.76793	0.56563	5.61269E-5	102.39011	1.87732E-5	0.49487	7.08596	7.40538	1.22133	1.16865	1854.10492	67765.92	 	0.0
1495.0	0.31267	0.68733	7.0662	7.75602	-0.63767	20.56679	33.17831	1.73653	0.57586	0.43825	89.0565	0.15071	0.45398	7.09414	30.41354	1.21648	0.28375	1853.8538	64870.652	579.054	2671.599
1490.0	0.47958	0.52042	7.09477	7.72525	-1.03183	19.65253	33.46208	1.71694	0.58243	2.48525	81.18522	0.86946	0.42918	7.10283	127.54226	1.21156	0.0674717	1853.79251	63074.411	359.248	4244.778
1485.0	0.58992	0.41008	7.11488	7.70413	-1.30246	19.04158	33.6349	1.70327	0.58711	5.80136	76.10036	2.05344	0.4126	7.11222	288.71523	1.20653	0.0297217	1853.87043	61831.492	248.584	5265.236
1480.0	0.66787	0.33213	7.13012	7.6885	-1.50268	18.60352	33.74216	1.69303	0.59066	9.68775	72.62523	3.45802	0.40077	7.12197	486.34146	1.20145	0.017594	1854.05674	60904.289	185.441	5970.575
1475.0	0.72547	0.27453	7.14227	7.67635	-1.65832	18.27492	33.80743	1.68494	0.59349	13.68606	70.16592	4.91621	0.39193	7.13235	701.53526	1.19628	0.0121623	1854.32929	60173.96	146.066	6479.634
1470.0	0.76952	0.23048	7.15233	7.66649	-1.78467	18.01822	33.84412	1.6783	0.59584	17.55705	68.38696	6.33782	0.3851	7.14324	923.92627	1.19104	0.0092084	1854.67396	59573.931	120.006	6858.981
1465.0	0.80414	0.19586	7.16094	7.65821	-1.89064	17.81152	33.86073	1.67266	0.59785	21.19792	67.0833	7.68221	0.37968	7.15463	1148.70374	1.18573	0.00738526	1855.0794	59063.912	102.004	7148.903
1460.0	0.83187	0.16813	7.16846	7.6511	-1.98174	17.64129	33.86258	1.66776	0.59961	24.56272	66.12893	8.93009	0.37528	7.16626	1373.31318	1.1804	0.00615961	1855.53704	58619.009	88.9806	7374.29
1455.0	0.85446	0.14554	7.17515	7.64488	-2.0615	17.49887	33.85338	1.6634	0.60118	27.65119	65.43541	10.07954	0.37165	7.17861	1597.30701	1.17497	0.00528056	1856.0392	58222.289	79.344	7552.07
1450.0	0.8731	0.1269	7.1812	7.6393	-2.13297	17.37677	33.83559	1.65946	0.60261	30.47403	64.94321	11.13319	0.36861	7.19109	1820.6975	1.16954	0.00461926	1856.58235	57862.08	72.0418	7693.912
1445.0	0.88868	0.11132	7.18673	7.63426	-2.19756	17.2715	33.8112	1.65584	0.60392	33.05554	64.60834	12.09908	0.36604	7.204	2044.34154	1.16406	0.00410199	1857.15978	57530.085	66.399	7808.109
1440.0	0.90182	0.0981766	7.19184	7.62962	-2.25691	17.17906	33.78148	1.65247	0.60515	35.41738	64.39932	12.98456	0.36383	7.21732	2268.97493	1.15853	0.00368513	1857.76898	57220.254	61.9662	7900.706
1435.0	0.91299	0.0870053	7.19661	7.62533	-2.31189	17.09731	33.74749	1.64931	0.60631	37.58316	64.29237	13.79792	0.36191	7.23106	2495.59737	1.15295	0.00334071	1858.40594	56928.082	58.4344	7976.205
1430.0	0.92256	0.0774361	7.20108	7.62133	-2.36316	17.02463	33.71006	1.64631	0.60742	39.57437	64.26939	14.54677	0.36025	7.24515	2725.20082	1.14734	0.00305029	1859.06679	56650.149	55.5866	8038.022
1425.0	0.93081	0.06919	7.2053	7.61756	-2.41153	16.95903	33.66974	1.64344	0.60848	41.41129	64.3159	15.23843	0.35878	7.25962	2958.81814	1.14169	0.0028012	1859.75077	56383.818	53.2662	8088.79
1420.0	0.93795	0.0620455	7.2093	7.61398	-2.45738	16.89954	33.62702	1.64068	0.6095	43.11122	64.42094	15.87916	0.35748	7.27449	3197.42927	1.136	0.00258453	1860.45473	56127.025	51.3586	8130.57
1415.0	0.94417	0.0558278	7.21312	7.61056	-2.50112	16.84519	33.5823	1.63802	0.61049	44.69002	64.57555	16.47475	0.35632	7.28971	3442.04644	1.13028	0.00239376	1861.17669	55878.137	49.7776	8164.991
1410.0	0.94962	0.0503797	7.21678	7.60729	-2.54301	16.79534	33.53593	1.63542	0.61146	46.16435	64.77194	17.03134	0.35528	7.30557	3693.88424	1.12449	0.00222396	1861.91371	55635.749	48.4776	8193.454
1405.0	0.9544	0.0456036	7.2203	7.60414	-2.5834	16.7491	33.4881	1.63289	0.61241	47.54328	65.00492	17.55223	0.35434	7.32151	3953.69604	1.11871	0.00207164	1862.66622	55398.928	47.3642	8216.888
1400.0	0.9586	0.0414012	7.22369	7.60109	-2.62251	16.70592	33.43901	1.63042	0.61334	48.83757	65.26956	18.0414	0.35349	7.33782	4222.47156	1.1129	0.00193399	1863.43398	55166.805	46.4246	8236.159
1395.0	0.9623	0.037695	7.22696	7.59813	-2.66038	16.66577	33.38887	1.62799	0.61426	50.0564	65.562	18.50225	0.35271	7.35449	4501.22968	1.10705	0.0018088	1864.21244	54938.668	45.6274	8251.975
1390.0	0.96558	0.0344164	7.23013	7.59525	-2.69724	16.62801	33.33781	1.62559	0.61516	51.20862	65.87868	18.93808	0.352	7.3715	4791.01829	1.10119	0.0016943	1865.00242	54713.928	44.948	8264.921
1385.0	0.96849	0.0315121	7.2332	7.59245	-2.7332	16.5924	33.28595	1.62323	0.61605	52.30126	66.21682	19.35149	0.35135	7.38887	5092.88889	1.0953	0.00158908	1865.80301	54492.096	44.3664	8275.485
1380.0	0.97107	0.0289319	7.23619	7.58971	-2.7683	16.55882	33.2334	1.6209	0.61694	53.341	66.57402	19.74498	0.35075	7.40665	5407.94821	1.08938	0.00149199	1866.6107	54272.762	43.8668	8284.071
1375.0	0.97336	0.0266379	7.2391	7.58702	-2.80271	16.52689	33.18025	1.61858	0.61782	54.33329	66.94821	20.1206	0.35019	7.4248	5737.29916	1.08342	0.00140209	1867.42695	54055.581	43.4362	8291.021
1370.0	0.97541	0.0245942	7.24193	7.58439	-2.83644	16.49657	33.12656	1.61629	0.6187	55.28324	67.33764	20.48024	0.34967	7.44362	6082.12412	1.07741	0.00131859	1868.2483	53840.262	43.0638	8296.622
1365.0	0.97723	0.0227719	7.24471	7.5818	-2.86963	16.46749	33.07241	1.61401	0.61958	56.1957	67.74069	20.82575	0.34919	7.46253	6443.68484	1.07141	0.00124081	1869.07784	53626.561	42.7402	8301.117
1360.0	0.97885	0.0211454	7.24742	7.57925	-2.9023	16.43963	33.01785	1.61174	0.62045	57.07432	68.15611	21.15847	0.34873	7.48182	6823.24611	1.06538	0.00116821	1869.91205	53414.266	42.459	8304.712
1355.0	0.98031	0.0196921	7.25008	7.57674	-2.93447	16.41293	32.96293	1.60948	0.62132	57.92268	68.58274	21.47977	0.34831	7.50186	7222.17977	1.05928	0.0011003	1870.74899	53203.2	42.2132	8307.583
1350.0	0.98161	0.0183924	7.25268	7.57426	-2.96623	16.38716	32.90769	1.60723	0.62219	58.74407	69.01957	21.79088	0.34791	7.52202	7641.92685	1.0532	0.00103667	1871.59058	52993.211	41.9978	8309.878
1345.0	0.98277	0.0172298	7.25524	7.57181	-2.99758	16.36233	32.85218	1.60499	0.62306	59.5413	69.46569	22.09285	0.34752	7.54292	8084.02783	1.04705	9.76962E-4	1872.43329	52784.166	41.809	8311.726
1340.0	0.98381	0.01619	7.25775	7.56939	-3.0286	16.33825	32.79641	1.60275	0.62393	60.31663	69.92033	22.38655	0.34716	7.56421	8550.04707	1.04087	9.20859E-4	1873.27934	52575.954	41.6424	8313.235
1335.0	0.98474	0.0152586	7.26022	7.56699	-3.05932	16.3148	32.74041	1.60052	0.6248	61.07268	70.38277	22.67296	0.34682	7.5857	9041.74555	1.03471	8.68082E-4	1874.12999	52368.478	41.4952	8314.5
1334.87	0.98477	0.0152276	7.26029	7.56693	-3.0601	16.3142	32.739	1.60046	0.62482	61.09431	70.39431	22.68116	0.34681	7.58645	9055.00657	1.03452	8.66742E-4	1874.14951	52363.151	41.8165	8314.58
1334.87	0.98477	0.0152276	7.26029	7.56693	-3.0601	16.3142	32.739	1.60046	0.62482	61.09431	70.39431	22.68116	0.34681	7.58645	9055.00657	1.03452	8.66742E-4	1874.14951	52363.151	 	8314.58
1330.0	0.98578	0.0142238	7.2627	7.56453	-3.09083	16.28896	32.68506	1.59824	0.62569	61.88013	70.87102	22.97865	0.34647	7.60609	9572.97284	1.02872	8.17361E-4	1874.82809	52156.965	42.3153	8320.29
1325.0	0.98673	0.0132694	7.26517	7.56209	-3.12213	16.2635	32.6295	1.59597	0.62658	62.67427	71.36454	23.27935	0.34613	7.62696	10135.14192	1.02271	7.69617E-4	1875.52561	51946.465	42.1	8325.551
1320.0	0.98761	0.0123852	7.26762	7.55966	-3.15325	16.23836	32.57377	1.5937	0.62747	63.45787	71.86217	23.57612	0.34581	7.64858	10730.62331	1.01663	7.24634E-4	1876.22589	51736.97	41.899	8330.29
1317.8	0.98798	0.0120154	7.26869	7.55859	-3.1669	16.22738	32.54918	1.5927	0.62786	63.79968	72.08251	23.70559	0.34567	7.6583	11003.95125	1.01394	7.05658E-4	1876.53554	51645.035	 	8332.229
1315.0	0.98863	0.0113687	7.27018	7.55714	-3.18556	16.20966	32.51843	1.5914	0.62838	64.29276	72.36124	23.89245	0.34546	7.67237	11371.8279	1.0103	6.81629E-4	1877.59102	51525.635	42.267	8337.349
1310.0	0.98971	0.0102932	7.27279	7.55457	-3.21842	16.17917	32.46326	1.58909	0.62929	65.15719	72.86285	24.2201	0.34511	7.69811	12058.64629	1.00375	6.40782E-4	1879.45417	51313.506	42.4258	8345.677
1305.0	0.99068	0.00931682	7.27536	7.55205	-3.25069	16.15011	32.40782	1.58678	0.63021	66.0014	73.36891	24.54016	0.34476	7.72481	12785.67492	0.99712	6.02437E-4	1881.29795	51102.803	42.1406	8353.051
1300.0	0.99157	0.00842608	7.27789	7.54957	-3.28246	16.12227	32.35215	1.58447	0.63112	66.82817	73.87907	24.85366	0.34443	7.75223	13555.98659	0.99044	5.66403E-4	1883.12513	50893.384	41.8838	8359.613
1295.0	0.99239	0.00761382	7.28039	7.54713	-3.31381	16.09544	32.29626	1.58217	0.63204	67.63982	74.39305	25.1615	0.34411	7.78045	14372.84131	0.98372	5.32515E-4	1884.93868	50685.123	41.6522	8365.483
1290.0	0.99313	0.00686867	7.28286	7.54471	-3.34475	16.06955	32.24019	1.57987	0.63296	68.43785	74.91066	25.46424	0.3438	7.80959	15239.62055	0.97692	5.00626E-4	1886.73639	50477.914	41.4418	8370.766
1285.0	0.99381	0.00618548	7.28531	7.54232	-3.37535	16.04446	32.18395	1.57757	0.63389	69.22417	75.43167	25.76258	0.3435	7.83967	16160.05928	0.97006	4.70601E-4	1888.52079	50271.663	41.2502	8375.553
1280.0	0.99444	0.00555703	7.28773	7.53996	-3.40563	16.02011	32.12756	1.57526	0.63481	70.0001	75.95589	26.05705	0.34321	7.87108	17138.1018	0.96309	4.42321E-4	1890.2879	50066.287	41.0752	8379.923
1275.0	0.99502	0.00497713	7.29013	7.53762	-3.43564	15.99633	32.07103	1.57296	0.63574	70.76717	76.48312	26.34821	0.34292	7.90324	18178.02761	0.95608	4.15674E-4	1892.04651	49861.717	40.914	8383.944
1270.0	0.99556	0.00444165	7.29251	7.53529	-3.46539	15.97314	32.01438	1.57065	0.63668	71.52647	77.01324	26.63648	0.34264	7.93686	19284.42106	0.94896	3.9056E-4	1893.78696	49657.887	40.766	8387.677
1265.0	0.99606	0.00394439	7.29488	7.53299	-3.49491	15.95044	31.95763	1.56835	0.63761	72.27898	77.54612	26.92222	0.34237	7.97168	20462.17809	0.94175	3.66888E-4	1895.51228	49454.744	40.6286	8391.175
1260.0	0.99652	0.0034833	7.29723	7.5307	-3.52424	15.92813	31.90077	1.56603	0.63856	73.02596	78.08155	27.20593	0.3421	8.00769	21716.68706	0.93447	3.4457E-4	1897.22835	49252.238	40.5012	8394.484
1255.0	0.99695	0.00305423	7.29956	7.52843	-3.55336	15.90624	31.84383	1.56372	0.6395	73.76748	78.61952	27.48761	0.34183	8.04531	23053.44577	0.92706	3.23532E-4	1898.92472	49050.324	40.3828	8397.645
1250.0	0.99735	0.0026541	7.30188	7.52617	-3.58232	15.88466	31.7868	1.5614	0.64045	74.5049	79.15986	27.76779	0.34157	8.08427	24478.78572	0.91958	3.03696E-4	1900.60869	48848.964	40.272	8400.693
1247.57	0.99753	0.00247315	7.303	7.52507	-3.59634	15.87431	31.75903	1.56027	0.64092	74.86105	79.42352	27.90313	0.34145	8.10344	25205.744	0.91594	2.94466E-4	1901.42698	48751.223	 	8402.125
1245.0	0.99851	0.00148855	7.30463	7.52333	-3.61863	15.84087	31.7311	1.559	0.64144	75.54299	79.70691	28.16344	0.34115	8.23293	26096.15745	0.90001	2.83939E-4	1902.25705	48635.4	42.7128	8416.388
1240.0	1.0	0.0	7.3077	7.52007	-3.66045	15.78013	31.67645	1.55655	0.64245	76.72782	80.25818	28.61559	0.34066	 	27874.86726	 	2.64945E-4	 	48416.416	43.7968	8437.94
1235.0	1.0	0.0	7.30978	7.51792	-3.68793	15.76224	31.61859	1.55425	0.6434	77.3486	80.80618	28.85141	0.34046	 	29581.34447	 	2.48836E-4	 	48196.061	44.071	 
1230.0	1.0	0.0	7.31186	7.51578	-3.71536	15.74434	31.56074	1.55193	0.64436	77.97233	81.35588	29.0884	0.34026	 	31404.74522	 	2.33611E-4	 	47999.52	39.3082	 
1225.0	1.0	0.0	7.31394	7.51364	-3.74274	15.72645	31.50288	1.54961	0.64532	78.59896	81.90723	29.32655	0.34007	 	33353.90136	 	2.19228E-4	 	47803.19	39.266	 
1220.0	1.0	0.0	7.31602	7.51151	-3.77008	15.70855	31.44503	1.54728	0.64629	79.22845	82.46018	29.56583	0.33987	 	35438.37219	 	2.05644E-4	 	47607.061	39.2258	 
1215.0	1.0	0.0	7.3181	7.50938	-3.79736	15.69065	31.38717	1.54494	0.64727	79.86075	83.01467	29.80623	0.33967	 	37668.50913	 	1.92821E-4	 	47411.132	39.1858	 
1210.0	1.0	0.0	7.32017	7.50725	-3.8246	15.67276	31.32931	1.54259	0.64826	80.49582	83.57066	30.04774	0.33947	 	40055.52677	 	1.80721E-4	 	47215.399	39.1466	 
1205.0	1.0	0.0	7.32224	7.50513	-3.85179	15.65486	31.27146	1.54024	0.64925	81.13362	84.12809	30.29034	0.33927	 	42611.58063	 	1.69308E-4	 	47019.86	39.1078	 
1200.0	1.0	0.0	7.32431	7.50301	-3.87893	15.63696	31.2136	1.53787	0.65025	81.77409	84.68692	30.53401	0.33907	 	45349.85247	 	1.58547E-4	 	46824.511	39.0698	 
1195.0	1.0	0.0	7.32637	7.5009	-3.90602	15.61906	31.15575	1.5355	0.65125	82.41721	85.24709	30.77874	0.33887	 	48284.64395	 	1.48405E-4	 	46629.35	39.0322	 
1190.0	1.0	0.0	7.32843	7.49879	-3.93306	15.60117	31.09789	1.53312	0.65227	83.06292	85.80855	31.02451	0.33867	 	51431.47942	 	1.3885E-4	 	46434.374	38.9952	 
1185.0	1.0	0.0	7.33049	7.49668	-3.96005	15.58327	31.04004	1.53073	0.65328	83.71119	86.37126	31.27131	0.33847	 	54807.21882	 	1.29853E-4	 	46239.58	38.9588	 
1180.0	1.0	0.0	7.33255	7.49458	-3.987	15.56537	30.98218	1.52833	0.65431	84.36196	86.93516	31.51912	0.33827	 	58430.18185	 	1.21384E-4	 	46044.964	38.9232	 
1175.0	1.0	0.0	7.33461	7.49248	-4.01389	15.54747	30.92432	1.52592	0.65534	85.01519	87.50021	31.76792	0.33807	 	62320.28443	 	1.13415E-4	 	45850.524	38.888	 
1170.0	1.0	0.0	7.33666	7.49038	-4.04074	15.52957	30.86647	1.5235	0.65638	85.67085	88.06635	32.01771	0.33787	 	66499.18891	 	1.05921E-4	 	45656.257	38.8534	 
1165.0	1.0	0.0	7.33871	7.48829	-4.06754	15.51167	30.80861	1.52107	0.65743	86.32889	88.63354	32.26845	0.33767	 	70990.46944	 	9.8876E-5	 	45462.159	38.8196	 
1160.0	1.0	0.0	7.34075	7.4862	-4.09429	15.49377	30.75076	1.51864	0.65849	86.98926	89.20172	32.52015	0.33747	 	75819.79412	 	9.22562E-5	 	45268.226	38.7866	 
1155.0	1.0	0.0	7.3428	7.48412	-4.12099	15.47587	30.6929	1.51619	0.65955	87.65191	89.77086	32.77277	0.33727	 	81015.12576	 	8.60388E-5	 	45074.456	38.754	 
1150.0	1.0	0.0	7.34484	7.48204	-4.14764	15.45797	30.63505	1.51373	0.66062	88.31682	90.3409	33.02631	0.33707	 	86606.94333	 	8.02019E-5	 	44880.845	38.7222	 
1145.0	1.0	0.0	7.34688	7.47996	-4.17424	15.44006	30.57719	1.51127	0.66169	88.98393	90.9118	33.28076	0.33687	 	92628.4863	 	7.47247E-5	 	44687.389	38.6912	 
1140.0	1.0	0.0	7.34892	7.47789	-4.2008	15.42216	30.51934	1.5088	0.66278	89.6532	91.4835	33.53608	0.33667	 	99116.02438	 	6.95875E-5	 	44494.084	38.661	 
1135.0	1.0	0.0	7.35095	7.47582	-4.2273	15.40426	30.46148	1.50631	0.66387	90.32459	92.05596	33.79228	0.33647	 	106109.1556	 	6.47713E-5	 	44300.927	38.6314	 
1130.0	1.0	0.0	7.35298	7.47375	-4.25376	15.38635	30.40363	1.50382	0.66497	90.99805	92.62914	34.04932	0.33627	 	113651.1358	 	6.02583E-5	 	44107.914	38.6026	 
1125.0	1.0	0.0	7.35501	7.47169	-4.28017	15.36845	30.34578	1.50132	0.66608	91.67354	93.20298	34.30721	0.33607	 	121789.2431	 	5.60314E-5	 	43915.041	38.5746	 
1120.0	1.0	0.0	7.35704	7.46964	-4.30653	15.35055	30.28793	1.49881	0.6672	92.35102	93.77744	34.56591	0.33587	 	130575.1811	 	5.20744E-5	 	43722.304	38.5474	 
1115.0	1.0	0.0	7.35906	7.46758	-4.33284	15.33264	30.23007	1.49629	0.66832	93.03044	94.35248	34.82542	0.33567	 	140065.5259	 	4.83718E-5	 	43529.699	38.521	 
1110.0	1.0	0.0	7.36108	7.46553	-4.3591	15.31474	30.17222	1.49376	0.66945	93.71176	94.92804	35.08572	0.33547	 	150322.2208	 	4.49089E-5	 	43337.221	38.4956	 
1105.0	1.0	0.0	7.3631	7.46349	-4.38531	15.29683	30.11437	1.49122	0.67059	94.39494	95.50409	35.34679	0.33527	 	161413.1256	 	4.1672E-5	 	43144.866	38.471	 
1100.0	1.0	0.0	7.36511	7.46144	-4.41147	15.27893	30.05653	1.48866	0.67174	95.07993	96.08057	35.60862	0.33507	 	173412.6254	 	3.86477E-5	 	42952.629	38.4474	 
1095.0	1.0	0.0	7.36713	7.45941	-4.43759	15.26102	29.99868	1.4861	0.6729	95.76669	96.65745	35.87119	0.33487	 	186402.307	 	3.58236E-5	 	42760.506	38.4246	 
1090.0	1.0	0.0	7.36914	7.45737	-4.46365	15.24311	29.94083	1.48353	0.67407	96.45518	97.23467	36.13448	0.33467	 	200471.7103	 	3.31877E-5	 	42568.493	38.4026	 
1085.0	1.0	0.0	7.37114	7.45534	-4.48967	15.22521	29.88299	1.48095	0.67524	97.14535	97.81219	36.39849	0.33447	 	215719.1635	 	3.07288E-5	 	42376.584	38.3818	 
1080.0	1.0	0.0	7.37315	7.45331	-4.51564	15.2073	29.82515	1.47836	0.67642	97.83717	98.38997	36.66319	0.33427	 	232252.7123	 	2.84362E-5	 	42184.774	38.362	 
1075.0	1.0	0.0	7.37515	7.45129	-4.54156	15.18939	29.76731	1.47576	0.67762	98.53058	98.96797	36.92857	0.33407	 	250191.1548	 	2.62998E-5	 	41993.059	38.343	 
1070.0	1.0	0.0	7.37715	7.44927	-4.56743	15.17148	29.70948	1.47315	0.67882	99.22554	99.54613	37.19461	0.33387	 	269665.1932	 	2.43101E-5	 	41801.432	38.3254	 
1065.0	1.0	0.0	7.37915	7.44725	-4.59325	15.15358	29.65165	1.47053	0.68003	99.92202	100.12442	37.46129	0.33367	 	290818.7192	 	2.24579E-5	 	41609.889	38.3086	 
1060.0	1.0	0.0	7.38114	7.44524	-4.61903	15.13567	29.59382	1.4679	0.68125	100.61997	100.70279	37.72861	0.33347	 	313810.2466	 	2.07347E-5	 	41418.424	38.293	 
1055.0	1.0	0.0	7.38313	7.44323	-4.64475	15.11776	29.53599	1.46526	0.68247	101.31934	101.2812	37.99654	0.33327	 	338814.511	 	1.91325E-5	 	41227.031	38.2786	 
1050.0	1.0	0.0	7.38512	7.44123	-4.67043	15.09985	29.47818	1.4626	0.68371	102.02009	101.8596	38.26507	0.33307	 	366024.257	 	1.76435E-5	 	41035.704	38.2654	 
1045.0	1.0	0.0	7.38711	7.43923	-4.69605	15.08194	29.42036	1.45994	0.68496	102.72218	102.43796	38.53418	0.33287	 	395652.2359	 	1.62607E-5	 	40844.438	38.2532	 
1040.0	1.0	0.0	7.38909	7.43723	-4.72163	15.06403	29.36256	1.45726	0.68622	103.42557	103.01622	38.80386	0.33267	 	427933.4402	 	1.4977E-5	 	40653.226	38.2424	 
1035.0	1.0	0.0	7.39107	7.43524	-4.74716	15.04612	29.30476	1.45458	0.68748	104.13021	103.59435	39.07409	0.33247	 	463127.6059	 	1.37862E-5	 	40462.061	38.233	 
1030.0	1.0	0.0	7.39305	7.43325	-4.77264	15.0282	29.24697	1.45188	0.68876	104.83606	104.17231	39.34486	0.33227	 	501522.0151	 	1.26821E-5	 	40270.937	38.2248	 
1025.0	1.0	0.0	7.39502	7.43127	-4.79807	15.01029	29.18919	1.44917	0.69005	105.54308	104.75005	39.61615	0.33207	 	543434.6391	 	1.16591E-5	 	40079.847	38.218	 
1020.0	1.0	0.0	7.39699	7.42929	-4.82345	14.99238	29.13142	1.44646	0.69135	106.25122	105.32753	39.88793	0.33187	 	589217.664	 	1.07117E-5	 	39888.785	38.2124	 
1015.0	1.0	0.0	7.39896	7.42731	-4.84879	14.97447	29.07366	1.44373	0.69265	106.96045	105.90471	40.16021	0.33167	 	639261.4502	 	9.83501E-6	 	39697.742	38.2086	 
1010.0	1.0	0.0	7.40093	7.42533	-4.87407	14.95655	29.01591	1.44098	0.69397	107.67071	106.48155	40.43296	0.33147	 	693998.982	 	9.02413E-6	 	39506.711	38.2062	 
1005.0	1.0	0.0	7.40289	7.42336	-4.89931	14.93864	28.95817	1.43823	0.6953	108.38197	107.05801	40.70616	0.33127	 	753910.8711	 	8.27463E-6	 	39315.685	38.2052	 
1000.0	1.0	0.0	7.40485	7.4214	-4.92449	14.92073	28.90046	1.43546	0.69664	109.09418	107.63404	40.97981	0.33107	 	819530.9888	 	7.5823E-6	 	39124.655	38.206	 
995.0	1.0	0.0	7.40681	7.41944	-4.94963	14.90281	28.84276	1.43269	0.69799	109.80729	108.2096	41.25387	0.33087	 	891452.809	 	6.94319E-6	 	38933.613	38.2084	 
990.0	1.0	0.0	7.40877	7.41748	-4.97472	14.8849	28.78507	1.4299	0.69935	110.52128	108.78466	41.52835	0.33067	 	970336.5604	 	6.35359E-6	 	38742.551	38.2124	 
985.0	1.0	0.0	7.41072	7.41552	-4.99976	14.86698	28.72741	1.4271	0.70072	111.23609	109.35918	41.80322	0.33047	 	1056917.294	 	5.81003E-6	 	38551.459	38.2184	 
980.0	1.0	0.0	7.41267	7.41357	-5.02475	14.84907	28.66977	1.42428	0.70211	111.95168	109.93311	42.07846	0.33027	 	1152013.995	 	5.30924E-6	 	38360.329	38.226	 
975.0	1.0	0.0	7.41462	7.41163	-5.0497	14.83115	28.61216	1.42146	0.7035	112.66801	110.50642	42.35407	0.33007	 	1256539.877	 	4.84816E-6	 	38169.151	38.2356	 
970.0	1.0	0.0	7.41656	7.40968	-5.07459	14.81324	28.55458	1.41862	0.70491	113.38504	111.07906	42.63001	0.32987	 	1371514.027	 	4.42395E-6	 	37977.915	38.2472	 
965.0	1.0	0.0	7.4185	7.40774	-5.09943	14.79532	28.49702	1.41577	0.70633	114.10272	111.65099	42.90629	0.32967	 	1498074.591	 	4.03391E-6	 	37786.611	38.2608	 
960.0	1.0	0.0	7.42044	7.40581	-5.12423	14.7774	28.4395	1.4129	0.70776	114.82101	112.22218	43.18288	0.32947	 	1637493.706	 	3.67556E-6	 	37595.228	38.2766	 
955.0	1.0	0.0	7.42238	7.40388	-5.14898	14.75948	28.38201	1.41002	0.70921	115.53987	112.79259	43.45977	0.32927	 	1791194.44	 	3.34654E-6	 	37403.755	38.2946	 
950.0	1.0	0.0	7.42431	7.40195	-5.17368	14.74157	28.32456	1.40713	0.71067	116.25925	113.36218	43.73694	0.32907	 	1960770.013	 	3.04467E-6	 	37212.181	38.3148	 
945.0	1.0	0.0	7.42624	7.40002	-5.19833	14.72365	28.26716	1.40422	0.71214	116.97912	113.93091	44.01437	0.32887	 	2148005.637	 	2.76791E-6	 	37020.494	38.3374	 
940.0	1.0	0.0	7.42817	7.3981	-5.22293	14.70573	28.20979	1.4013	0.71362	117.69943	114.49874	44.29205	0.32867	 	2354903.347	 	2.51436E-6	 	36828.682	38.3624	 
935.0	1.0	0.0	7.4301	7.39619	-5.24748	14.68781	28.15248	1.39837	0.71512	118.42013	115.06563	44.56997	0.32847	 	2583710.257	 	2.28225E-6	 	36636.731	38.3902	 
930.0	1.0	0.0	7.43202	7.39427	-5.27198	14.66989	28.09522	1.39542	0.71663	119.14119	115.63155	44.8481	0.32827	 	2836950.752	 	2.06993E-6	 	36444.628	38.4206	 
925.0	1.0	0.0	7.43394	7.39237	-5.29644	14.65197	28.03802	1.39246	0.71816	119.86256	116.19645	45.12643	0.32807	 	3117463.193	 	1.87584E-6	 	36252.359	38.4538	 
920.0	1.0	0.0	7.43585	7.39046	-5.32084	14.63405	27.98088	1.38948	0.7197	120.5842	116.76031	45.40495	0.32788	 	3428441.803	 	1.69858E-6	 	36059.91	38.4898	 
915.0	1.0	0.0	7.43777	7.38856	-5.3452	14.61613	27.9238	1.38648	0.72125	121.30607	117.32308	45.68364	0.32768	 	3773484.519	 	1.53679E-6	 	35867.266	38.5288	 
910.0	1.0	0.0	7.43968	7.38666	-5.36951	14.59821	27.8668	1.38347	0.72282	122.02813	117.88472	45.96248	0.32748	 	4156647.714	 	1.38926E-6	 	35674.409	38.5714	 
905.0	1.0	0.0	7.44158	7.38477	-5.39376	14.58029	27.80987	1.38045	0.7244	122.75032	118.4452	46.24146	0.32728	 	4582508.821	 	1.25483E-6	 	35481.324	38.617	 
900.0	1.0	0.0	7.44349	7.38288	-5.41797	14.56236	27.75302	1.3774	0.726	123.47262	119.00448	46.52056	0.32708	 	5056238.095	 	1.13243E-6	 	35287.994	38.666	 
895.0	1.0	0.0	7.44539	7.38099	-5.44213	14.54444	27.69625	1.37434	0.72762	124.19498	119.56253	46.79977	0.32688	 	5583680.913	 	1.02109E-6	 	35094.399	38.719	 
890.0	1.0	0.0	7.44729	7.37911	-5.46625	14.52652	27.63957	1.37127	0.72925	124.91735	120.11931	47.07907	0.32668	 	6171452.252	 	9.19888E-7	 	34900.521	38.7756	 
885.0	1.0	0.0	7.44919	7.37723	-5.49031	14.50859	27.58299	1.36817	0.7309	125.63969	120.67477	47.35844	0.32648	 	6827045.284	 	8.27978E-7	 	34706.339	38.8364	 
880.0	1.0	0.0	7.45108	7.37536	-5.51432	14.49067	27.52651	1.36506	0.73257	126.36197	121.2289	47.63787	0.32628	 	7558956.289	 	7.44579E-7	 	34511.833	38.9012	 
875.0	1.0	0.0	7.45297	7.37349	-5.53829	14.47275	27.47013	1.36193	0.73425	127.08414	121.78164	47.91735	0.32608	 	8376828.533	 	6.68969E-7	 	34316.979	38.9708	 
870.0	1.0	0.0	7.45486	7.37162	-5.56221	14.45482	27.41387	1.35878	0.73595	127.80615	122.33297	48.19685	0.32588	 	9291618.126	 	6.0048E-7	 	34121.756	39.0446	 
865.0	1.0	0.0	7.45674	7.36976	-5.58607	14.4369	27.35772	1.35562	0.73767	128.52797	122.88285	48.47636	0.32568	 	1.031578546E7	 	5.38498E-7	 	33926.136	39.124	 
860.0	1.0	0.0	7.45862	7.3679	-5.60989	14.41897	27.30169	1.35243	0.73941	129.24955	123.43125	48.75586	0.32548	 	1.146351642E7	 	4.82454E-7	 	33730.095	39.2082	 
855.0	1.0	0.0	7.4605	7.36604	-5.63366	14.40105	27.2458	1.34923	0.74117	129.97085	123.97812	49.03534	0.32528	 	1.275097817E7	 	4.31827E-7	 	33533.605	39.298	 
850.0	1.0	0.0	7.46238	7.36419	-5.65738	14.38312	27.19003	1.346	0.74294	130.69183	124.52344	49.31479	0.32508	 	1.41966155E7	 	3.86135E-7	 	33336.637	39.3936	 
845.0	1.0	0.0	7.46425	7.36234	-5.68105	14.36519	27.13441	1.34276	0.74474	131.41244	125.06716	49.59419	0.32488	 	1.582149428E7	 	3.44937E-7	 	33139.158	39.4958	 
840.0	1.0	0.0	7.46612	7.3605	-5.70468	14.34727	27.07893	1.33949	0.74655	132.13265	125.60926	49.87351	0.32468	 	1.76497001E7	 	3.07824E-7	 	32941.138	39.604	 
835.0	1.0	0.0	7.46799	7.35866	-5.72825	14.32934	27.0236	1.33621	0.74839	132.85241	126.14971	50.15275	0.32448	 	1.970880157E7	 	2.74426E-7	 	32742.539	39.7198	 
830.0	1.0	0.0	7.46985	7.35682	-5.75178	14.31141	26.96842	1.3329	0.75025	133.57169	126.68846	50.43189	0.32428	 	2.203038929E7	 	2.44399E-7	 	32543.326	39.8426	 
825.0	1.0	0.0	7.47171	7.35499	-5.77525	14.29348	26.9134	1.32957	0.75212	134.29043	127.22548	50.71091	0.32408	 	2.465070358E7	 	2.1743E-7	 	32343.459	39.9734	 
820.0	1.0	0.0	7.47357	7.35316	-5.79868	14.27555	26.85855	1.32622	0.75402	135.0086	127.76074	50.9898	0.32388	 	2.761136671E7	 	1.93232E-7	 	32142.894	40.113	 
815.0	1.0	0.0	7.47543	7.35134	-5.82206	14.25762	26.80386	1.32285	0.75595	135.72615	128.2942	51.26855	0.32368	 	3.096023773E7	 	1.71542E-7	 	31941.587	40.2614	 
810.0	1.0	0.0	7.47728	7.34952	-5.84539	14.2397	26.74935	1.31945	0.75789	136.44305	128.82584	51.54713	0.32348	 	3.475241201E7	 	1.52121E-7	 	31739.489	40.4196	 
805.0	1.0	0.0	7.47913	7.3477	-5.86867	14.22177	26.69501	1.31603	0.75986	137.15925	129.35562	51.82553	0.32328	 	3.905139122E7	 	1.3475E-7	 	31536.547	40.5884	 
800.0	1.0	0.0	7.48097	7.34588	-5.8919	14.20383	26.64085	1.31259	0.76185	137.8747	129.8835	52.10373	0.32308	 	4.393045471E7	 	1.19229E-7	 	31332.707	40.768	 
795.0	1.0	0.0	7.48282	7.34408	-5.91508	14.1859	26.58687	1.30913	0.76387	138.58938	130.40946	52.38172	0.32288	 	4.947426906E7	 	1.05375E-7	 	31127.908	40.9598	 
790.0	1.0	0.0	7.48466	7.34227	-5.93822	14.16797	26.53308	1.30564	0.76591	139.30323	130.93346	52.65949	0.32268	 	5.578077949E7	 	9.30244E-8	 	30922.085	41.1646	 
785.0	1.0	0.0	7.4865	7.34047	-5.9613	14.15004	26.47947	1.30213	0.76797	140.01622	131.45546	52.93701	0.32248	 	6.296343576E7	 	8.20249E-8	 	30715.168	41.3834	 
780.0	1.0	0.0	7.48833	7.33867	-5.98434	14.13211	26.42604	1.2986	0.77006	140.7283	131.97544	53.21427	0.32228	 	7.115381492E7	 	7.22402E-8	 	30507.081	41.6174	 
775.0	1.0	0.0	7.49016	7.33687	-6.00732	14.11418	26.3728	1.29505	0.77217	141.43944	132.49337	53.49126	0.32208	 	8.05047162E7	 	6.35461E-8	 	30297.743	41.8676	 
770.0	1.0	0.0	7.49199	7.33508	-6.03026	14.09624	26.31974	1.29147	0.77431	142.14958	133.00921	53.76796	0.32188	 	9.1193818E7	 	5.58301E-8	 	30087.063	42.136	 
765.0	1.0	0.0	7.49381	7.3333	-6.05315	14.07831	26.26687	1.28786	0.77648	142.8587	133.52293	54.04435	0.32168	 	1.034280051E8	 	4.89901E-8	 	29874.946	42.4234	 
760.0	1.0	0.0	7.49564	7.33151	-6.07599	14.06038	26.21418	1.28424	0.77867	143.56674	134.0345	54.32042	0.32148	 	1.174484967E8	 	4.29341E-8	 	29661.287	42.7318	 
755.0	1.0	0.0	7.49746	7.32974	-6.09878	14.04244	26.16167	1.28059	0.78089	144.27367	134.54388	54.59615	0.32128	 	1.335369312E8	 	3.75787E-8	 	29445.969	43.0636	 
750.0	1.0	0.0	7.49927	7.32796	-6.12153	14.02451	26.10933	1.27691	0.78314	144.97944	135.05106	54.87153	0.32108	 	1.52022599E8	 	3.28487E-8	 	29228.867	43.4204	 
745.0	1.0	0.0	7.50109	7.32619	-6.14422	14.00657	26.05716	1.27322	0.78541	145.68402	135.55599	55.14654	0.32088	 	1.7329105E8	 	2.86762E-8	 	29009.845	43.8044	 
740.0	1.0	0.0	7.5029	7.32442	-6.16686	13.98864	26.00516	1.2695	0.78771	146.38737	136.05864	55.42117	0.32068	 	1.977943553E8	 	2.50004E-8	 	28788.749	44.2192	 
735.0	1.0	0.0	7.5047	7.32266	-6.18946	13.9707	25.95331	1.26576	0.79004	147.08943	136.55899	55.69539	0.32048	 	2.260633578E8	 	2.17662E-8	 	28565.415	44.6668	 
730.0	1.0	0.0	7.50651	7.3209	-6.21201	13.95277	25.90162	1.26199	0.7924	147.79018	137.057	55.9692	0.32028	 	2.587223217E8	 	1.89243E-8	 	28339.659	45.1512	 
725.0	1.0	0.0	7.50831	7.31914	-6.2345	13.93483	25.85007	1.25821	0.79478	148.48956	137.55265	56.24257	0.32008	 	2.965064768E8	 	1.64304E-8	 	28111.28	45.6758	 
720.0	1.0	0.0	7.51011	7.31739	-6.25695	13.91689	25.79865	1.2544	0.79719	149.18755	138.0459	56.5155	0.31988	 	3.402830649E8	 	1.4245E-8	 	27880.054	46.2452	 
715.0	1.0	0.0	7.5119	7.31564	-6.27935	13.89896	25.74735	1.25057	0.79964	149.8841	138.53673	56.78796	0.31968	 	3.910766279E8	 	1.23324E-8	 	27645.735	46.8638	 
710.0	1.0	0.0	7.51369	7.3139	-6.3017	13.88102	25.69617	1.24672	0.8021	150.57916	139.02511	57.05995	0.31948	 	4.500994431E8	 	1.0661E-8	 	27405.112	48.1246	 
705.0	1.0	0.0	7.51548	7.31216	-6.32401	13.86308	25.64509	1.24285	0.8046	151.2727	139.51099	57.33144	0.31928	 	5.187882145E8	 	9.20242E-9	 	27134.228	54.1768	 
700.0	1.0	0.0	7.51727	7.31042	-6.34626	13.84514	25.59409	1.23896	0.80713	151.96468	139.99437	57.60242	0.31908	 	5.988483821E8	 	7.9314E-9	 	26866.819	53.4818	 
695.0	1.0	0.0	7.51905	7.30869	-6.36846	13.8272	25.54317	1.23505	0.80968	152.65505	140.4752	57.87287	0.31888	 	6.923077246E8	 	6.82543E-9	 	26602.759	52.812	 
690.0	1.0	0.0	7.52083	7.30696	-6.39062	13.80926	25.49231	1.23113	0.81226	153.34378	140.95346	58.14279	0.31868	 	8.015813166E8	 	5.86453E-9	 	26341.927	52.1664	 
685.0	1.0	0.0	7.52261	7.30523	-6.41273	13.79132	25.44149	1.22718	0.81488	154.03083	141.42913	58.41214	0.31848	 	9.295503889E8	 	5.03092E-9	 	26084.21	51.5434	 
680.0	1.0	0.0	7.52438	7.30351	-6.43478	13.77338	25.3907	1.22322	0.81752	154.71615	141.90216	58.68093	0.31828	 	1.079658239E9	 	4.30885E-9	 	25829.499	50.9422	 
675.0	1.0	0.0	7.52615	7.30179	-6.45679	13.75544	25.33993	1.21924	0.82018	155.3997	142.37254	58.94912	0.31808	 	1.256027099E9	 	3.68438E-9	 	25577.69	50.3618	 
670.0	1.0	0.0	7.52792	7.30008	-6.47875	13.7375	25.28914	1.21525	0.82288	156.08145	142.84023	59.21671	0.31788	 	1.463600793E9	 	3.14518E-9	 	25328.686	49.8008	 
665.0	1.0	0.0	7.52968	7.29837	-6.50066	13.71956	25.23834	1.21124	0.8256	156.76135	143.30521	59.48369	0.31768	 	1.708319232E9	 	2.68034E-9	 	25082.392	49.2588	 
660.0	1.0	0.0	7.53144	7.29666	-6.52252	13.70162	25.18749	1.20721	0.82835	157.43937	143.76745	59.75002	0.31748	 	1.997332236E9	 	2.28028E-9	 	24838.721	48.7342	 
655.0	1.0	0.0	7.5332	7.29496	-6.54433	13.68368	25.13658	1.20318	0.83113	158.11547	144.22693	60.01571	0.31728	 	2.339262081E9	 	1.93654E-9	 	24597.587	48.2268	 
650.0	1.0	0.0	7.53496	7.29326	-6.5661	13.66573	25.08559	1.19913	0.83394	158.7896	144.68361	60.28074	0.31708	 	2.744526512E9	 	1.64169E-9	 	24358.91	47.7354	 
645.0	1.0	0.0	7.53671	7.29156	-6.58781	13.64779	25.0345	1.19507	0.83677	159.46172	145.13747	60.54508	0.31688	 	3.225736952E9	 	1.38922E-9	 	24122.612	47.2596	 
640.0	1.0	0.0	7.53846	7.28987	-6.60948	13.62985	24.98329	1.191	0.83963	160.1318	145.58847	60.80872	0.31668	 	3.798190434E9	 	1.17342E-9	 	23888.62	46.7984	 
635.0	1.0	0.0	7.5402	7.28818	-6.63109	13.6119	24.93195	1.18691	0.84252	160.79979	146.03661	61.07166	0.31648	 	4.480478579E9	 	9.89281E-10	 	23656.866	46.3508	 
630.0	1.0	0.0	7.54194	7.2865	-6.65266	13.59396	24.88045	1.18282	0.84544	161.46566	146.48184	61.33386	0.31628	 	5.29524308E9	 	8.32455E-10	 	23427.281	45.917	 
625.0	1.0	0.0	7.54368	7.28482	-6.67418	13.57602	24.82877	1.17872	0.84838	162.12937	146.92415	61.59533	0.31608	 	6.270114975E9	 	6.99133E-10	 	23199.803	45.4956	 
620.0	1.0	0.0	7.54542	7.28315	-6.69565	13.55807	24.77689	1.17461	0.85134	162.79087	147.3635	61.85604	0.31589	 	7.438884988E9	 	5.86008E-10	 	22974.371	45.0864	 
615.0	1.0	0.0	7.54715	7.28147	-6.71707	13.54012	24.7248	1.1705	0.85434	163.45014	147.79987	62.11597	0.31569	 	8.842965064E9	 	4.90202E-10	 	22750.927	44.6888	 
610.0	1.0	0.0	7.54888	7.27981	-6.73844	13.52218	24.67248	1.16638	0.85735	164.10712	148.23324	62.37512	0.31549	 	1.05332E10	 	4.09223E-10	 	22529.416	44.3022	 
605.0	1.0	0.0	7.55061	7.27814	-6.75977	13.50423	24.61991	1.16225	0.8604	164.76179	148.66358	62.63346	0.31529	 	1.2572299999999998E10	 	3.40912E-10	 	22309.786	43.926	 
600.0	1.0	0.0	7.55233	7.27648	-6.78104	13.48629	24.56706	1.15812	0.86347	165.41409	149.09086	62.89099	0.31509	 	1.5037299999999998E10	 	2.83404E-10	 	22091.986	43.56	 
595.0	1.0	0.0	7.55405	7.27482	-6.80226	13.46834	24.51394	1.15398	0.86656	166.064	149.51506	63.14768	0.31489	 	1.80239E10	 	2.35089E-10	 	21875.968	43.2036	 
590.0	1.0	0.0	7.55577	7.27317	-6.82344	13.45039	24.46051	1.14984	0.86968	166.71147	149.93615	63.40352	0.31469	 	2.16504E10	 	1.94584E-10	 	21661.687	42.8562	 
585.0	1.0	0.0	7.55748	7.27152	-6.84457	13.43244	24.40676	1.1457	0.87283	167.35647	150.35412	63.6585	0.31449	 	2.6063799999999996E10	 	1.60698E-10	 	21449.097	42.518	 
580.0	1.0	0.0	7.55919	7.26988	-6.86564	13.4145	24.35269	1.14155	0.876	167.99895	150.76893	63.91261	0.31429	 	3.1447399999999996E10	 	1.32412E-10	 	21238.158	42.1878	 
575.0	1.0	0.0	7.5609	7.26823	-6.88667	13.39655	24.29827	1.1374	0.87919	168.63889	151.18056	64.16582	0.31409	 	3.80298E10	 	1.08852E-10	 	21028.828	41.866	 
570.0	1.0	0.0	7.5626	7.2666	-6.90765	13.3786	24.2435	1.13325	0.88241	169.27623	151.58899	64.41812	0.31389	 	4.6097E10	 	8.92727E-11	 	20821.07	41.5516	 
565.0	1.0	0.0	7.5643	7.26496	-6.92858	13.36065	24.18837	1.1291	0.88566	169.91095	151.9942	64.66949	0.31369	 	5.600829999999999E10	 	7.30392E-11	 	20614.846	41.2448	 
560.0	1.0	0.0	7.566	7.26333	-6.94947	13.3427	24.13286	1.12495	0.88893	170.543	152.39615	64.91993	0.31349	 	6.821539999999999E10	 	5.96111E-11	 	20410.121	40.945	 
555.0	1.0	0.0	7.56769	7.26171	-6.9703	13.32475	24.07697	1.12079	0.89223	171.17235	152.79483	65.16942	0.31329	 	8.3288E10	 	4.85303E-11	 	20206.861	40.652	 
550.0	1.0	0.0	7.56938	7.26008	-6.99108	13.3068	24.02069	1.11664	0.89555	171.79897	153.19022	65.41794	0.31309	 	1.01947E11	 	3.94087E-11	 	20005.033	40.3656	 
545.0	1.0	0.0	7.57107	7.25847	-7.01182	13.28884	23.96401	1.11248	0.89889	172.4228	153.58229	65.66548	0.31289	 	1.25106E11	 	3.19184E-11	 	19804.607	40.0852	 
540.0	1.0	0.0	7.57276	7.25685	-7.0325	13.27089	23.90694	1.10832	0.90227	173.04382	153.97101	65.91202	0.31269	 	1.53928E11	 	2.57834E-11	 	19605.552	39.811	 
535.0	1.0	0.0	7.57444	7.25524	-7.05314	13.25294	23.84947	1.10416	0.90567	173.66198	154.35638	66.15755	0.31249	 	1.89895E11	 	2.07714E-11	 	19407.839	39.5426	 
530.0	1.0	0.0	7.57612	7.25363	-7.07373	13.23499	23.7916	1.1	0.90909	174.27726	154.73835	66.40205	0.31229	 	2.34904E11	 	1.66876E-11	 	19211.441	39.2796	 
525.0	1.0	0.0	7.57779	7.25203	-7.09427	13.21704	23.73333	1.09583	0.91255	174.88961	155.11692	66.64551	0.31209	 	2.91388E11	 	1.3369E-11	 	19016.331	39.022	 
520.0	1.0	0.0	7.57946	7.25043	-7.11476	13.19908	23.67465	1.09167	0.91603	175.499	155.49207	66.88792	0.31189	 	3.6248E11	 	1.06797E-11	 	18822.483	38.7696	 
515.0	1.0	0.0	7.58113	7.24884	-7.1352	13.18113	23.61559	1.0875	0.91954	176.10539	155.86376	67.12926	0.31169	 	4.5222E11	 	8.5064E-12	 	18629.873	38.522	 
510.0	1.0	0.0	7.5828	7.24724	-7.15559	13.16317	23.55613	1.08333	0.92308	176.70875	156.23198	67.36952	0.31149	 	5.65844E11	 	6.75515E-12	 	18438.477	38.2792	 
505.0	1.0	0.0	7.58446	7.24566	-7.17593	13.14522	23.49629	1.07915	0.92666	177.30904	156.59671	67.60867	0.31129	 	7.10153E11	 	5.34809E-12	 	18248.272	38.041	 
500.0	1.0	0.0	7.58612	7.24407	-7.19622	13.12727	23.43607	1.07497	0.93026	177.90622	156.95793	67.84672	0.31109	 	8.94009E11	 	4.22093E-12	 	18059.236	37.8072	 
495.0	1.0	0.0	7.58777	7.24249	-7.21647	13.10931	23.37548	1.07079	0.93389	178.50025	157.31561	68.08364	0.31089	 	1.12901E12	 	3.32075E-12	 	17871.347	37.5778	 
490.0	1.0	0.0	7.58942	7.24092	-7.23667	13.09135	23.31453	1.0666	0.93756	179.09111	157.66975	68.31942	0.31069	 	1.43035E12	 	2.60407E-12	 	17684.585	37.3524	 
485.0	1.0	0.0	7.59107	7.23934	-7.25681	13.0734	23.25324	1.0624	0.94126	179.67876	158.02031	68.55405	0.31049	 	1.81808E12	 	2.0353E-12	 	17498.93	37.131	 
480.0	1.0	0.0	7.59272	7.23777	-7.27691	13.05544	23.19161	1.0582	0.945	180.26316	158.36728	68.78751	0.31029	 	2.31867E12	 	1.58536E-12	 	17314.364	36.9132	 
475.0	1.0	0.0	7.59436	7.23621	-7.29696	13.03748	23.12966	1.05399	0.94877	180.84428	158.71064	69.01978	0.31009	 	2.96723E12	 	1.23062E-12	 	17130.866	36.6996	 
470.0	1.0	0.0	7.596	7.23465	-7.31696	13.01953	23.0674	1.04977	0.95259	181.42208	159.05036	69.25087	0.30989	 	3.8105E12	 	9.51878E-13	 	16948.42	36.4892	 
465.0	1.0	0.0	7.59763	7.23309	-7.33691	13.00157	23.00485	1.04555	0.95644	181.99653	159.38645	69.48074	0.30969	 	4.91097E12	 	7.33609E-13	 	16767.008	36.2824	 
460.0	1.0	0.0	7.59927	7.23154	-7.35681	12.98361	22.94202	1.04131	0.96033	182.5676	159.71886	69.70939	0.30949	 	6.35244E12	 	5.63299E-13	 	16586.614	36.0788	 
455.0	1.0	0.0	7.6009	7.22999	-7.37666	12.96565	22.87894	1.03706	0.96427	183.13525	160.04759	69.93681	0.30929	 	8.24782E12	 	4.30892E-13	 	16407.22	35.8788	 
450.0	1.0	0.0	7.60252	7.22844	-7.39647	12.94769	22.81561	1.03279	0.96825	183.69944	160.37262	70.16297	0.30909	 	1.07498E13	 	3.28333E-13	 	16228.812	35.6816	 
445.0	1.0	0.0	7.60414	7.2269	-7.41622	12.92973	22.75206	1.02852	0.97227	184.26015	160.69394	70.38788	0.30889	 	1.40657E13	 	2.49195E-13	 	16051.373	35.4878	 
440.0	1.0	0.0	7.60576	7.22536	-7.43593	12.91177	22.6883	1.02423	0.97634	184.81735	161.01151	70.61151	0.30869	 	1.84784E13	 	1.88366E-13	 	15874.89	35.2966	 
435.0	1.0	0.0	7.60738	7.22383	-7.45558	12.89381	22.62435	1.01992	0.98047	185.37099	161.32534	70.83385	0.30849	 	2.43752E13	 	1.41796E-13	 	15699.347	35.1086	 
430.0	1.0	0.0	7.60899	7.2223	-7.47519	12.87585	22.56023	1.0156	0.98464	185.92105	161.63539	71.05489	0.30829	 	3.22891E13	 	1.06287E-13	 	15524.731	34.9232	 
425.0	1.0	0.0	7.6106	7.22077	-7.49475	12.85789	22.49597	1.01126	0.98887	186.4675	161.94166	71.27462	0.30809	 	4.29569E13	 	7.93237E-14	 	15351.028	34.7406	 
420.0	1.0	0.0	7.6122	7.21925	-7.51426	12.83993	22.43157	1.0069	0.99315	187.0103	162.24413	71.49302	0.30789	 	5.74013E13	 	5.89376E-14	 	15178.225	34.5606	 
415.0	1.0	0.0	7.61381	7.21773	-7.53372	12.82197	22.36706	1.00252	0.99749	187.54943	162.54279	71.71008	0.30769	 	7.70496E13	 	4.35913E-14	 	15006.309	34.3832	 
410.0	1.0	0.0	7.6154	7.21621	-7.55313	12.80401	22.30246	0.99812	1.00189	188.08484	162.83762	71.92579	0.30749	 	1.03903E14	 	3.20904E-14	 	14835.267	34.2084	 
405.0	1.0	0.0	7.617	7.2147	-7.57249	12.78604	22.23778	0.99369	1.00635	188.61652	163.1286	72.14013	0.30729	 	1.4078E14	 	2.3511E-14	 	14665.088	34.0358	 
400.0	1.0	0.0	7.61859	7.21319	-7.5918	12.76808	22.17304	0.98925	1.01087	189.14444	163.41573	72.3531	0.30709	 	1.91675E14	 	1.71409E-14	 	14495.759	33.8658	 
395.0	1.0	0.0	7.62018	7.21169	-7.61107	12.75012	22.10827	0.98477	1.01546	189.66855	163.69898	72.56468	0.30689	 	2.6227199999999997E14	 	1.2434E-14	 	14327.27	33.6978	 
390.0	1.0	0.0	7.62177	7.21019	-7.63028	12.73215	22.04348	0.98028	1.02012	190.18884	163.97835	72.77487	0.30669	 	3.60707E14	 	8.97313E-15	 	14159.608	33.5324	 
385.0	1.0	0.0	7.62335	7.20869	-7.64945	12.71419	21.97868	0.97576	1.02485	190.70528	164.25382	72.98364	0.30649	 	4.98692E14	 	6.44139E-15	 	13992.764	33.3688	 
380.0	1.0	0.0	7.62493	7.2072	-7.66856	12.69622	21.91389	0.97121	1.02965	191.21783	164.52538	73.19099	0.30629	 	6.93174E14	 	4.59894E-15	 	13826.725	33.2078	 
375.0	1.0	0.0	7.6265	7.20571	-7.68763	12.67826	21.84913	0.96663	1.03452	191.72647	164.79303	73.39691	0.30609	 	9.68827E14	 	3.26525E-15	 	13661.483	33.0484	 
370.0	1.0	0.0	7.62807	7.20423	-7.70665	12.66029	21.78442	0.96202	1.03948	192.23117	165.05674	73.60138	0.30589	 	1.36178E15	 	2.30512E-15	 	13497.026	32.8914	 
365.0	1.0	0.0	7.62964	7.20275	-7.72562	12.64233	21.71976	0.95738	1.04451	192.73191	165.3165	73.80439	0.30569	 	1.92525E15	 	1.61779E-15	 	13333.346	32.736	 
360.0	1.0	0.0	7.6312	7.20127	-7.74454	12.62436	21.65517	0.95271	1.04963	193.22865	165.57232	74.00594	0.30549	 	2.73815E15	 	1.12859E-15	 	13170.432	32.5828	 
355.0	1.0	0.0	7.63277	7.1998	-7.76341	12.60639	21.59067	0.94801	1.05484	193.72138	165.82417	74.20601	0.30529	 	3.91818E15	 	7.82467E-16	 	13008.274	32.4316	 
350.0	1.0	0.0	7.63432	7.19833	-7.78224	12.58843	21.52626	0.94328	1.06013	194.21007	166.07204	74.4046	0.30509	 	5.64209E15	 	5.39063E-16	 	12846.865	32.2818	 
345.0	1.0	0.0	7.63588	7.19686	-7.80101	12.57046	21.46196	0.93852	1.06551	194.69469	166.31594	74.60169	0.30489	 	8.17709E15	 	3.68962E-16	 	12686.194	32.1342	 
340.0	1.0	0.0	7.63743	7.1954	-7.81973	12.55249	21.39778	0.93372	1.07099	195.17523	166.55585	74.79727	0.30469	 	1.19299E16	 	2.50851E-16	 	12526.253	31.9882	 
335.0	1.0	0.0	7.63898	7.19394	-7.83841	12.53452	21.33372	0.92888	1.07656	195.65165	166.79176	74.99133	0.3045	 	1.7524100000000002E16	 	1.6938E-16	 	12367.034	31.8438	 
330.0	1.0	0.0	7.64052	7.19249	-7.85703	12.51655	21.2698	0.92402	1.08223	196.12393	167.02367	75.18387	0.3043	 	2.59223E16	 	1.13564E-16	 	12208.528	31.7012	 
325.0	1.0	0.0	7.64206	7.19104	-7.87561	12.49858	21.20602	0.91911	1.08801	196.59206	167.25157	75.37487	0.3041	 	3.86221E16	 	7.55895E-17	 	12050.727	31.5602	 
320.0	1.0	0.0	7.6436	7.18959	-7.89414	12.48061	21.14239	0.91417	1.09389	197.05601	167.47545	75.56433	0.3039	 	5.79709E16	 	4.99391E-17	 	11893.624	31.4206	 
315.0	1.0	0.0	7.64513	7.18815	-7.91262	12.46264	21.07892	0.9092	1.09987	197.51576	167.69531	75.75224	0.3037	 	8.76773E16	 	3.27407E-17	 	11737.21	31.2828	 
310.0	1.0	0.0	7.64666	7.18671	-7.93105	12.44467	21.0156	0.90418	1.10597	197.9713	167.91115	75.93859	0.3035	 	1.33647E17	 	2.12965E-17	 	11581.477	31.1466	 
305.0	1.0	0.0	7.64819	7.18528	-7.94943	12.4267	20.95246	0.89913	1.11218	198.42259	168.12296	76.12337	0.3033	 	2.05363E17	 	1.37406E-17	 	11426.419	31.0116	 
300.0	1.0	0.0	7.64971	7.18385	-7.96776	12.40873	20.88948	0.89404	1.11851	198.86964	168.33075	76.30658	0.3031	 	3.18183E17	 	8.79181E-18	 	11272.029	30.878	 
295.0	1.0	0.0	7.65123	7.18242	-7.98604	12.39076	20.82667	0.88892	1.12497	199.31241	168.5345	76.4882	0.3029	 	4.97191E17	 	5.57733E-18	 	11118.298	30.7462	 
290.0	1.0	0.0	7.65275	7.181	-8.00428	12.37279	20.76403	0.88375	1.13154	199.7509	168.73421	76.66823	0.3027	 	7.83736E17	 	3.50704E-18	 	10965.221	30.6154	 
285.0	1.0	0.0	7.65426	7.17958	-8.02246	12.35481	20.70157	0.87855	1.13824	200.18509	168.9299	76.84667	0.3025	 	1.24659E18	 	2.18532E-18	 	10812.791	30.486	 
280.0	1.0	0.0	7.65577	7.17816	-8.0406	12.33684	20.63929	0.87331	1.14508	200.61496	169.12155	77.0235	0.3023	 	2.00123E18	 	1.34906E-18	 	10661.001	30.358	 
275.0	1.0	0.0	7.65728	7.17675	-8.05868	12.31887	20.57717	0.86802	1.15204	201.04051	169.30917	77.19873	0.3021	 	3.24346E18	 	8.24855E-19	 	10509.844	30.2314	 
270.0	1.0	0.0	7.65878	7.17534	-8.07672	12.30089	20.51524	0.8627	1.15915	201.46172	169.49276	77.37235	0.3019	 	5.30856E18	 	4.99379E-19	 	10359.316	30.1056	 
265.0	1.0	0.0	7.66028	7.17394	-8.09471	12.28292	20.45348	0.85734	1.1664	201.87858	169.67232	77.54435	0.3017	 	8.77656E18	 	2.99272E-19	 	10209.409	29.9814	 
260.0	1.0	0.0	7.66178	7.17254	-8.11265	12.26495	20.39188	0.85194	1.17379	202.29108	169.84787	77.71472	0.3015	 	1.46616E19	 	1.77482E-19	 	10060.117	29.8584	 
255.0	1.0	0.0	7.66327	7.17114	-8.13054	12.24697	20.33046	0.8465	1.18133	202.69921	170.0194	77.88347	0.3013	 	2.47558E19	 	1.04128E-19	 	9911.436	29.7362	 
250.0	1.0	0.0	7.66476	7.16975	-8.14838	12.229	20.2692	0.84102	1.18903	203.10298	170.18692	78.0506	0.3011	 	4.22618E19	 	6.04178E-20	 	9763.359	29.6154	 
245.0	1.0	0.0	7.66624	7.16836	-8.16617	12.21102	20.20811	0.8355	1.19689	203.50236	170.35045	78.21609	0.3009	 	7.29686E19	 	3.46582E-20	 	9615.882	29.4954	 
240.0	1.0	0.0	7.66772	7.16697	-8.18391	12.19304	20.14718	0.82994	1.2049	203.89737	170.50998	78.37995	0.3007	 	1.2746299999999998E20	 	1.96493E-20	 	9468.998	29.3768	 
235.0	1.0	0.0	7.6692	7.16559	-8.20161	12.17507	20.0864	0.82434	1.21309	204.288	170.66554	78.54218	0.3005	 	2.2534199999999997E20	 	1.10062E-20	 	9322.704	29.2588	 
230.0	1.0	0.0	7.67067	7.16422	-8.21925	12.15709	20.02578	0.8187	1.22145	204.67424	170.81712	78.70277	0.3003	 	4.0333499999999997E20	 	6.08861E-21	 	9176.993	29.1422	 
225.0	1.0	0.0	7.67215	7.16284	-8.23685	12.13911	19.96531	0.81302	1.22998	205.05611	170.96475	78.86173	0.3001	 	7.31161E20	 	3.32532E-21	 	9031.862	29.0262	 
220.0	1.0	0.0	7.67361	7.16147	-8.25439	12.12113	19.90498	0.8073	1.2387	205.4336	171.10845	79.01905	0.2999	 	1.34292E21	 	1.79232E-21	 	8887.306	28.9112	 
215.0	1.0	0.0	7.67508	7.16011	-8.27189	12.10316	19.84478	0.80154	1.2476	205.80671	171.24821	79.17474	0.2997	 	2.50003E21	 	9.53004E-22	 	8743.32	28.7972	 
210.0	1.0	0.0	7.67654	7.15875	-8.28934	12.08518	19.78473	0.79574	1.2567	206.17547	171.38408	79.32879	0.2995	 	4.71929E21	 	4.9968E-22	 	8599.901	28.6838	 
205.0	1.0	0.0	7.67799	7.15739	-8.30674	12.0672	19.7248	0.78989	1.26599	206.53987	171.51606	79.48122	0.2993	 	9.03707E21	 	2.5824E-22	 	8457.044	28.5714	 
200.0	1.0	0.0	7.67945	7.15603	-8.32408	12.04922	19.66499	0.78401	1.27549	206.89993	171.64417	79.63203	0.2991	 	1.7562499999999998E22	 	1.31492E-22	 	8314.745	28.4598	 
195.0	1.0	0.0	7.6809	7.15468	-8.34139	12.03124	19.60531	0.77809	1.2852	207.25567	171.76844	79.78122	0.2989	 	3.46536E22	 	6.5936E-23	 	8173.002	28.3486	 
190.0	1.0	0.0	7.68234	7.15334	-8.35864	12.01326	19.54574	0.77212	1.29513	207.60709	171.8889	79.92879	0.2987	 	6.945759999999999E22	 	3.25453E-23	 	8031.81	28.2384	 
185.0	1.0	0.0	7.68378	7.15199	-8.37584	11.99528	19.48628	0.76612	1.30528	207.95422	172.00557	80.07476	0.2985	 	1.4148499999999999E23	 	1.58046E-23	 	7891.166	28.1288	 
180.0	1.0	0.0	7.68522	7.15065	-8.39299	11.9773	19.42692	0.76007	1.31566	208.29709	172.11849	80.21913	0.2983	 	2.9305E23	 	7.54721E-24	 	7751.068	28.0196	 
175.0	1.0	0.0	7.68666	7.14932	-8.4101	11.95931	19.36767	0.75399	1.32628	208.63571	172.22767	80.3619	0.2981	 	6.17508E23	 	3.54215E-24	 	7611.511	27.9114	 
170.0	1.0	0.0	7.68809	7.14799	-8.42715	11.94133	19.3085	0.74786	1.33715	208.97012	172.33317	80.5031	0.2979	 	1.3245E24	 	1.633E-24	 	7472.495	27.8032	 
165.0	1.0	0.0	7.68952	7.14666	-8.44416	11.92335	19.24943	0.74169	1.34827	209.30035	172.43501	80.64273	0.2977	 	2.89345E24	 	7.39084E-25	 	7334.016	27.6958	 
160.0	1.0	0.0	7.69094	7.14534	-8.46111	11.90537	19.19044	0.73548	1.35966	209.62643	172.53324	80.78081	0.2975	 	6.44164E24	 	3.28192E-25	 	7196.072	27.5888	 
155.0	1.0	0.0	7.69236	7.14402	-8.47802	11.88738	19.13154	0.72923	1.37131	209.9484	172.6279	80.91735	0.2973	 	1.4624E25	 	1.42895E-25	 	7058.662	27.482	 
150.0	1.0	0.0	7.69378	7.1427	-8.49488	11.8694	19.07271	0.72294	1.38325	210.26631	172.71903	81.05236	0.2971	 	3.38771E25	 	6.09642E-26	 	6921.783	27.3758	 
145.0	1.0	0.0	7.69519	7.14139	-8.51169	11.85142	19.01395	0.7166	1.39548	210.5802	172.80669	81.18586	0.2969	 	8.01336E25	 	2.54685E-26	 	6785.434	27.2698	 
140.0	1.0	0.0	7.6966	7.14008	-8.52845	11.83343	18.95525	0.71022	1.408	210.89012	172.89092	81.31787	0.2967	 	1.93688E26	 	1.0411E-26	 	6649.613	27.1642	 
135.0	1.0	0.0	7.69801	7.13878	-8.54516	11.81545	18.89662	0.70381	1.42084	211.19613	172.97179	81.44842	0.2965	 	4.787380000000001E26	 	4.1611E-27	 	6514.321	27.0584	 
130.0	1.0	0.0	7.69941	7.13748	-8.56182	11.79746	18.83805	0.69735	1.43401	211.4983	173.04934	81.57752	0.2963	 	1.21099E27	 	1.62485E-27	 	6379.557	26.9528	 
125.0	1.0	0.0	7.70081	7.13618	-8.57843	11.77948	18.77954	0.69084	1.44751	211.79668	173.12365	81.70521	0.2961	 	3.13757E27	 	6.19355E-28	 	6245.319	26.8476	 
120.0	1.0	0.0	7.70221	7.13489	-8.595	11.76149	18.72107	0.6843	1.46135	212.09135	173.19479	81.8315	0.2959	 	8.33361E27	 	2.30256E-28	 	6111.608	26.7422	 
115.0	1.0	0.0	7.7036	7.1336	-8.61151	11.7435	18.66266	0.67771	1.47556	212.38239	173.26283	81.95643	0.2957	 	2.27122E28	 	8.34119E-29	 	5978.425	26.6366	 
110.0	1.0	0.0	7.70499	7.13231	-8.62798	11.72552	18.60429	0.67108	1.49014	212.66987	173.32783	82.08002	0.2955	 	6.35754E28	 	2.94148E-29	 	5845.77	26.531	 
105.0	1.0	0.0	7.70637	7.13103	-8.64439	11.70753	18.54596	0.6644	1.50511	212.95391	173.3899	82.20232	0.2953	 	1.8296500000000003E29	 	1.00875E-29	 	5713.643	26.4254	 
100.0	1.0	0.0	7.70775	7.12975	-8.66076	11.68954	18.48767	0.65769	1.52048	213.23458	173.44912	82.32337	0.2951	 	5.419500000000001E29	 	3.36055E-30	 	5582.048	26.319	 
95.0	1.0	0.0	7.70913	7.12848	-8.67708	11.67155	18.42942	0.65092	1.53628	213.512	173.50557	82.44319	0.2949	 	1.6540899999999998E30	 	1.08631E-30	 	5450.984	26.2128	 
90.0	1.0	0.0	7.7105	7.12721	-8.69335	11.65356	18.3712	0.64412	1.55251	213.78628	173.55937	82.56184	0.2947	 	5.20816E30	 	3.40321E-31	 	5320.455	26.1058	 
85.0	1.0	0.0	7.71187	7.12594	-8.70957	11.63558	18.31301	0.63727	1.5692	214.05755	173.61062	82.67936	0.2945	 	1.6938999999999999E31	 	1.03196E-31	 	5190.463	25.9984	 
80.0	1.0	0.0	7.71324	7.12468	-8.72574	11.61759	18.25485	0.63037	1.58636	214.32593	173.65944	82.7958	0.2943	 	5.69839E31	 	3.02478E-32	 	5061.011	25.8904	 
75.0	1.0	0.0	7.7146	7.12342	-8.74186	11.5996	18.19671	0.62343	1.60402	214.59158	173.70594	82.91122	0.2941	 	1.9856E32	 	8.55778E-33	 	4932.103	25.7816	 
70.0	1.0	0.0	7.71596	7.12217	-8.75793	11.58161	18.1386	0.61645	1.62219	214.85464	173.75026	83.02568	0.2939	 	7.17732E32	 	2.3335E-33	 	4803.743	25.672	 
65.0	1.0	0.0	7.71732	7.12092	-8.77395	11.56361	18.08052	0.60942	1.64091	215.11528	173.79254	83.13924	0.2937	 	2.6956E33	 	6.12267E-34	 	4675.937	25.5612	 
60.0	1.0	0.0	7.71867	7.11967	-8.78993	11.54562	18.02245	0.60234	1.66018	215.37368	173.83293	83.25196	0.29351	 	1.0536800000000002E34	 	1.54319E-34	 	4548.688	25.4498	 
55.0	1.0	0.0	7.72002	7.11843	-8.80585	11.52763	17.9644	0.59522	1.68005	215.63003	173.87159	83.36393	0.29331	 	4.29436E34	 	3.72959E-35	 	4422.004	25.3368	 
50.0	1.0	0.0	7.72136	7.11719	-8.82173	11.50964	17.90637	0.58805	1.70054	215.88454	173.90869	83.47522	0.29311	 	1.82836E35	 	8.62641E-36	 	4295.892	25.2224	 
45.0	1.0	0.0	7.7227	7.11595	-8.83755	11.49165	17.84835	0.58083	1.72166	216.13742	173.94442	83.58592	0.29291	 	8.14849E35	 	1.90564E-36	 	4170.357	25.107	 
40.0	1.0	0.0	7.72404	7.11472	-8.85333	11.47366	17.79035	0.57357	1.74347	216.38893	173.97896	83.69612	0.29271	 	3.8096799999999995E36	 	4.0119E-37	 	4045.41	24.9894	 
35.0	1.0	0.0	7.72537	7.11349	-8.86906	11.45566	17.73236	0.56626	1.76598	216.6393	174.01253	83.80592	0.29251	 	1.87284E37	 	8.03062E-38	 	3921.059	24.8702	 
30.0	1.0	0.0	7.7267	7.11227	-8.88474	11.43766	17.67438	0.5589	1.78924	216.88883	174.04536	83.91542	0.29231	 	9.70464E37	 	1.52463E-38	 	3797.314	24.749	 
25.0	1.0	0.0	7.72803	7.11105	-8.90037	 	17.61642	0.55149	1.81328	217.13781	174.07769	84.02474	0.29211	 	5.3146E38	 	2.73811E-39	 	3674.186	 	 
