T (C)	Fraction solid (wt)-TOTAL	Fraction liquid (wt)-LIQUID	Density (g/(cm)^3)-TOTAL	Molar volume (cm^3)-TOTAL	Volume change (%)-  	Average expansion coeff. (10e-6 1/K)-  	Thermal conductivity (W/(m*K))-TOTAL	Electrical resistivity (10e-6 Ohm*m)-TOTAL	Electrical conductivity (10e6 1/(Ohm*m))-TOTAL	Young's modulus (GPa)-TOTAL	Bulk modulus (GPa)-TOTAL	Shear modulus(GPa)-TOTAL	Poisson's ratio-TOTAL	Liquid viscosity (mPa s)-  	Total viscosity (mPa s)-  	Liquid diffusivity (10e-9 (m^2)/s)-  	Total diffusivity (10e-9 (m^2)/s)-  	Surface Tension (mN/m)-  	Enthalpy (J/mole)-TOTAL	Specific heat (J/(mole K))-TOTAL	Latent heat (J/mole)-TOTAL
1500.0	0.0	1.0	6.92926	7.8524	0.0	27.19311	31.67629	1.82402	0.54824	0.0	104.22488	0.0	0.49926	6.58725	6.58725	1.3138	1.3138	1762.44562	64989.753	 	0.0
1495.0	0.0	1.0	6.93315	7.848	-0.0560441	27.14323	31.6006	1.82323	0.54848	0.0	104.41012	0.0	0.49926	6.64405	6.64405	1.29889	1.29889	1764.2327	64768.282	44.2942	0.0
1490.0	0.0	1.0	6.93703	7.84361	-0.11193	27.0934	31.52491	1.82244	0.54871	0.0	104.59536	0.0	0.49926	6.70168	6.70168	1.28408	1.28408	1766.01627	64547.343	44.1878	0.0
1485.0	0.0	1.0	6.9409	7.83924	-0.16767	27.04364	31.44921	1.82165	0.54895	0.0	104.7806	0.0	0.49926	6.76014	6.76014	1.26937	1.26937	1767.79629	64326.933	44.082	0.0
1480.0	0.0	1.0	6.94477	7.83487	-0.22324	26.99393	31.37352	1.82085	0.54919	0.0	104.96584	0.0	0.49926	6.81944	6.81944	1.25475	1.25475	1769.57271	64107.047	43.9772	0.0
1475.0	0.0	1.0	6.94863	7.83052	-0.27866	26.94427	31.29782	1.82005	0.54944	0.0	105.15108	0.0	0.49926	6.87961	6.87961	1.24023	1.24023	1771.34548	63887.684	43.8726	0.0
1470.0	0.0	1.0	6.95248	7.82618	-0.33393	26.89468	31.22213	1.81924	0.54968	0.0	105.33633	0.0	0.49926	6.94066	6.94066	1.2258	1.2258	1773.11457	63668.838	43.7692	0.0
1465.0	0.0	1.0	6.95633	7.82186	-0.38904	26.84514	31.14644	1.81843	0.54992	0.0	105.52157	0.0	0.49926	7.0026	7.0026	1.21147	1.21147	1774.87993	63450.506	43.6664	0.0
1460.0	0.0	1.0	6.96016	7.81754	-0.44399	26.79567	31.07074	1.81762	0.55017	0.0	105.70681	0.0	0.49926	7.06547	7.06547	1.19724	1.19724	1776.64151	63232.686	43.564	0.0
1455.0	0.0	1.0	6.964	7.81324	-0.49879	26.74626	30.99505	1.8168	0.55042	0.0	105.89205	0.0	0.49926	7.12926	7.12926	1.18311	1.18311	1778.39926	63015.373	43.4626	0.0
1450.0	0.0	1.0	6.96782	7.80895	-0.55343	26.69691	30.91936	1.81598	0.55067	0.0	106.07729	0.0	0.49926	7.19401	7.19401	1.16907	1.16907	1780.15315	62798.582	43.3582	0.0
1445.0	0.0	1.0	6.97164	7.80467	-0.60792	26.64762	30.84366	1.81515	0.55092	0.0	106.26253	0.0	0.49926	7.25972	7.25972	1.15512	1.15512	1781.90312	62582.34	43.2484	0.0
1444.97	0.0	1.0	6.97167	7.80464	-0.60825	26.64732	30.8432	1.81515	0.55092	0.0	106.26366	0.0	0.49926	7.26013	7.26013	1.15504	1.15504	1781.9138	62581.018	43.2309	0.0010
1440.0	0.15046	0.84954	6.99948	7.77353	-1.00447	25.69521	31.27078	1.78515	0.56018	0.0268441	100.13054	0.00908652	0.47714	7.27908	10.57919	1.1487	0.79037	1780.2197	60992.87	319.584	1373.767
1435.0	0.26812	0.73188	7.02197	7.74879	-1.3195	24.95195	31.60404	1.76117	0.5678	0.27614	95.416	0.0945906	0.45968	7.29872	28.58979	1.14226	0.29161	1778.68581	59709.755	256.623	2441.721
1430.0	0.3616	0.6384	7.04052	7.72847	-1.57824	24.35305	31.8656	1.7416	0.57418	0.92998	91.75019	0.32164	0.44569	7.3185	74.96904	1.13584	0.11088	1777.30485	58652.442	211.463	3284.407
1425.0	0.43734	0.56266	7.05613	7.71159	-1.79326	23.86645	32.07353	1.72523	0.57963	2.0219	88.86191	0.70485	0.43427	7.33878	154.79716	1.12938	0.0535426	1776.0544	57761.039	178.281	3961.715
1420.0	0.49971	0.50029	7.0695	7.69723	-1.97613	23.46245	32.23957	1.71129	0.58435	3.49783	86.56037	1.2275	0.42478	7.35946	267.55276	1.12289	0.0308868	1774.92078	56994.441	153.32	4514.744
1419.74	0.50266	0.49734	7.07016	7.69655	-1.9848	23.44361	32.24726	1.71062	0.58458	3.58338	86.45469	1.25791	0.42434	7.36045	274.25762	1.12256	0.0301271	1774.86335	56957.473	 	4540.625
1415.0	0.57609	0.42391	7.08519	7.68051	-2.18903	22.97487	32.35392	1.70021	0.58816	5.90275	85.36177	2.08714	0.41408	7.3781	540.7186	1.11674	0.0152379	1772.7932	55959.86	206.916	5336.28
1410.0	0.63763	0.36237	7.09839	7.66662	-2.3659	22.58089	32.43161	1.69111	0.59133	8.88196	84.61411	3.15996	0.40539	7.39735	903.99736	1.11054	0.00908746	1770.81002	55086.376	174.697	5997.239
1405.0	0.68707	0.31293	7.10954	7.65503	-2.51351	22.26326	32.48268	1.68344	0.59402	12.27479	84.14545	4.38908	0.39833	7.41752	1333.31364	1.10423	0.00614307	1769.00638	54348.651	147.545	6522.957
1400.0	0.72744	0.27256	7.11923	7.64507	-2.64044	21.9995	32.51363	1.67682	0.59637	15.93581	83.87188	5.722	0.3925	7.43801	1814.34615	1.09791	0.00450092	1767.36793	53712.2	127.29	6947.911
1398.68	0.73676	0.26324	7.12156	7.64269	-2.67071	21.93842	32.51884	1.67523	0.59693	16.91689	83.82511	6.08019	0.39115	7.44364	1947.13726	1.09621	0.00419065	1766.948	53559.079	 	7045.092
1395.0	0.75985	0.24015	7.12753	7.63652	-2.74931	21.783	32.52504	1.67123	0.59836	19.58916	83.78295	7.05774	0.38778	7.45863	2325.17042	1.0916	0.0035016	1765.84879	53158.085	110.823	7291.037
1390.0	0.78722	0.21278	7.13496	7.62898	-2.84531	21.60017	32.52539	1.6662	0.60017	23.27019	83.79804	8.4084	0.38375	7.47959	2872.16978	1.08528	0.00282623	1764.45992	52659.177	99.7816	7579.463
1385.0	0.81058	0.18942	7.14176	7.62215	-2.93231	21.44068	32.51711	1.66161	0.60183	26.91074	83.88088	9.74845	0.38026	7.50064	3451.14808	1.07898	0.00234502	1763.18139	52206.194	90.5966	7822.465
1380.0	0.83065	0.16935	7.14805	7.61588	-3.01209	21.29993	32.50164	1.65739	0.60336	30.45106	84.01776	11.05531	0.37721	7.52167	4059.85608	1.07272	0.00198741	1762.00453	51790.44	83.1508	8028.737
1375.0	0.84803	0.15197	7.15391	7.61011	-3.08561	21.17544	32.48029	1.65346	0.60479	33.85527	84.19889	12.31514	0.37454	7.54278	4697.95494	1.06648	0.00171228	1760.91803	51405.201	77.0478	8204.99
1370.0	0.86318	0.13682	7.1594	7.60475	-3.1539	21.06454	32.45393	1.64979	0.60614	37.09937	84.41626	13.51849	0.37217	7.56423	5365.63846	1.06023	0.00149466	1759.91427	51045.225	71.9952	8356.472
1365.0	0.87647	0.12353	7.16461	7.5997	-3.21816	20.96405	32.42333	1.64632	0.60742	40.17614	84.66352	14.66216	0.37006	7.58545	6064.41774	1.05404	0.00131841	1758.98973	50706.357	67.7736	8487.336
1360.0	0.88816	0.11184	7.16955	7.59497	-3.27846	20.8739	32.38911	1.64303	0.60863	43.07904	84.93636	15.74325	0.36817	7.60738	6795.5994	1.0478	0.00117296	1758.13163	50385.272	64.217	8600.903
1355.0	0.89851	0.10149	7.17429	7.59045	-3.33593	20.791	32.35181	1.63989	0.6098	45.81807	85.2298	16.76511	0.36647	7.62934	7562.34772	1.04158	0.00105081	1757.34068	50079.282	61.198	8699.858
1350.72	0.90662	0.0933819	7.17826	7.58672	-3.38353	20.72406	32.31797	1.63729	0.61077	48.07227	85.49451	17.60734	0.36512	7.64823	8254.68628	1.03628	9.60146E-4	1756.70868	49826.199	 	8776.072
1350.0	0.90817	0.0918281	7.17906	7.58596	-3.39315	20.7082	32.3125	1.63684	0.61093	48.5127	85.53758	17.77199	0.36486	7.65244	8385.06715	1.03525	9.44798E-4	1756.77454	49780.68	59.7204	8791.905
1345.0	0.9183	0.0816974	7.18445	7.58092	-3.45735	20.605	32.27296	1.6338	0.61207	51.47439	85.84794	18.88029	0.36318	7.68203	9317.47074	1.02809	8.47632E-4	1757.25796	49472.458	61.6444	8894.05
1340.0	0.92717	0.0728264	7.18951	7.57622	-3.51713	20.51358	32.23061	1.63089	0.61316	54.2167	86.17642	19.90818	0.36167	7.71173	10290.15266	1.02096	7.65138E-4	1757.77409	49179.256	58.6404	8981.649
1335.0	0.93498	0.0650233	7.19429	7.57182	-3.57321	20.432	32.1859	1.62809	0.61422	56.75883	86.52019	20.86245	0.36031	7.74127	11307.37482	1.01391	6.94147E-4	1758.32012	48898.727	56.1058	9057.045
1330.0	0.94187	0.0581285	7.19884	7.56767	-3.62612	20.35889	32.13913	1.62539	0.61524	59.11915	86.87686	21.74967	0.35908	7.7711	12373.7223	1.00688	6.32354E-4	1758.892	48628.967	53.952	9122.141
1325.0	0.94799	0.0520125	7.20318	7.56373	-3.67628	20.29311	32.09061	1.62277	0.61623	61.31497	87.24449	22.57607	0.35796	7.80112	13494.09621	0.99988	5.78043E-4	1759.48587	48368.414	52.1106	9178.495
1320.0	0.95343	0.0465682	7.20734	7.55996	-3.7242	20.23326	32.04055	1.62022	0.6172	63.36336	87.62164	23.34785	0.35694	7.8312	14673.88538	0.99292	5.29905E-4	1760.10244	48115.781	50.5266	9227.392
1315.0	0.95829	0.0417059	7.21135	7.55635	-3.77018	20.17859	31.98915	1.61773	0.61815	65.27898	88.00668	24.07036	0.356	7.86161	15918.72912	0.98598	4.86934E-4	1760.73863	47869.997	49.1568	9269.9
1310.0	0.96265	0.0373467	7.21523	7.55288	-3.81437	20.12868	31.93661	1.61529	0.61908	67.07518	88.39879	24.74846	0.35514	7.89248	17234.72979	0.97903	4.48337E-4	1761.38787	47630.161	47.9672	9306.916
1305.0	0.96657	0.0334272	7.21899	7.54953	-3.85713	20.08253	31.88303	1.6129	0.62	68.76454	88.79683	25.3868	0.35434	7.92383	18628.41317	0.97207	4.13484E-4	1762.05334	47395.52	46.9282	9339.191
1300.0	0.97011	0.029893	7.22265	7.54627	-3.89864	20.03972	31.82857	1.61054	0.62091	70.35886	89.20016	25.98971	0.35359	7.95547	20107.00359	0.96514	3.81865E-4	1762.73193	47165.431	46.0178	9367.366
1295.0	0.97331	0.026695	7.22622	7.54309	-3.9391	19.99963	31.77331	1.60821	0.62181	71.86801	89.6081	26.56086	0.35289	7.98738	21678.02041	0.95823	3.53065E-4	1763.4255	46939.349	45.2164	9391.983
1290.0	0.97621	0.0237929	7.22971	7.53999	-3.97853	19.96227	31.71736	1.60591	0.6227	73.30075	90.02003	27.10347	0.35224	8.02036	23349.70651	0.95125	3.26743E-4	1764.12429	46716.804	44.509	9413.506
1285.0	0.97885	0.0211478	7.23314	7.53696	-4.01718	19.92694	31.6608	1.60363	0.62358	74.66601	90.43529	27.62088	0.35162	8.05379	25131.01821	0.94427	3.02612E-4	1764.83586	46497.367	43.8874	9432.366
1280.0	0.98127	0.0187329	7.23651	7.53398	-4.05511	19.89347	31.6037	1.60138	0.62446	75.97126	90.85377	28.11585	0.35104	8.08775	27031.6331	0.93729	2.80432E-4	1765.55562	46280.718	43.3298	9448.879
1275.0	0.98348	0.0165205	7.23982	7.53106	-4.09235	19.8618	31.54611	1.59913	0.62534	77.22158	91.27497	28.59028	0.35049	8.12307	29061.45621	0.93021	2.60005E-4	1766.2776	46066.556	42.8324	9463.343
1270.0	0.98551	0.0144868	7.24309	7.52818	-4.12904	19.83151	31.4881	1.59691	0.62621	78.42405	91.69844	29.04681	0.34996	8.15908	31232.01018	0.92311	2.41154E-4	1767.00736	45854.622	42.3868	9476.015
1265.0	0.98739	0.0126122	7.24632	7.52533	-4.16525	19.80242	31.42971	1.59469	0.62708	79.5834	92.12408	29.48721	0.34946	8.19585	33555.21386	0.91599	2.23731E-4	1767.74381	45644.685	41.9874	9487.122
1260.0	0.98912	0.0108772	7.24951	7.52252	-4.20101	19.77445	31.37096	1.59248	0.62795	80.70479	92.55165	29.91341	0.34897	8.23385	36044.43925	0.9088	2.07603E-4	1768.48322	45436.549	41.6272	9496.86
1255.0	0.99073	0.00926738	7.25267	7.51975	-4.23637	19.74747	31.31193	1.59028	0.62882	81.79241	92.98074	30.32698	0.34851	8.27313	38713.95125	0.90154	1.92657E-4	1769.22338	45230.039	41.302	9505.399
1252.58	0.99117	0.00882885	7.25401	7.51846	-4.25272	19.7367	31.28296	1.58923	0.62923	82.19446	93.18974	30.47989	0.34834	8.29255	40022.36703	0.898	1.86064E-4	1769.58172	45133.019	 	9506.701
1250.0	0.9934	0.00660373	7.25604	7.51633	-4.27989	19.69542	31.25335	1.58805	0.6297	83.34928	93.42892	30.9206	0.3478	8.40547	41797.16115	0.88444	1.77862E-4	1768.20704	44999.087	46.1904	9538.804
1245.0	0.99646	0.0035358	7.25972	7.51245	-4.32934	19.62477	31.1958	1.58576	0.63061	85.1198	93.88511	31.59656	0.34698	8.62622	45229.74312	0.85898	1.63824E-4	1765.87141	44759.358	47.9458	9581.411
1240.0	0.99853	0.00147439	7.26318	7.50878	-4.37599	19.56215	31.13772	1.58348	0.63152	86.50484	94.33483	32.12553	0.34636	8.85009	48747.04997	0.83449	1.51503E-4	1763.78648	44535.843	44.703	9608.231
1235.0	1.0	0.0	7.26651	7.50526	-4.4209	19.50438	31.0795	1.58121	0.63243	87.66422	94.78093	32.5684	0.34585	 	52425.69787	 	1.40406E-4	 	44321.872	42.7942	9625.938
1230.0	1.0	0.0	7.26891	7.50278	-4.45247	19.48746	31.0184	1.57907	0.63329	88.18703	95.2177	32.7677	0.34564	 	56040.1688	 	1.30915E-4	 	44081.309	48.1126	 
1225.0	1.0	0.0	7.27131	7.5003	-4.484	19.47054	30.9573	1.57692	0.63415	88.71096	95.6545	32.96747	0.34543	 	59931.74828	 	1.22007E-4	 	43891.02	38.0578	 
1220.0	1.0	0.0	7.27371	7.49783	-4.51548	19.45363	30.8962	1.57477	0.63501	89.23597	96.09129	33.16771	0.34522	 	64123.73958	 	1.1365E-4	 	43700.958	38.0124	 
1215.0	1.0	0.0	7.2761	7.49536	-4.54691	19.43672	30.8351	1.5726	0.63589	89.76205	96.52806	33.3684	0.34502	 	68641.57391	 	1.05815E-4	 	43511.141	37.9634	 
1210.0	1.0	0.0	7.2785	7.4929	-4.5783	19.41983	30.774	1.57043	0.63677	90.28917	96.96477	33.56955	0.34481	 	73513.01968	 	9.84708E-5	 	43321.574	37.9134	 
1205.0	1.0	0.0	7.28089	7.49044	-4.60964	19.40294	30.71289	1.56825	0.63765	90.81729	97.4014	33.77113	0.3446	 	78768.414	 	9.15911E-5	 	43132.255	37.8638	 
1200.0	1.0	0.0	7.28328	7.48798	-4.64092	19.38606	30.65179	1.56606	0.63854	91.34641	97.83792	33.97314	0.34439	 	84440.91851	 	8.51492E-5	 	42943.184	37.8142	 
1195.0	1.0	0.0	7.28566	7.48553	-4.67217	19.36919	30.59068	1.56386	0.63944	91.8765	98.27431	34.17558	0.34418	 	90566.80263	 	7.91203E-5	 	42754.36	37.7648	 
1190.0	1.0	0.0	7.28805	7.48308	-4.70336	19.35233	30.52958	1.56166	0.64035	92.40753	98.71055	34.37843	0.34398	 	97185.75712	 	7.34806E-5	 	42565.781	37.7158	 
1185.0	1.0	0.0	7.29043	7.48063	-4.73451	19.33548	30.46847	1.55944	0.64125	92.93948	99.14661	34.58168	0.34377	 	104341.2416	 	6.82076E-5	 	42377.445	37.6672	 
1180.0	1.0	0.0	7.29281	7.47819	-4.7656	19.31863	30.40736	1.55722	0.64217	93.47232	99.58246	34.78533	0.34356	 	112080.8697	 	6.32799E-5	 	42189.351	37.6188	 
1175.0	1.0	0.0	7.29519	7.47575	-4.79665	19.3018	30.34625	1.55498	0.64309	94.00603	100.01808	34.98936	0.34335	 	120456.8364	 	5.86771E-5	 	42001.498	37.5706	 
1170.0	1.0	0.0	7.29757	7.47332	-4.82766	19.28497	30.28514	1.55274	0.64402	94.5406	100.45345	35.19378	0.34314	 	129526.3925	 	5.43801E-5	 	41813.884	37.5228	 
1165.0	1.0	0.0	7.29994	7.47089	-4.85861	19.26815	30.22403	1.55049	0.64496	95.07599	100.88854	35.39857	0.34294	 	139352.3714	 	5.03705E-5	 	41626.509	37.475	 
1160.0	1.0	0.0	7.30231	7.46846	-4.88952	19.25133	30.16292	1.54823	0.6459	95.61218	101.32334	35.60372	0.34273	 	150003.7747	 	4.66312E-5	 	41439.369	37.428	 
1155.0	1.0	0.0	7.30468	7.46604	-4.92038	19.23453	30.10181	1.54596	0.64685	96.14916	101.75781	35.80922	0.34252	 	161556.4236	 	4.31456E-5	 	41252.464	37.381	 
1150.0	1.0	0.0	7.30705	7.46362	-4.95119	19.21773	30.04069	1.54368	0.6478	96.68689	102.19194	36.01507	0.34231	 	174093.6838	 	3.98983E-5	 	41065.793	37.3342	 
1145.0	1.0	0.0	7.30942	7.4612	-4.98196	19.20095	29.97958	1.5414	0.64876	97.22536	102.6257	36.22126	0.3421	 	187707.2727	 	3.68746E-5	 	40879.353	37.288	 
1140.0	1.0	0.0	7.31178	7.45879	-5.01268	19.18417	29.91847	1.5391	0.64973	97.76454	103.05908	36.42777	0.3419	 	202498.1586	 	3.40607E-5	 	40693.143	37.242	 
1135.0	1.0	0.0	7.31414	7.45638	-5.04335	19.16739	29.85735	1.53679	0.65071	98.30441	103.49204	36.63461	0.34169	 	218577.5645	 	3.14434E-5	 	40507.161	37.1964	 
1130.0	1.0	0.0	7.3165	7.45398	-5.07397	19.15063	29.79623	1.53448	0.65169	98.84495	103.92457	36.84176	0.34148	 	236068.0867	 	2.90104E-5	 	40321.406	37.151	 
1125.0	1.0	0.0	7.31886	7.45157	-5.10455	19.13388	29.73511	1.53215	0.65268	99.38613	104.35664	37.04922	0.34127	 	255104.945	 	2.67499E-5	 	40135.875	37.1062	 
1120.0	1.0	0.0	7.32121	7.44918	-5.13507	19.11713	29.67399	1.52982	0.65367	99.92794	104.78824	37.25697	0.34106	 	275837.3795	 	2.46508E-5	 	39950.568	37.0614	 
1115.0	1.0	0.0	7.32357	7.44678	-5.16556	19.10039	29.61287	1.52747	0.65468	100.47036	105.21935	37.46501	0.34086	 	298430.2119	 	2.27028E-5	 	39765.483	37.017	 
1110.0	1.0	0.0	7.32592	7.44439	-5.19599	19.08366	29.55175	1.52512	0.65569	101.01335	105.64993	37.67334	0.34065	 	323065.5936	 	2.08961E-5	 	39580.616	36.9734	 
1105.0	1.0	0.0	7.32827	7.44201	-5.22638	19.06694	29.49063	1.52276	0.6567	101.5569	106.07998	37.88193	0.34044	 	349944.9617	 	1.92213E-5	 	39395.968	36.9296	 
1100.0	1.0	0.0	7.33061	7.43963	-5.25672	19.05022	29.42951	1.52038	0.65773	102.10099	106.50947	38.0908	0.34023	 	379291.2326	 	1.76698E-5	 	39211.535	36.8866	 
1095.0	1.0	0.0	7.33296	7.43725	-5.28701	19.03352	29.36838	1.518	0.65876	102.64559	106.93838	38.29992	0.34002	 	411351.2607	 	1.62333E-5	 	39027.316	36.8438	 
1090.0	1.0	0.0	7.3353	7.43487	-5.31726	19.01682	29.30726	1.51561	0.6598	103.19069	107.36669	38.50928	0.33982	 	446398.5977	 	1.49042E-5	 	38843.309	36.8014	 
1085.0	1.0	0.0	7.33764	7.4325	-5.34745	19.00013	29.24613	1.5132	0.66085	103.73627	107.79439	38.71889	0.33961	 	484736.5923	 	1.3675E-5	 	38659.512	36.7594	 
1080.0	1.0	0.0	7.33998	7.43013	-5.37761	18.98345	29.185	1.51079	0.66191	104.28229	108.22145	38.92874	0.3394	 	526701.8729	 	1.25391E-5	 	38475.922	36.718	 
1075.0	1.0	0.0	7.34232	7.42777	-5.40771	18.96678	29.12387	1.50837	0.66297	104.82875	108.64785	39.13881	0.33919	 	572668.2653	 	1.149E-5	 	38292.538	36.6768	 
1070.0	1.0	0.0	7.34465	7.42541	-5.43777	18.95011	29.06275	1.50593	0.66404	105.37562	109.07357	39.3491	0.33898	 	623051.2028	 	1.05217E-5	 	38109.357	36.6362	 
1065.0	1.0	0.0	7.34698	7.42305	-5.46778	18.93346	29.00162	1.50349	0.66512	105.92287	109.4986	39.5596	0.33878	 	678312.6937	 	9.62856E-6	 	37926.378	36.5958	 
1060.0	1.0	0.0	7.34931	7.4207	-5.49774	18.91681	28.94048	1.50104	0.66621	106.4705	109.92292	39.7703	0.33857	 	738966.9215	 	8.80523E-6	 	37743.597	36.5562	 
1055.0	1.0	0.0	7.35164	7.41835	-5.52766	18.90017	28.87935	1.49857	0.6673	107.01847	110.3465	39.9812	0.33836	 	805586.5635	 	8.04677E-6	 	37561.013	36.5168	 
1050.0	1.0	0.0	7.35396	7.416	-5.55753	18.88354	28.81822	1.4961	0.66841	107.56677	110.76933	40.19229	0.33815	 	878809.9258	 	7.34854E-6	 	37378.624	36.4778	 
1045.0	1.0	0.0	7.35629	7.41366	-5.58735	18.86691	28.75708	1.49361	0.66952	108.11538	111.19139	40.40355	0.33794	 	959349.0061	 	6.70618E-6	 	37196.426	36.4396	 
1040.0	1.0	0.0	7.35861	7.41132	-5.61713	18.8503	28.69595	1.49112	0.67064	108.66427	111.61267	40.61499	0.33774	 	1047998.612	 	6.11562E-6	 	37014.417	36.4018	 
1035.0	1.0	0.0	7.36093	7.40899	-5.64686	18.83369	28.63481	1.48861	0.67177	109.21343	112.03314	40.82659	0.33753	 	1145646.686	 	5.57306E-6	 	36832.595	36.3644	 
1030.0	1.0	0.0	7.36324	7.40666	-5.67654	18.81709	28.57367	1.48609	0.67291	109.76284	112.45279	41.03836	0.33732	 	1253285.994	 	5.07494E-6	 	36650.957	36.3276	 
1025.0	1.0	0.0	7.36556	7.40433	-5.70618	18.8005	28.51254	1.48357	0.67405	110.31247	112.8716	41.25027	0.33711	 	1372027.388	 	4.61795E-6	 	36469.501	36.2912	 
1020.0	1.0	0.0	7.36787	7.40201	-5.73577	18.78392	28.4514	1.48103	0.67521	110.86231	113.28956	41.46232	0.3369	 	1503114.854	 	4.19898E-6	 	36288.223	36.2556	 
1015.0	1.0	0.0	7.37018	7.39969	-5.76531	18.76735	28.39026	1.47848	0.67637	111.41234	113.70664	41.67452	0.3367	 	1647942.595	 	3.81515E-6	 	36107.121	36.2204	 
1010.0	1.0	0.0	7.37249	7.39737	-5.79481	18.75078	28.32912	1.47592	0.67754	111.96252	114.12282	41.88683	0.33649	 	1808074.461	 	3.46376E-6	 	35926.192	36.1858	 
1005.0	1.0	0.0	7.37479	7.39506	-5.82426	18.73422	28.26797	1.47335	0.67873	112.51286	114.5381	42.09927	0.33628	 	1985266.051	 	3.14232E-6	 	35745.433	36.1518	 
1000.0	1.0	0.0	7.37709	7.39275	-5.85366	18.71767	28.20683	1.47076	0.67992	113.06332	114.95246	42.31183	0.33607	 	2181489.882	 	2.84848E-6	 	35564.841	36.1184	 
995.0	1.0	0.0	7.3794	7.39045	-5.88302	18.70113	28.14569	1.46817	0.68112	113.61389	115.36587	42.52449	0.33586	 	2398964.078	 	2.58008E-6	 	35384.412	36.0858	 
990.0	1.0	0.0	7.38169	7.38814	-5.91233	18.6846	28.08454	1.46557	0.68233	114.16455	115.77833	42.73724	0.33566	 	2640185.1	 	2.33511E-6	 	35204.144	36.0536	 
985.0	1.0	0.0	7.38399	7.38585	-5.9416	18.66807	28.0234	1.46295	0.68355	114.71527	116.18981	42.95009	0.33545	 	2907965.118	 	2.11169E-6	 	35024.033	36.0222	 
980.0	1.0	0.0	7.38629	7.38355	-5.97082	18.65156	27.96225	1.46032	0.68478	115.26604	116.60031	43.16302	0.33524	 	3205474.728	 	1.90808E-6	 	34844.076	35.9914	 
975.0	1.0	0.0	7.38858	7.38126	-5.99999	18.63505	27.90111	1.45768	0.68602	115.81684	117.0098	43.37603	0.33503	 	3536291.822	 	1.72268E-6	 	34664.269	35.9614	 
970.0	1.0	0.0	7.39087	7.37897	-6.02911	18.61855	27.83996	1.45503	0.68727	116.36765	117.41826	43.58911	0.33482	 	3904457.546	 	1.55399E-6	 	34484.609	35.932	 
965.0	1.0	0.0	7.39316	7.37669	-6.05819	18.60206	27.77882	1.45237	0.68853	116.91844	117.8257	43.80226	0.33462	 	4314540.448	 	1.40064E-6	 	34305.091	35.9036	 
960.0	1.0	0.0	7.39544	7.37441	-6.08723	18.58557	27.71767	1.4497	0.6898	117.46921	118.23207	44.01545	0.33441	 	4771710.069	 	1.26133E-6	 	34125.712	35.8758	 
955.0	1.0	0.0	7.39772	7.37213	-6.11621	18.5691	27.65652	1.44701	0.69108	118.01993	118.63738	44.2287	0.3342	 	5281821.467	 	1.13489E-6	 	33946.468	35.8488	 
950.0	1.0	0.0	7.40001	7.36986	-6.14515	18.55263	27.59538	1.44431	0.69237	118.57058	119.04161	44.44199	0.33399	 	5851512.386	 	1.02023E-6	 	33767.355	35.8226	 
945.0	1.0	0.0	7.40228	7.36759	-6.17405	18.53617	27.53423	1.4416	0.69367	119.12115	119.44474	44.65531	0.33378	 	6488315.072	 	9.16338E-7	 	33588.369	35.7972	 
940.0	1.0	0.0	7.40456	7.36533	-6.2029	18.51972	27.47308	1.43888	0.69498	119.67161	119.84676	44.86866	0.33358	 	7200785.086	 	8.22283E-7	 	33409.505	35.7728	 
935.0	1.0	0.0	7.40684	7.36307	-6.2317	18.50328	27.41194	1.43615	0.69631	120.22194	120.24765	45.08202	0.33337	 	7998649.835	 	7.37209E-7	 	33230.759	35.7492	 
930.0	1.0	0.0	7.40911	7.36081	-6.26046	18.48684	27.35079	1.4334	0.69764	120.77213	120.6474	45.2954	0.33316	 	8892980.04	 	6.60327E-7	 	33052.125	35.7268	 
925.0	1.0	0.0	7.41138	7.35855	-6.28917	18.47042	27.28965	1.43064	0.69899	121.32216	121.046	45.50879	0.33295	 	9896387.86	 	5.9091E-7	 	32873.6	35.705	 
920.0	1.0	0.0	7.41365	7.3563	-6.31783	18.454	27.22851	1.42787	0.70034	121.87201	121.44342	45.72217	0.33275	 	1.10232561E7	 	5.28289E-7	 	32695.178	35.6844	 
915.0	1.0	0.0	7.41591	7.35406	-6.34645	18.43759	27.16737	1.42509	0.70171	122.42166	121.83966	45.93555	0.33254	 	1.229000364E7	 	4.71852E-7	 	32516.854	35.6648	 
910.0	1.0	0.0	7.41817	7.35181	-6.37502	18.42119	27.10623	1.42229	0.70309	122.97109	122.2347	46.14891	0.33233	 	1.371539312E7	 	4.21035E-7	 	32338.623	35.6462	 
905.0	1.0	0.0	7.42044	7.34957	-6.40355	18.4048	27.0451	1.41948	0.70448	123.52028	122.62852	46.36225	0.33212	 	1.532088811E7	 	3.75321E-7	 	32160.479	35.6288	 
900.0	1.0	0.0	7.42269	7.34733	-6.43203	18.38841	26.98396	1.41666	0.70589	124.06922	123.02112	46.57556	0.33191	 	1.713106802E7	 	3.34238E-7	 	31982.416	35.6126	 
895.0	1.0	0.0	7.42495	7.3451	-6.46047	18.37203	26.92284	1.41382	0.7073	124.61789	123.41248	46.78883	0.33171	 	1.91741108E7	 	2.97351E-7	 	31804.429	35.5974	 
890.0	1.0	0.0	7.4272	7.34287	-6.48886	18.35566	26.86171	1.41098	0.70873	125.16626	123.80258	47.00206	0.3315	 	2.1482355E7	 	2.64266E-7	 	31626.511	35.5836	 
885.0	1.0	0.0	7.42946	7.34065	-6.5172	18.3393	26.80059	1.40812	0.71017	125.71432	124.19142	47.21524	0.33129	 	2.409295517E7	 	2.34618E-7	 	31448.655	35.5712	 
880.0	1.0	0.0	7.43171	7.33843	-6.5455	18.32295	26.73947	1.40524	0.71162	126.26205	124.57897	47.42836	0.33108	 	2.704864679E7	 	2.08078E-7	 	31270.856	35.5598	 
875.0	1.0	0.0	7.43395	7.33621	-6.57375	18.30661	26.67836	1.40235	0.71309	126.80943	124.96523	47.64142	0.33087	 	3.03986403E7	 	1.84345E-7	 	31093.105	35.5502	 
870.0	1.0	0.0	7.4362	7.33399	-6.60196	18.29027	26.61725	1.39945	0.71457	127.35645	125.35018	47.85441	0.33067	 	3.419966709E7	 	1.63143E-7	 	30915.396	35.5418	 
865.0	1.0	0.0	7.43844	7.33178	-6.63012	18.27395	26.55615	1.39654	0.71606	127.90307	125.7338	48.06732	0.33046	 	3.8517205E7	 	1.44222E-7	 	30737.722	35.5348	 
860.0	1.0	0.0	7.44068	7.32957	-6.65824	18.25763	26.49505	1.39361	0.71756	128.4493	126.11609	48.28014	0.33025	 	4.342691564E7	 	1.27355E-7	 	30560.073	35.5298	 
855.0	1.0	0.0	7.44292	7.32737	-6.68631	18.24131	26.43397	1.39066	0.71908	128.9951	126.49703	48.49287	0.33004	 	4.901633246E7	 	1.12334E-7	 	30382.442	35.5262	 
850.0	1.0	0.0	7.44516	7.32517	-6.71433	18.22501	26.37289	1.38771	0.72061	129.54046	126.87661	48.7055	0.32983	 	5.538684574E7	 	9.89733E-8	 	30204.82	35.5244	 
845.0	1.0	0.0	7.44739	7.32297	-6.74231	18.20872	26.31182	1.38474	0.72216	130.08536	127.25481	48.91802	0.32963	 	6.265603975E7	 	8.71011E-8	 	30027.199	35.5242	 
840.0	1.0	0.0	7.44962	7.32078	-6.77024	18.19243	26.25076	1.38175	0.72372	130.62978	127.63162	49.13043	0.32942	 	7.096044802E7	 	7.65639E-8	 	29849.568	35.5262	 
835.0	1.0	0.0	7.45185	7.31859	-6.79813	18.17615	26.1897	1.37875	0.72529	131.1737	128.00704	49.34272	0.32921	 	8.045880606E7	 	6.7222E-8	 	29671.917	35.5302	 
830.0	1.0	0.0	7.45408	7.3164	-6.82597	18.15988	26.12866	1.37574	0.72688	131.71711	128.38103	49.55488	0.329	 	9.133589606E7	 	5.89495E-8	 	29494.237	35.536	 
825.0	1.0	0.0	7.4563	7.31422	-6.85377	18.14362	26.06763	1.37271	0.72849	132.25999	128.75361	49.76691	0.32879	 	1.038070978E8	 	5.16323E-8	 	29316.516	35.5442	 
820.0	1.0	0.0	7.45852	7.31204	-6.88152	18.12737	26.00661	1.36966	0.73011	132.80232	129.12474	49.9788	0.32859	 	1.181237828E8	 	4.51678E-8	 	29138.742	35.5548	 
815.0	1.0	0.0	7.46074	7.30986	-6.90923	18.11112	25.94561	1.3666	0.73174	133.34408	129.49443	50.19054	0.32838	 	1.345797163E8	 	3.94635E-8	 	28960.904	35.5676	 
810.0	1.0	0.0	7.46296	7.30769	-6.93689	18.09488	25.88461	1.36353	0.73339	133.88525	129.86265	50.40212	0.32817	 	1.535186668E8	 	3.44361E-8	 	28782.988	35.5832	 
805.0	1.0	0.0	7.46518	7.30552	-6.96451	18.07866	25.82363	1.36044	0.73506	134.42582	130.22939	50.61355	0.32796	 	1.753434635E8	 	3.00107E-8	 	28604.981	35.6014	 
800.0	1.0	0.0	7.46739	7.30336	-6.99208	18.06244	25.76267	1.35734	0.73674	134.96576	130.59465	50.8248	0.32775	 	2.005267919E8	 	2.61201E-8	 	28426.869	35.6224	 
795.0	1.0	0.0	7.4696	7.3012	-7.01961	18.04622	25.70172	1.35422	0.73843	135.50507	130.95841	51.03588	0.32755	 	2.296240814E8	 	2.2704E-8	 	28248.637	35.6464	 
790.0	1.0	0.0	7.47181	7.29904	-7.04709	18.03002	25.64078	1.35108	0.74015	136.04371	131.32066	51.24678	0.32734	 	2.632889114E8	 	1.97083E-8	 	28070.267	35.674	 
785.0	1.0	0.0	7.47402	7.29688	-7.07453	18.01382	25.57986	1.34793	0.74188	136.58168	131.68139	51.45749	0.32713	 	3.022914567E8	 	1.70847E-8	 	27891.744	35.7046	 
780.0	1.0	0.0	7.47622	7.29473	-7.10192	17.99764	25.51896	1.34476	0.74363	137.11896	132.04059	51.66801	0.32692	 	3.47540605E8	 	1.47901E-8	 	27713.049	35.739	 
775.0	1.0	0.0	7.47842	7.29259	-7.12926	17.98146	25.45807	1.34158	0.74539	137.65553	132.39824	51.87832	0.32672	 	4.001105182E8	 	1.27859E-8	 	27534.163	35.7772	 
770.0	1.0	0.0	7.48062	7.29044	-7.15657	17.96528	25.3972	1.33838	0.74717	138.19137	132.75433	52.08843	0.32651	 	4.612725798E8	 	1.10376E-8	 	27355.064	35.8198	 
765.0	1.0	0.0	7.48282	7.2883	-7.18382	17.94912	25.33634	1.33516	0.74897	138.72646	133.10886	52.29832	0.3263	 	5.325338819E8	 	9.5148E-9	 	27175.732	35.8664	 
760.0	1.0	0.0	7.48501	7.28616	-7.21103	17.93297	25.27551	1.33193	0.75079	139.26079	133.46181	52.50798	0.32609	 	6.156836644E8	 	8.19016E-9	 	26996.141	35.9182	 
755.0	1.0	0.0	7.4872	7.28403	-7.2382	17.91682	25.21469	1.32868	0.75263	139.79434	133.81317	52.71742	0.32588	 	7.128494398E8	 	7.03956E-9	 	26816.268	35.9746	 
750.0	1.0	0.0	7.48939	7.2819	-7.26532	17.90068	25.15388	1.32542	0.75448	140.3271	134.16293	52.92663	0.32568	 	8.265649362E8	 	6.04156E-9	 	26636.085	36.0366	 
745.0	1.0	0.0	7.49158	7.27978	-7.2924	17.88455	25.0931	1.32213	0.75635	140.85903	134.51108	53.13559	0.32547	 	9.598524837E8	 	5.17719E-9	 	26455.562	36.1046	 
740.0	1.0	0.0	7.49376	7.27765	-7.31943	17.86843	25.03233	1.31883	0.75825	141.39014	134.85761	53.3443	0.32526	 	1.116323083E9	 	4.42966E-9	 	26274.668	36.1788	 
735.0	1.0	0.0	7.49595	7.27553	-7.34642	17.85232	24.97157	1.31552	0.76016	141.92039	135.20251	53.55276	0.32505	 	1.300298162E9	 	3.78415E-9	 	26093.37	36.2596	 
730.0	1.0	0.0	7.49813	7.27342	-7.37336	17.83621	24.91084	1.31219	0.76209	142.44978	135.54576	53.76096	0.32484	 	1.516957975E9	 	3.22759E-9	 	25911.629	36.3482	 
725.0	1.0	0.0	7.50031	7.27131	-7.40026	17.82011	24.85011	1.30884	0.76404	142.97828	135.88736	53.96888	0.32464	 	1.772522791E9	 	2.74847E-9	 	25729.407	36.4444	 
720.0	1.0	0.0	7.50248	7.2692	-7.42711	17.80402	24.7894	1.30547	0.76601	143.50589	136.2273	54.17654	0.32443	 	2.074474529E9	 	2.33665E-9	 	25546.66	36.5494	 
715.0	1.0	0.0	7.50466	7.26709	-7.45392	17.78794	24.7287	1.30208	0.768	144.03257	136.56556	54.38391	0.32422	 	2.431828331E9	 	1.98325E-9	 	25363.34	36.664	 
710.0	1.0	0.0	7.50683	7.26499	-7.48069	17.77187	24.66802	1.29868	0.77001	144.55832	136.90214	54.59099	0.32401	 	2.855465962E9	 	1.68047E-9	 	25179.397	36.7886	 
705.0	1.0	0.0	7.50899	7.26289	-7.50741	17.7558	24.60734	1.29526	0.77204	145.08312	137.23703	54.79778	0.3238	 	3.358545868E9	 	1.42148E-9	 	24994.775	36.9244	 
700.0	1.0	0.0	7.51116	7.2608	-7.53408	17.73975	24.54668	1.29183	0.7741	145.60695	137.57021	55.00427	0.3236	 	3.957008472E9	 	1.20033E-9	 	24809.411	37.0728	 
695.0	1.0	0.0	7.51332	7.25871	-7.56071	17.7237	24.48602	1.28837	0.77617	146.1298	137.90168	55.21045	0.32339	 	4.67020002E9	 	1.0118E-9	 	24623.238	37.2346	 
690.0	1.0	0.0	7.51549	7.25662	-7.5873	17.70766	24.42537	1.2849	0.77827	146.65164	138.23143	55.41632	0.32318	 	5.521644301E9	 	8.51358E-10	 	24436.183	37.411	 
685.0	1.0	0.0	7.51765	7.25453	-7.61384	17.69163	24.36472	1.28142	0.78039	147.17246	138.55944	55.62186	0.32297	 	6.53999918E9	 	7.1506E-10	 	24248.163	37.604	 
680.0	1.0	0.0	7.5198	7.25245	-7.64034	17.67561	24.30407	1.27791	0.78253	147.69225	138.88571	55.82708	0.32277	 	7.760244565E9	 	5.99477E-10	 	24059.088	37.815	 
675.0	1.0	0.0	7.52196	7.25038	-7.66679	17.65959	24.24342	1.27439	0.78469	148.21099	139.21023	56.03197	0.32256	 	9.225160838E9	 	5.01637E-10	 	23868.859	38.0458	 
670.0	1.0	0.0	7.52411	7.2483	-7.6932	17.64358	24.18278	1.27084	0.78688	148.72866	139.53299	56.23652	0.32235	 	1.09872E10	 	4.18969E-10	 	23677.364	38.299	 
665.0	1.0	0.0	7.52626	7.24623	-7.71956	17.62759	24.12212	1.26729	0.78909	149.24524	139.85398	56.44072	0.32214	 	1.3110699999999998E10	 	3.49249E-10	 	23484.481	38.5766	 
660.0	1.0	0.0	7.52841	7.24417	-7.74589	17.61159	24.06146	1.26371	0.79132	149.76072	140.17318	56.64457	0.32193	 	1.5674799999999998E10	 	2.9056E-10	 	23290.073	38.8816	 
655.0	1.0	0.0	7.53055	7.2421	-7.77216	17.59561	24.0008	1.26012	0.79358	150.27508	140.4906	56.84805	0.32173	 	1.87773E10	 	2.41252E-10	 	23093.988	39.217	 
650.0	1.0	0.0	7.53269	7.24004	-7.79839	17.57964	23.94012	1.2565	0.79586	150.78831	140.80622	57.05118	0.32152	 	2.25388E10	 	1.99907E-10	 	22882.863	42.225	 
645.0	1.0	0.0	7.53483	7.23799	-7.82458	17.56367	23.87942	1.25287	0.79816	151.30039	141.12004	57.25393	0.32131	 	2.7108699999999996E10	 	1.65307E-10	 	22670.948	42.383	 
640.0	1.0	0.0	7.53697	7.23593	-7.85073	17.54772	23.81872	1.24923	0.80049	151.81129	141.43203	57.4563	0.3211	 	3.2672499999999996E10	 	1.3641E-10	 	22460.968	41.996	 
635.0	1.0	0.0	7.53911	7.23388	-7.87682	17.53177	23.75799	1.24556	0.80285	152.32102	141.74221	57.65829	0.32089	 	3.94608E10	 	1.12325E-10	 	22252.855	41.6226	 
630.0	1.0	0.0	7.54124	7.23184	-7.90288	17.51582	23.69724	1.24188	0.80523	152.82955	142.05055	57.85989	0.32069	 	4.776109999999999E10	 	9.22938E-11	 	22046.542	41.2626	 
625.0	1.0	0.0	7.54337	7.2298	-7.92889	17.49989	23.63647	1.23818	0.80764	153.33686	142.35705	58.06109	0.32048	 	5.793249999999999E10	 	7.56682E-11	 	21841.966	40.9152	 
620.0	1.0	0.0	7.5455	7.22776	-7.95486	17.48397	23.57568	1.23446	0.81007	153.84293	142.66169	58.26189	0.32027	 	7.04249E10	 	6.18992E-11	 	21639.069	40.5794	 
615.0	1.0	0.0	7.54762	7.22572	-7.98078	17.46805	23.51485	1.23073	0.81253	154.34776	142.96448	58.46228	0.32006	 	8.58028E10	 	5.05209E-11	 	21437.793	40.2552	 
610.0	1.0	0.0	7.54975	7.22369	-8.00666	17.45214	23.454	1.22697	0.81501	154.85133	143.2654	58.66225	0.31985	 	1.04777E11	 	4.11392E-11	 	21238.086	39.9414	 
605.0	1.0	0.0	7.55187	7.22166	-8.0325	17.43624	23.39311	1.2232	0.81753	155.35362	143.56445	58.8618	0.31965	 	1.28243E11	 	3.34212E-11	 	21039.897	39.6378	 
600.0	1.0	0.0	7.55399	7.21963	-8.05829	17.42035	23.33219	1.21941	0.82007	155.85461	143.86161	59.06093	0.31944	 	1.57335E11	 	2.70864E-11	 	20843.176	39.3442	 
595.0	1.0	0.0	7.5561	7.21761	-8.08404	17.40447	23.27124	1.21561	0.82263	156.35428	144.15688	59.25962	0.31923	 	1.93488E11	 	2.18992E-11	 	20647.88	39.0592	 
590.0	1.0	0.0	7.55822	7.21559	-8.10974	17.38859	23.21025	1.21178	0.82523	156.85263	144.45025	59.45786	0.31902	 	2.38529E11	 	1.76617E-11	 	20453.963	38.7834	 
585.0	1.0	0.0	7.56033	7.21358	-8.13541	17.37272	23.14922	1.20794	0.82786	157.34964	144.74171	59.65566	0.31882	 	2.94784E11	 	1.42084E-11	 	20261.386	38.5154	 
580.0	1.0	0.0	7.56244	7.21157	-8.16102	17.35687	23.08815	1.20408	0.83051	157.84529	145.03126	59.85301	0.31861	 	3.65225E11	 	1.14012E-11	 	20070.108	38.2556	 
575.0	1.0	0.0	7.56454	7.20956	-8.1866	17.34101	23.02704	1.2002	0.8332	158.33956	145.31888	60.0499	0.3184	 	4.53661E11	 	9.1249E-12	 	19880.092	38.0032	 
570.0	1.0	0.0	7.56665	7.20755	-8.21213	17.32517	22.96588	1.1963	0.83591	158.83244	145.60457	60.24632	0.31819	 	5.64982E11	 	7.28378E-12	 	19691.303	37.7578	 
565.0	1.0	0.0	7.56875	7.20555	-8.23761	17.30934	22.90469	1.19238	0.83866	159.32392	145.88832	60.44227	0.31798	 	7.05491E11	 	5.79852E-12	 	19503.707	37.5192	 
560.0	1.0	0.0	7.57085	7.20356	-8.26305	17.29351	22.84345	1.18845	0.84144	159.81397	146.17013	60.63775	0.31778	 	8.83329E11	 	4.60349E-12	 	19317.273	37.2868	 
555.0	1.0	0.0	7.57294	7.20156	-8.28845	17.27769	22.78216	1.18449	0.84424	160.30259	146.44998	60.83274	0.31757	 	1.10904E12	 	3.64458E-12	 	19131.968	37.061	 
550.0	1.0	0.0	7.57504	7.19957	-8.31381	17.26188	22.72084	1.18052	0.84709	160.78976	146.72787	61.02724	0.31736	 	1.39634E12	 	2.87724E-12	 	18947.764	36.8408	 
545.0	1.0	0.0	7.57713	7.19758	-8.33912	17.24608	22.65947	1.17652	0.84996	161.27546	147.00379	61.22124	0.31715	 	1.76308E12	 	2.2649E-12	 	18764.634	36.626	 
540.0	1.0	0.0	7.57922	7.1956	-8.36439	17.23029	22.59805	1.17251	0.85287	161.75967	147.27774	61.41475	0.31694	 	2.23261E12	 	1.77764E-12	 	18582.551	36.4166	 
535.0	1.0	0.0	7.58131	7.19362	-8.38962	17.2145	22.5366	1.16848	0.85581	162.24239	147.5497	61.60774	0.31674	 	2.83556E12	 	1.39104E-12	 	18401.489	36.2124	 
530.0	1.0	0.0	7.58339	7.19164	-8.4148	17.19873	22.4751	1.16443	0.85879	162.72359	147.81967	61.80022	0.31653	 	3.61221E12	 	1.0852E-12	 	18221.425	36.0128	 
525.0	1.0	0.0	7.58547	7.18967	-8.43994	17.18296	22.41356	1.16036	0.8618	163.20327	148.08765	61.99218	0.31632	 	4.61573E12	 	8.43977E-13	 	18042.335	35.818	 
520.0	1.0	0.0	7.58755	7.1877	-8.46503	17.1672	22.35198	1.15626	0.86485	163.6814	148.35362	62.18362	0.31611	 	5.9165E12	 	6.543E-13	 	17864.198	35.6274	 
515.0	1.0	0.0	7.58963	7.18573	-8.49008	17.15145	22.29037	1.15215	0.86794	164.15797	148.61758	62.37452	0.31591	 	7.60804E12	 	5.05618E-13	 	17686.993	35.441	 
510.0	1.0	0.0	7.5917	7.18376	-8.51509	17.1357	22.22871	1.14802	0.87107	164.63297	148.87953	62.56489	0.3157	 	9.81499E12	 	3.89441E-13	 	17510.698	35.259	 
505.0	1.0	0.0	7.59378	7.1818	-8.54006	17.11997	22.16703	1.14386	0.87423	165.10638	149.13945	62.75471	0.31549	 	1.27041E13	 	2.98956E-13	 	17335.297	35.0802	 
500.0	1.0	0.0	7.59585	7.17985	-8.56498	17.10424	22.1053	1.13969	0.87744	165.57819	149.39734	62.94398	0.31528	 	1.64991E13	 	2.28712E-13	 	17160.769	34.9056	 
495.0	1.0	0.0	7.59791	7.17789	-8.58986	17.08852	22.04355	1.13549	0.88068	166.04838	149.65319	63.1327	0.31507	 	2.15016E13	 	1.74366E-13	 	16987.097	34.7344	 
490.0	1.0	0.0	7.59998	7.17594	-8.61469	17.07281	21.98177	1.13127	0.88396	166.51694	149.907	63.32086	0.31487	 	2.81191E13	 	1.32463E-13	 	16814.265	34.5664	 
485.0	1.0	0.0	7.60204	7.174	-8.63949	17.05711	21.91996	1.12702	0.88729	166.98385	150.15877	63.50845	0.31466	 	3.69049E13	 	1.00267E-13	 	16642.256	34.4018	 
480.0	1.0	0.0	7.6041	7.17205	-8.66424	17.04141	21.85813	1.12276	0.89066	167.44911	150.40848	63.69547	0.31445	 	4.86126E13	 	7.5617E-14	 	16471.055	34.2402	 
475.0	1.0	0.0	7.60616	7.17011	-8.68894	17.02573	21.79627	1.11847	0.89408	167.91268	150.65612	63.88191	0.31424	 	6.42727E13	 	5.68132E-14	 	16300.647	34.0816	 
470.0	1.0	0.0	7.60821	7.16818	-8.71361	17.01005	21.73439	1.11416	0.89754	168.37457	150.9017	64.06776	0.31404	 	8.53002E13	 	4.2522E-14	 	16131.018	33.9258	 
465.0	1.0	0.0	7.61027	7.16624	-8.73823	16.99438	21.6725	1.10982	0.90105	168.83475	151.14521	64.25303	0.31383	 	1.13646E14	 	3.17014E-14	 	15962.154	33.7728	 
460.0	1.0	0.0	7.61232	7.16431	-8.76281	16.97872	21.61059	1.10546	0.9046	169.29322	151.38664	64.4377	0.31362	 	1.52008E14	 	2.35403E-14	 	15794.042	33.6224	 
455.0	1.0	0.0	7.61436	7.16239	-8.78734	16.96306	21.54866	1.10108	0.9082	169.74995	151.62599	64.62177	0.31341	 	2.04141E14	 	1.74091E-14	 	15626.669	33.4746	 
450.0	1.0	0.0	7.61641	7.16046	-8.81183	16.94742	21.48673	1.09667	0.91185	170.20494	151.86324	64.80523	0.3132	 	2.7528199999999997E14	 	1.28214E-14	 	15460.023	33.3292	 
445.0	1.0	0.0	7.61845	7.15854	-8.83628	16.93178	21.42478	1.09224	0.91555	170.65817	152.09841	64.98808	0.313	 	3.72775E14	 	9.40276E-15	 	15294.093	33.186	 
440.0	1.0	0.0	7.62049	7.15663	-8.86069	16.91615	21.36283	1.08778	0.91931	171.10962	152.33147	65.17032	0.31279	 	5.0695999999999994E14	 	6.86585E-15	 	15128.867	33.0452	 
435.0	1.0	0.0	7.62253	7.15471	-8.88505	16.90053	21.30087	1.08329	0.92311	171.55929	152.56243	65.35193	0.31258	 	6.92467E14	 	4.99129E-15	 	14964.334	32.9066	 
430.0	1.0	0.0	7.62456	7.1528	-8.90937	16.88492	21.23892	1.07878	0.92697	172.00716	152.79128	65.53291	0.31237	 	9.50085E14	 	3.6122E-15	 	14800.484	32.77	 
425.0	1.0	0.0	7.6266	7.1509	-8.93365	16.86931	21.17696	1.07424	0.93089	172.45322	153.01801	65.71326	0.31216	 	1.3095E15	 	2.60213E-15	 	14637.306	32.6356	 
420.0	1.0	0.0	7.62863	7.14899	-8.95789	16.85372	21.115	1.06968	0.93486	172.89745	153.24263	65.89297	0.31196	 	1.81331E15	 	1.8657E-15	 	14474.792	32.5028	 
415.0	1.0	0.0	7.63066	7.14709	-8.98208	16.83813	21.05304	1.06509	0.93889	173.33983	153.46512	66.07203	0.31175	 	2.52292E15	 	1.33127E-15	 	14312.931	32.3722	 
410.0	1.0	0.0	7.63268	7.1452	-9.00623	16.82255	20.99109	1.06047	0.94298	173.78037	153.68548	66.25045	0.31154	 	3.52732E15	 	9.45274E-16	 	14151.715	32.2432	 
405.0	1.0	0.0	7.6347	7.14331	-9.03034	16.80698	20.92915	1.05582	0.94713	174.21904	153.90371	66.42821	0.31133	 	4.95616E15	 	6.67832E-16	 	13991.134	32.1162	 
400.0	1.0	0.0	7.63672	7.14142	-9.05441	16.79142	20.86721	1.05115	0.95134	174.65584	154.11981	66.60531	0.31113	 	6.99924E15	 	4.69405E-16	 	13831.18	31.9908	 
395.0	1.0	0.0	7.63874	7.13953	-9.07843	16.77586	20.80529	1.04645	0.95561	175.09074	154.33377	66.78175	0.31092	 	9.93598E15	 	3.28209E-16	 	13671.846	31.8668	 
390.0	1.0	0.0	7.64076	7.13765	-9.10241	16.76032	20.74337	1.04172	0.95995	175.52374	154.54558	66.95751	0.31071	 	1.418E16	 	2.28256E-16	 	13513.122	31.7448	 
385.0	1.0	0.0	7.64277	7.13577	-9.12635	16.74478	20.68146	1.03696	0.96436	175.95482	154.75524	67.1326	0.3105	 	2.03469E16	 	1.57875E-16	 	13355.002	31.624	 
380.0	1.0	0.0	7.64478	7.13389	-9.15024	16.72925	20.61957	1.03217	0.96883	176.38398	154.96275	67.30701	0.31029	 	2.93584E16	 	1.08584E-16	 	13197.478	31.5048	 
375.0	1.0	0.0	7.64679	7.13202	-9.1741	16.71373	20.55768	1.02735	0.97338	176.8112	155.16811	67.48074	0.31009	 	4.26023E16	 	7.42555E-17	 	13040.543	31.387	 
370.0	1.0	0.0	7.64879	7.13015	-9.19791	16.69821	20.49581	1.0225	0.97799	177.23647	155.37131	67.65378	0.30988	 	6.21811E16	 	5.04825E-17	 	12884.19	31.2706	 
365.0	1.0	0.0	7.6508	7.12828	-9.22168	16.68271	20.43396	1.01763	0.98268	177.65978	155.57235	67.82612	0.30967	 	9.1299E16	 	3.41148E-17	 	12728.411	31.1558	 
360.0	1.0	0.0	7.6528	7.12642	-9.2454	16.66721	20.37211	1.01272	0.98744	178.08111	155.77123	67.99776	0.30946	 	1.34871E17	 	2.29126E-17	 	12573.202	31.0418	 
355.0	1.0	0.0	7.65479	7.12456	-9.26909	16.65172	20.31029	1.00778	0.99228	178.50046	155.96794	68.1687	0.30926	 	2.00483E17	 	1.52923E-17	 	12418.554	30.9296	 
350.0	1.0	0.0	7.65679	7.1227	-9.29273	16.63624	20.24847	1.00281	0.9972	178.91781	156.16248	68.33894	0.30905	 	2.99921E17	 	1.01408E-17	 	12264.462	30.8184	 
345.0	1.0	0.0	7.65878	7.12085	-9.31633	16.62077	20.18667	0.99781	1.0022	179.33316	156.35485	68.50846	0.30884	 	4.51624E17	 	6.68042E-18	 	12110.921	30.7082	 
340.0	1.0	0.0	7.66077	7.119	-9.33989	16.6053	20.12489	0.99278	1.00728	179.7465	156.54505	68.67726	0.30863	 	6.84626E17	 	4.37119E-18	 	11957.924	30.5994	 
335.0	1.0	0.0	7.66276	7.11715	-9.3634	16.58985	20.06311	0.98771	1.01244	180.15781	156.73308	68.84535	0.30842	 	1.04498E18	 	2.84045E-18	 	11805.465	30.4918	 
330.0	1.0	0.0	7.66474	7.11531	-9.38688	16.5744	20.00136	0.98262	1.01769	180.56708	156.91893	69.01271	0.30822	 	1.60627E18	 	1.83271E-18	 	11653.54	30.385	 
325.0	1.0	0.0	7.66673	7.11347	-9.41031	16.55896	19.93961	0.97749	1.02303	180.97431	157.10261	69.17934	0.30801	 	2.4869E18	 	1.17392E-18	 	11502.143	30.2794	 
320.0	1.0	0.0	7.66871	7.11163	-9.4337	16.54353	19.87788	0.97233	1.02846	181.37948	157.2841	69.34524	0.3078	 	3.87887E18	 	7.46357E-19	 	11351.268	30.175	 
315.0	1.0	0.0	7.67068	7.1098	-9.45705	16.5281	19.81616	0.96713	1.03398	181.78259	157.46342	69.5104	0.30759	 	6.09595E18	 	4.70905E-19	 	11200.912	30.0712	 
310.0	1.0	0.0	7.67266	7.10797	-9.48035	16.51269	19.75445	0.96191	1.0396	182.18363	157.64056	69.67482	0.30738	 	9.65499E18	 	2.94792E-19	 	11051.068	29.9688	 
305.0	1.0	0.0	7.67463	7.10614	-9.50362	16.49728	19.69276	0.95665	1.04532	182.58259	157.81553	69.8385	0.30718	 	1.54143E19	 	1.83064E-19	 	10901.734	29.8668	 
300.0	1.0	0.0	7.6766	7.10432	-9.52684	16.48188	19.63108	0.95135	1.05113	182.97946	157.98831	70.00143	0.30697	 	2.48112E19	 	1.12748E-19	 	10752.903	29.7662	 
295.0	1.0	0.0	7.67857	7.1025	-9.55002	16.46649	19.5694	0.94603	1.05705	183.37423	158.15892	70.16361	0.30676	 	4.02732E19	 	6.88548E-20	 	10604.572	29.6662	 
290.0	1.0	0.0	7.68053	7.10068	-9.57316	16.45111	19.50774	0.94066	1.06308	183.76691	158.32735	70.32504	0.30655	 	6.59366E19	 	4.16855E-20	 	10456.736	29.5672	 
285.0	1.0	0.0	7.6825	7.09887	-9.59625	16.43574	19.44608	0.93527	1.06921	184.15747	158.4936	70.48571	0.30635	 	1.0891299999999998E20	 	2.50126E-20	 	10309.392	29.4688	 
280.0	1.0	0.0	7.68446	7.09706	-9.61931	16.42037	19.38444	0.92984	1.07546	184.54592	158.65768	70.64563	0.30614	 	1.81542E20	 	1.48714E-20	 	10162.535	29.3714	 
275.0	1.0	0.0	7.68641	7.09525	-9.64232	16.40501	19.3228	0.92437	1.08181	184.93224	158.81959	70.80478	0.30593	 	3.0544299999999997E20	 	8.75902E-21	 	10016.161	29.2748	 
270.0	1.0	0.0	7.68837	7.09345	-9.66529	16.38966	19.26116	0.91887	1.08829	185.31644	158.97933	70.96317	0.30572	 	5.1885799999999993E20	 	5.10926E-21	 	9870.268	29.1786	 
265.0	1.0	0.0	7.69032	7.09165	-9.68822	16.37432	19.19954	0.91334	1.09489	185.69851	159.1369	71.12079	0.30551	 	8.901189999999999E20	 	2.95082E-21	 	9724.851	29.0834	 
260.0	1.0	0.0	7.69227	7.08985	-9.71111	16.35899	19.13792	0.90776	1.10161	186.07844	159.29231	71.27765	0.30531	 	1.54259E21	 	1.68689E-21	 	9579.907	28.9888	 
255.0	1.0	0.0	7.69422	7.08805	-9.73396	16.34367	19.0763	0.90215	1.10846	186.45624	159.44556	71.43373	0.3051	 	2.7013200000000003E21	 	9.54262E-22	 	9435.433	28.8948	 
250.0	1.0	0.0	7.69616	7.08626	-9.75676	16.32835	19.01469	0.89651	1.11544	186.83188	159.59665	71.58904	0.30489	 	4.78145E21	 	5.34015E-22	 	9291.425	28.8016	 
245.0	1.0	0.0	7.6981	7.08448	-9.77953	16.31304	18.95308	0.89083	1.12255	187.20539	159.74559	71.74358	0.30468	 	8.55724E21	 	2.95535E-22	 	9147.881	28.7088	 
240.0	1.0	0.0	7.70004	7.08269	-9.80225	16.29774	18.89148	0.88511	1.12981	187.57674	159.89238	71.89735	0.30448	 	1.5489499999999999E22	 	1.61694E-22	 	9004.798	28.6166	 
235.0	1.0	0.0	7.70198	7.08091	-9.82493	16.28245	18.82988	0.87935	1.1372	187.94595	160.03704	72.05034	0.30427	 	2.8367199999999997E22	 	8.74303E-23	 	8862.173	28.525	 
230.0	1.0	0.0	7.70391	7.07913	-9.84757	16.26717	18.76828	0.87356	1.14475	188.31301	160.17956	72.20256	0.30406	 	5.25803E22	 	4.67048E-23	 	8720.003	28.434	 
225.0	1.0	0.0	7.70584	7.07736	-9.87017	16.25189	18.70668	0.86772	1.15244	188.67791	160.31995	72.354	0.30385	 	9.86762E22	 	2.46396E-23	 	8578.287	28.3432	 
220.0	1.0	0.0	7.70777	7.07559	-9.89272	16.23662	18.64508	0.86185	1.16029	189.04067	160.45823	72.50466	0.30364	 	1.8756399999999998E23	 	1.28326E-23	 	8437.021	28.2532	 
215.0	1.0	0.0	7.7097	7.07382	-9.91524	16.22136	18.58348	0.85594	1.1683	189.40128	160.59439	72.65455	0.30344	 	3.61247E23	 	6.59532E-24	 	8296.203	28.1636	 
210.0	1.0	0.0	7.71162	7.07205	-9.93771	16.20611	18.52188	0.84999	1.17648	189.75975	160.72845	72.80366	0.30323	 	7.05267E23	 	3.34361E-24	 	8155.833	28.074	 
205.0	1.0	0.0	7.71354	7.07029	-9.96015	16.19087	18.46028	0.844	1.18483	190.11608	160.86042	72.952	0.30302	 	1.39631E24	 	1.67135E-24	 	8015.906	27.9854	 
200.0	1.0	0.0	7.71546	7.06853	-9.98254	16.17564	18.39868	0.83797	1.19336	190.47027	160.9903	73.09957	0.30281	 	2.80468E24	 	8.23384E-25	 	7876.423	27.8966	 
195.0	1.0	0.0	7.71738	7.06678	-10.00489	16.16041	18.33708	0.8319	1.20206	190.82233	161.11812	73.24636	0.30261	 	5.71817E24	 	3.9959E-25	 	7737.381	27.8084	 
190.0	1.0	0.0	7.71929	7.06503	-10.0272	16.14519	18.27548	0.82579	1.21096	191.17227	161.24387	73.39239	0.3024	 	1.1838900000000002E25	 	1.90939E-25	 	7598.779	27.7204	 
185.0	1.0	0.0	7.7212	7.06328	-10.04947	16.12998	18.21387	0.81964	1.22005	191.52009	161.36758	73.53765	0.30219	 	2.49041E25	 	8.97892E-26	 	7460.616	27.6326	 
180.0	1.0	0.0	7.72311	7.06153	-10.07169	16.11478	18.15226	0.81345	1.22934	191.86581	161.48926	73.68215	0.30198	 	5.32545E25	 	4.1531E-26	 	7322.89	27.5452	 
175.0	1.0	0.0	7.72502	7.05979	-10.09388	16.09959	18.09064	0.80721	1.23883	192.20943	161.60893	73.82589	0.30178	 	1.1582700000000001E26	 	1.88843E-26	 	7185.601	27.4578	 
170.0	1.0	0.0	7.72692	7.05805	-10.11602	16.0844	18.02903	0.80093	1.24854	192.55096	161.72659	73.96888	0.30157	 	2.5637800000000002E26	 	8.43639E-27	 	7048.748	27.3706	 
165.0	1.0	0.0	7.72882	7.05632	-10.13813	16.06923	17.9674	0.79461	1.25848	192.89043	161.84227	74.11111	0.30136	 	5.7786900000000005E26	 	3.70067E-27	 	6912.331	27.2834	 
160.0	1.0	0.0	7.73072	7.05458	-10.16019	16.05406	17.90578	0.78825	1.26864	193.22783	161.95599	74.2526	0.30115	 	1.3271699999999998E27	 	1.59293E-27	 	6776.349	27.1964	 
155.0	1.0	0.0	7.73262	7.05286	-10.18221	16.0389	17.84415	0.78184	1.27903	193.5632	162.06776	74.39335	0.30094	 	3.1078599999999997E27	 	6.7239E-28	 	6640.801	27.1096	 
150.0	1.0	0.0	7.73451	7.05113	-10.2042	16.02375	17.78251	0.77539	1.28968	193.89655	162.17761	74.53337	0.30074	 	7.42556E27	 	2.78132E-28	 	6505.689	27.0224	 
145.0	1.0	0.0	7.7364	7.04941	-10.22614	16.0086	17.72087	0.76889	1.30057	194.22789	162.28556	74.67267	0.30053	 	1.8115300000000001E28	 	1.12661E-28	 	6371.012	26.9354	 
140.0	1.0	0.0	7.73829	7.04769	-10.24804	15.99347	17.65922	0.76235	1.31174	194.55725	162.39163	74.81124	0.30032	 	4.51582E28	 	4.46537E-29	 	6236.771	26.8482	 
135.0	1.0	0.0	7.74017	7.04597	-10.2699	15.97834	17.59757	0.75576	1.32317	194.88466	162.49585	74.94911	0.30011	 	1.1512E29	 	1.73044E-29	 	6102.966	26.761	 
130.0	1.0	0.0	7.74205	7.04426	-10.29171	15.96322	17.53592	0.74913	1.33489	195.21014	162.59826	75.08628	0.29991	 	3.0036100000000003E29	 	6.55104E-30	 	5969.599	26.6734	 
125.0	1.0	0.0	7.74393	7.04255	-10.31349	15.94811	17.47425	0.74245	1.3469	195.53372	162.69887	75.22277	0.2997	 	8.027850000000001E29	 	2.42066E-30	 	5836.67	26.5858	 
120.0	1.0	0.0	7.74581	7.04084	-10.33523	15.93301	17.41258	0.73572	1.35921	195.85543	162.79771	75.35858	0.29949	 	2.19997E30	 	8.72226E-31	 	5704.182	26.4976	 
115.0	1.0	0.0	7.74769	7.03914	-10.35693	15.91791	17.35091	0.72895	1.37184	196.1753	162.89484	75.49372	0.29928	 	6.18747E30	 	3.06177E-31	 	5572.136	26.4092	 
110.0	1.0	0.0	7.74956	7.03744	-10.37858	15.90283	17.28922	0.72212	1.38481	196.49338	162.99027	75.62822	0.29907	 	1.78785E31	 	1.04598E-31	 	5440.534	26.3204	 
105.0	1.0	0.0	7.75143	7.03574	-10.4002	15.88775	17.22753	0.71525	1.39811	196.8097	163.08404	75.76208	0.29887	 	5.31298E31	 	3.47387E-32	 	5309.378	26.2312	 
100.0	1.0	0.0	7.75329	7.03404	-10.42177	15.87268	17.16584	0.70833	1.41177	197.1243	163.17621	75.89532	0.29866	 	1.62562E32	 	1.12034E-32	 	5178.672	26.1412	 
95.0	1.0	0.0	7.75516	7.03235	-10.4433	15.85762	17.10413	0.70136	1.4258	197.43723	163.26681	76.02797	0.29845	 	5.12738E32	 	3.50442E-33	 	5048.419	26.0506	 
90.0	1.0	0.0	7.75702	7.03067	-10.4648	15.84256	17.04242	0.69434	1.44022	197.74855	163.35588	76.16003	0.29824	 	1.6692E33	 	1.06185E-33	 	4918.621	25.9596	 
85.0	1.0	0.0	7.75888	7.02898	-10.48625	15.82752	16.9807	0.68727	1.45503	198.0583	163.44348	76.29153	0.29804	 	5.61611E33	 	3.11255E-34	 	4789.283	25.8676	 
80.0	1.0	0.0	7.76074	7.0273	-10.50766	15.81248	16.91897	0.68015	1.47027	198.36654	163.52967	76.4225	0.29783	 	1.95562E34	 	8.81378E-35	 	4660.41	25.7746	 
75.0	1.0	0.0	7.76259	7.02562	-10.52904	15.79745	16.85724	0.67297	1.48594	198.67335	163.61449	76.55295	0.29762	 	7.058220000000001E34	 	2.40745E-35	 	4532.005	25.681	 
70.0	1.0	0.0	7.76444	7.02395	-10.55037	15.78243	16.7955	0.66575	1.50207	198.97878	163.69801	76.68291	0.29741	 	2.6445499999999997E35	 	6.33315E-36	 	4404.074	25.5862	 
65.0	1.0	0.0	7.76629	7.02227	-10.57166	15.76742	16.73375	0.65847	1.51868	199.28291	163.78029	76.81242	0.29721	 	1.0303199999999999E36	 	1.60186E-36	 	4276.623	25.4902	 
60.0	1.0	0.0	7.76814	7.02061	-10.59291	15.75242	16.67199	0.65113	1.53578	199.58583	163.8614	76.9415	0.297	 	4.1813999999999995E36	 	3.8887E-37	 	4149.659	25.3928	 
55.0	1.0	0.0	7.76998	7.01894	-10.61412	15.73742	16.61022	0.64375	1.55341	199.88761	163.94142	77.07018	0.29679	 	1.7709599999999998E37	 	9.04376E-38	 	4023.187	25.2944	 
50.0	1.0	0.0	7.77182	7.01728	-10.63529	15.72243	16.54844	0.6363	1.57158	200.18835	164.02043	77.1985	0.29658	 	7.843279999999999E37	 	2.01091E-38	 	3897.217	25.194	 
45.0	1.0	0.0	7.77366	7.01562	-10.65643	15.70745	16.48665	0.62881	1.59031	200.48815	164.0985	77.3265	0.29637	 	3.63999E38	 	4.26598E-39	 	3771.755	25.0924	 
40.0	1.0	0.0	7.77549	7.01396	-10.67752	15.69248	16.42486	0.62125	1.60965	200.78711	164.17573	77.45421	0.29617	 	1.7741400000000003E39	 	8.6149E-40	 	3646.81	24.989	 
35.0	1.0	0.0	7.77733	7.01231	-10.69857	15.67752	16.36305	0.61364	1.62961	201.08536	164.25223	77.5817	0.29596	 	9.103350000000001E39	 	1.65214E-40	 	3522.393	24.8834	 
30.0	1.0	0.0	7.77916	7.01066	-10.71958	15.66256	16.30124	0.60597	1.65023	201.38301	164.32808	77.70899	0.29575	 	4.92994E40	 	3.00125E-41	 	3398.515	24.7756	 
25.0	1.0	0.0	7.78098	7.00901	-10.74055	 	16.23942	0.59825	1.67154	201.68021	164.40341	77.83615	0.29554	 	2.8254500000000003E41	 	5.15031E-42	 	3275.185	 	 
