T (C)	Fraction solid (wt)-TOTAL	Fraction liquid (wt)-LIQUID	Density (g/(cm)^3)-TOTAL	Molar volume (cm^3)-TOTAL	Volume change (%)-  	Average expansion coeff. (10e-6 1/K)-  	Thermal conductivity (W/(m*K))-TOTAL	Electrical resistivity (10e-6 Ohm*m)-TOTAL	Electrical conductivity (10e6 1/(Ohm*m))-TOTAL	Young's modulus (GPa)-TOTAL	Bulk modulus (GPa)-TOTAL	Shear modulus(GPa)-TOTAL	Poisson's ratio-TOTAL	Liquid viscosity (mPa s)-  	Total viscosity (mPa s)-  	Liquid diffusivity (10e-9 (m^2)/s)-  	Total diffusivity (10e-9 (m^2)/s)-  	Surface Tension (mN/m)-  	Enthalpy (J/mole)-TOTAL	Specific heat (J/(mole K))-TOTAL	Latent heat (J/mole)-TOTAL
1500.0	0.0	1.0	6.87145	7.7027	0.0	28.55874	32.71557	1.76607	0.56623	0.0	99.15222	0.0	0.49975	5.89819	5.89819	1.46728	1.46728	1779.39929	65041.376	 	0.0
1495.0	0.0	1.0	6.87529	7.6984	-0.0559435	28.51299	32.64233	1.76504	0.56656	0.0	99.33375	0.0	0.49975	5.9471	5.9471	1.45111	1.45111	1781.40617	64823.062	43.6628	0.0
1490.0	0.0	1.0	6.87913	7.6941	-0.11173	28.46733	32.5691	1.76401	0.56689	0.0	99.51527	0.0	0.49975	5.99669	5.99669	1.43504	1.43504	1783.4107	64605.311	43.5502	0.0
1485.0	0.0	1.0	6.88297	7.68981	-0.16736	28.42175	32.49586	1.76297	0.56722	0.0	99.69679	0.0	0.49975	6.04698	6.04698	1.41907	1.41907	1785.41287	64388.119	43.4384	0.0
1480.0	0.0	1.0	6.88679	7.68554	-0.22284	28.37627	32.42263	1.76193	0.56756	0.0	99.87832	0.0	0.49975	6.09798	6.09798	1.4032	1.4032	1787.41262	64171.483	43.3272	0.0
1475.0	0.0	1.0	6.89061	7.68128	-0.27816	28.33087	32.34939	1.76088	0.5679	0.0	100.05984	0.0	0.49975	6.14971	6.14971	1.38743	1.38743	1789.40994	63955.398	43.217	0.0
1470.0	0.0	1.0	6.89443	7.67703	-0.33333	28.28556	32.27616	1.75983	0.56824	0.0	100.24136	0.0	0.49975	6.20218	6.20218	1.37176	1.37176	1791.40478	63739.861	43.1074	0.0
1465.0	0.0	1.0	6.89823	7.67279	-0.38834	28.24035	32.20292	1.75877	0.56858	0.0	100.42288	0.0	0.49975	6.2554	6.2554	1.35619	1.35619	1793.39712	63524.868	42.9986	0.0
1460.0	0.0	1.0	6.90204	7.66857	-0.44319	28.19522	32.12969	1.75771	0.56892	0.0	100.60441	0.0	0.49975	6.30939	6.30939	1.34071	1.34071	1795.38692	63310.415	42.8906	0.0
1455.0	0.0	1.0	6.90583	7.66435	-0.49789	28.15019	32.05645	1.75664	0.56927	0.0	100.78593	0.0	0.49975	6.36416	6.36416	1.32534	1.32534	1797.37414	63096.498	42.7834	0.0
1450.0	0.0	1.0	6.90962	7.66015	-0.55243	28.10526	31.98322	1.75557	0.56961	0.0	100.96745	0.0	0.49975	6.41973	6.41973	1.31007	1.31007	1799.35874	62883.116	42.6764	0.0
1445.0	0.0	1.0	6.9134	7.65596	-0.60682	28.06041	31.90999	1.7545	0.56996	0.0	101.14898	0.0	0.49975	6.47611	6.47611	1.29489	1.29489	1801.34069	62670.267	42.5698	0.0
1440.0	0.0	1.0	6.91717	7.65179	-0.66105	28.01567	31.83675	1.75341	0.57032	0.0	101.3305	0.0	0.49975	6.53332	6.53332	1.27982	1.27982	1803.31996	62457.947	42.464	0.0
1435.0	0.0	1.0	6.92094	7.64762	-0.71513	27.97102	31.76352	1.75233	0.57067	0.0	101.51202	0.0	0.49975	6.59137	6.59137	1.26484	1.26484	1805.2965	62246.152	42.359	0.0
1430.0	0.0	1.0	6.9247	7.64347	-0.76905	27.92647	31.69028	1.75124	0.57103	0.0	101.69355	0.0	0.49975	6.65029	6.65029	1.24997	1.24997	1807.27027	62034.879	42.2546	0.0
1425.0	0.0	1.0	6.92845	7.63933	-0.82281	27.88202	31.61705	1.75014	0.57138	0.0	101.87507	0.0	0.49975	6.71008	6.71008	1.23519	1.23519	1809.24124	61824.124	42.151	0.0
1420.0	0.0	1.0	6.9322	7.6352	-0.87642	27.83766	31.54381	1.74904	0.57174	0.0	102.05659	0.0	0.49975	6.77077	6.77077	1.22052	1.22052	1811.20937	61613.885	42.0478	0.0
1415.0	0.0	1.0	6.93594	7.63108	-0.92988	27.79341	31.47058	1.74793	0.57211	0.0	102.23811	0.0	0.49975	6.83238	6.83238	1.20594	1.20594	1813.17461	61404.157	41.9456	0.0
1410.0	0.0	1.0	6.93968	7.62697	-0.98318	27.74926	31.39734	1.74682	0.57247	0.0	102.41964	0.0	0.49975	6.89491	6.89491	1.19146	1.19146	1815.13693	61194.936	41.8442	0.0
1405.0	0.0	1.0	6.9434	7.62288	-1.03632	27.70522	31.32411	1.7457	0.57284	0.0	102.60116	0.0	0.49975	6.9584	6.9584	1.17709	1.17709	1817.09628	60986.219	41.7434	0.0
1404.8	0.0	1.0	6.94355	7.62272	-1.03843	27.70347	31.3212	1.74566	0.57285	0.0	102.60838	0.0	0.49975	6.96094	6.96094	1.17652	1.17652	1817.17415	60977.926	41.6985	0.0020
1400.0	0.0535901	0.94641	6.95473	7.61051	-1.19696	27.36731	31.3813	1.73733	0.5756	4.09848E-4	100.39232	1.37375E-4	0.49172	6.96525	7.49538	1.17242	1.0895	1817.3133	60285.724	144.175	492.276
1395.0	0.10419	0.89581	6.96561	7.59867	-1.35062	27.04608	31.43322	1.72927	0.57828	0.00593892	98.33769	0.00200087	0.48409	6.96968	8.50029	1.16818	0.95783	1817.49968	59614.452	134.254	955.828
1390.0	0.15018	0.84982	6.97573	7.58765	-1.49371	26.75156	31.47542	1.72178	0.58079	0.025982	96.50793	0.00879488	0.47711	6.97419	10.89497	1.16392	0.74506	1817.72478	58987.18	125.454	1375.872
1385.0	0.19213	0.80787	6.98519	7.57747	-1.6259	26.48499	31.50961	1.71474	0.58318	0.0705073	94.87801	0.0239704	0.47072	6.97884	15.81123	1.15965	0.51185	1817.98349	58398.297	117.777	1758.02
1380.0	0.23054	0.76946	6.99407	7.56791	-1.74999	26.23886	31.53634	1.70812	0.58544	0.14801	93.42248	0.0505221	0.46483	6.98356	24.39427	1.15537	0.33076	1818.2764	57843.09	111.041	2106.977
1375.0	0.26581	0.73419	7.00243	7.55902	-1.86537	26.01516	31.55683	1.70185	0.5876	0.26479	92.12399	0.0907205	0.4594	6.98838	37.72057	1.15108	0.21326	1818.59826	57317.585	105.101	2426.717
1370.0	0.29831	0.70169	7.01028	7.55071	-1.97323	25.81077	31.57158	1.69589	0.58966	0.4251	90.96393	0.14614	0.45437	6.9936	56.7891	1.14673	0.14122	1818.94762	56818.405	99.836	2720.615
1366.62	0.3191	0.6809	7.01543	7.54529	-2.0436	25.67892	31.5786	1.69203	0.59101	0.56109	90.24059	0.19333	0.45113	6.99693	73.59056	1.14383	0.10875	1819.20066	56492.175	 	2908.249
1366.62	0.3191	0.6809	7.01543	7.54529	-2.0436	25.67892	31.5786	1.69203	0.59101	0.56109	90.24059	0.19333	0.45113	6.99693	73.59056	1.14383	0.10875	1819.20066	56492.174	 	2908.25
1365.0	0.33495	0.66505	7.01913	7.54136	-2.09466	25.56686	31.59471	1.6895	0.59189	0.62858	90.07723	0.21691	0.44892	6.99431	90.31818	1.14313	0.0885248	1819.20196	56258.527	111.976	3075.688
1360.0	0.38101	0.61899	7.02994	7.52983	-2.24432	25.24171	31.63771	1.68205	0.59451	0.873	89.68266	0.30261	0.44246	6.98618	159.00447	1.14097	0.0501307	1819.24472	55570.007	137.704	3559.877
1355.0	0.42272	0.57728	7.04002	7.51919	-2.38252	24.94646	31.67096	1.67514	0.59697	1.1804	89.419	0.41084	0.43656	6.97751	256.07066	1.13889	0.0310328	1819.33669	54930.621	127.877	3995.404
1350.0	0.4606	0.5394	7.04936	7.50955	-2.50767	24.68597	31.69609	1.66867	0.59928	1.56484	89.25644	0.54671	0.43115	6.96884	384.65664	1.1368	0.0205955	1819.4665	54334.459	119.232	4388.177
1345.0	0.49507	0.50493	7.05815	7.50061	-2.62373	24.44937	31.71351	1.66262	0.60146	2.03932	89.17249	0.71496	0.42619	6.95969	547.27877	1.13479	0.014431	1819.63954	53776.507	111.59	4743.208
1340.0	0.52653	0.47347	7.06635	7.49237	-2.73063	24.23709	31.72402	1.65693	0.60353	2.61383	89.15263	0.91932	0.42162	6.95058	745.98081	1.13277	0.0105544	1819.84996	53252.475	104.806	5064.78
1335.0	0.55528	0.44472	7.0741	7.48471	-2.8301	24.04453	31.72832	1.65157	0.60548	3.29545	89.18678	1.1625	0.4174	6.94118	982.47076	1.13078	0.00798902	1820.09839	52758.689	98.7572	5356.567
1330.0	0.5816	0.4184	7.08142	7.4776	-2.92243	23.87099	31.72704	1.6465	0.60735	4.08739	89.26625	1.44583	0.41351	6.93174	1258.25138	1.1288	0.00621861	1820.3812	52291.981	93.3416	5621.734
1325.0	0.60574	0.39426	7.08834	7.47093	-3.00905	23.71265	31.72048	1.64171	0.60912	4.99062	89.38354	1.76985	0.4099	6.92236	1574.85561	1.12681	0.00495294	1820.69941	51849.594	88.4774	5863.035
1320.0	0.6279	0.3721	7.09491	7.46476	-3.08911	23.57207	31.70956	1.63713	0.61082	6.00195	89.53552	2.13354	0.40657	6.91325	1933.5199	1.12476	0.00402156	1821.0444	51429.131	84.0926	6082.863
1315.0	0.64828	0.35172	7.10115	7.45895	-3.16455	23.44389	31.69428	1.63278	0.61245	7.11658	89.71605	2.53534	0.40347	6.90443	2335.60603	1.12266	0.00331878	1821.42109	51028.49	80.1282	6283.319
1310.0	0.66703	0.33297	7.1071	7.45351	-3.23519	23.32871	31.6752	1.62862	0.61402	8.32782	89.92198	2.97295	0.4006	6.8961	2782.92574	1.12048	0.00277656	1821.82506	50645.82	76.534	6466.251
1305.0	0.6843	0.3157	7.11281	7.44833	-3.30237	23.22276	31.65247	1.62464	0.61552	9.62649	90.14991	3.44313	0.39793	6.88813	3276.74529	1.11824	0.00235067	1822.25979	50279.471	73.2698	6633.306
1300.0	0.70022	0.29978	7.11825	7.44348	-3.36534	23.1284	31.62661	1.62082	0.61697	11.00213	90.39748	3.94218	0.39544	6.88119	3819.11769	1.11582	0.00201045	1822.7173	49927.975	70.2992	6785.95
1295.0	0.7149	0.2851	7.12348	7.43889	-3.42499	23.0431	31.5978	1.61714	0.61837	12.4448	90.66233	4.46653	0.39312	6.87525	4412.24971	1.11323	0.00173466	1823.19992	49590.013	67.5924	6925.498
1290.0	0.72846	0.27154	7.1285	7.43454	-3.48139	22.96679	31.56637	1.61359	0.61974	13.9425	90.94259	5.01185	0.39095	6.87041	5058.45046	1.11046	0.00150824	1823.70458	49264.392	65.1242	7053.142
1285.0	0.74101	0.25899	7.13335	7.43043	-3.53485	22.89865	31.53255	1.61016	0.62106	15.48411	91.23692	5.57409	0.38894	6.86692	5760.27439	1.10747	0.00132024	1824.23002	48950.03	62.8724	7169.959
1280.0	0.75259	0.24741	7.13802	7.42648	-3.5861	22.83653	31.49649	1.60683	0.62234	17.05985	91.54255	6.14971	0.38705	6.86462	6521.22831	1.10429	0.00116244	1824.77918	48645.942	60.8176	7276.934
1275.0	0.76334	0.23666	7.14255	7.4227	-3.63511	22.78069	31.45832	1.6036	0.6236	18.65906	91.85905	6.73479	0.38527	6.86414	7344.57171	1.10081	0.00102881	1825.34899	48351.225	58.9434	7374.967
1274.51	0.76418	0.23582	7.14294	7.42231	-3.6402	22.7743	31.45451	1.60328	0.62372	18.79195	91.8903	6.78345	0.38513	6.86399	7421.71871	1.10049	0.00101779	1825.40605	48324.44	 	7382.539
1270.0	0.82406	0.17594	7.15615	7.40901	-3.81289	22.33602	31.4166	1.60054	0.62479	30.02554	92.72166	10.92418	0.37427	6.94884	10850.17833	1.08388	6.94157E-4	1822.41083	47303.906	209.464	8226.027
1269.15	0.83228	0.16772	7.15809	7.40709	-3.83784	22.27601	31.40885	1.60005	0.62498	31.9537	92.85494	11.63843	0.37277	6.96536	11442.36758	1.08072	6.57869E-4	1821.85696	47155.415	 	8341.169
1265.0	0.87878	0.12122	7.17055	7.39453	-4.00092	21.85677	31.36942	1.59775	0.62588	44.76074	93.57512	16.40433	0.3643	7.07905	15195.40527	1.0605	4.94053E-4	1822.34309	46325.35	195.711	9008.748
1260.0	0.91313	0.086867	7.18067	7.38428	-4.13399	21.54069	31.31889	1.59513	0.62691	56.30646	94.27767	20.73253	0.35793	7.22536	19045.48734	1.03565	3.92897E-4	1822.63644	45642.361	136.598	9496.323
1255.0	0.93468	0.0653179	7.18794	7.37688	-4.23003	21.3351	31.26667	1.59258	0.62791	64.4346	94.87717	23.79704	0.35384	7.38054	22400.77089	1.01057	3.32958E-4	1822.68989	45145.541	99.364	9798.149
1250.0	0.94918	0.0508231	7.19366	7.371	-4.30632	21.18836	31.21352	1.59008	0.6289	70.321	95.41762	26.02538	0.35101	7.54292	25485.06422	0.98558	2.91705E-4	1822.55774	44750.8	78.9482	9998.311
1245.0	0.95944	0.0405593	7.19847	7.36601	-4.37109	21.07587	31.15957	1.5876	0.62988	74.7486	95.92113	27.70648	0.34894	7.71205	28442.71929	0.9608	2.60514E-4	1822.28009	44417.074	66.7452	10137.873
1240.0	0.96701	0.0329866	7.2027	7.36159	-4.42845	20.98533	31.10552	1.58512	0.63087	78.2086	96.40075	29.02313	0.34735	7.88768	31371.74703	0.93631	2.35413E-4	1821.87209	44122.264	58.962	10238.935
1235.0	0.97278	0.0272171	7.20656	7.35753	-4.48119	20.90842	31.05123	1.58264	0.63185	81.00324	96.86356	30.08844	0.34609	8.06886	34339.1089	0.91226	2.14359E-4	1821.37206	43853.537	53.7454	10314.329
1230.0	0.97729	0.0227057	7.21017	7.35373	-4.53059	20.84126	30.99682	1.58017	0.63284	83.3262	97.31439	30.97517	0.34505	8.25602	37395.30324	0.88862	1.96188E-4	1820.7844	43603.023	50.1028	10371.922
1225.0	0.9809	0.0190996	7.21359	7.3501	-4.57765	20.78084	30.94232	1.57768	0.63384	85.30475	97.75631	31.73129	0.34417	8.44888	40580.06987	0.86545	1.80189E-4	1820.12508	43365.667	47.4712	10416.769
1220.0	0.98384	0.0161643	7.21688	7.3466	-4.62305	20.72516	30.88775	1.5752	0.63484	87.02608	98.1913	32.38974	0.34342	8.64689	43927.4314	0.84281	1.65903E-4	1819.40974	43138.089	45.5156	10452.245
1215.0	0.98626	0.0137376	7.22008	7.34321	-4.66712	20.67319	30.83313	1.5727	0.63585	88.55155	98.621	32.97374	0.34276	8.85066	47468.25429	0.82065	1.53014E-4	1818.64336	42917.961	44.0256	10480.677
1210.0	0.9883	0.0117026	7.2232	7.33989	-4.71017	20.62401	30.7785	1.5702	0.63686	89.92406	99.04635	33.49956	0.34217	9.06027	51231.2802	0.79897	1.41298E-4	1817.8258	42703.635	42.8652	10503.712
1209.61	0.98844	0.0115614	7.22344	7.33964	-4.7135	20.6202	30.77426	1.57001	0.63694	90.02436	99.07907	33.538	0.34212	9.07637	51532.09913	0.79735	1.40437E-4	1817.76603	42687.281	 	10505.285
1209.61	0.98844	0.0115614	7.22344	7.33964	-4.7135	20.6202	30.77426	1.57001	0.63694	90.02436	99.07908	33.538	0.34212	9.07637	51532.10612	0.79735	1.40437E-4	1817.76603	42687.281	 	10505.285
1205.0	0.99038	0.00962037	7.22639	7.33651	-4.75407	20.57171	30.7229	1.56774	0.63786	91.35598	99.47781	34.04905	0.34153	9.26426	55326.00387	0.77874	1.30399E-4	1816.21975	42485.532	43.6206	10530.925
1200.0	0.99213	0.00787203	7.22954	7.33319	-4.79722	20.52139	30.66752	1.56526	0.63887	92.65343	99.90475	34.54729	0.34097	9.47318	59690.33561	0.75899	1.20456E-4	1814.52277	42272.695	42.5674	10553.271
1195.0	0.99359	0.00641101	7.23264	7.32992	-4.83968	20.47282	30.61235	1.56276	0.63989	93.83381	100.32754	35.0008	0.34045	9.68743	64351.55441	0.73969	1.11352E-4	1812.81563	42064.602	41.6186	10571.271
1190.0	0.99483	0.00517307	7.2357	7.32669	-4.8816	20.42558	30.5573	1.56024	0.64093	94.92204	100.74672	35.41911	0.33998	9.90689	69344.54114	0.72084	1.02982E-4	1811.09941	41860.258	40.8688	10585.918
1185.0	0.99589	0.00411154	7.23873	7.3235	-4.92304	20.3795	30.50234	1.55771	0.64197	95.93716	101.16315	35.80949	0.33955	10.13208	74705.55552	0.70241	9.52656E-5	1809.37014	41658.929	40.2658	10597.942
1180.0	0.99681	0.00319325	7.24173	7.32033	-4.9641	20.33426	30.44745	1.55517	0.64302	96.89377	101.57713	36.17752	0.33914	10.36264	80472.75693	0.68443	8.8135E-5	1807.63935	41460.074	39.771	10607.884
1175.0	0.99761	0.00239122	7.24472	7.3172	-5.00483	20.28968	30.39249	1.55262	0.64407	97.80239	101.98896	36.52722	0.33876	10.59844	86686.19389	0.6669	8.15362E-5	1805.91239	41263.277	39.3594	10616.157
1170.0	0.99832	0.00168472	7.24769	7.31409	-5.04523	20.24581	30.33765	1.55006	0.64514	98.67063	102.39898	36.86151	0.3384	10.8407	93388.49194	0.64974	7.54232E-5	1804.17509	41068.219	39.0116	10623.077
1165.0	0.99894	0.00105921	7.25064	7.31099	-5.08538	20.20238	30.28291	1.54748	0.64621	99.50651	102.80738	37.18345	0.33805	11.08804	100627.3686	0.63305	6.97549E-5	1802.448	40874.649	38.714	10628.895
1160.0	0.9995	5.01199E-4	7.25358	7.30792	-5.12528	20.15938	30.22828	1.54488	0.6473	100.31383	103.21415	37.49451	0.33771	11.342	108452.117	0.61672	6.44971E-5	1800.71699	40682.369	38.456	10633.806
1155.0	1.0	0.0	7.25651	7.30486	-5.16493	20.11682	30.17373	1.54228	0.64839	101.09744	103.61965	37.79654	0.33739	 	116918.5362	 	5.9618E-5	 	40491.216	38.2306	10637.971
1150.0	1.0	0.0	7.25887	7.30248	-5.19588	20.10295	30.11722	1.53976	0.64945	101.6162	104.01688	37.99646	0.33718	 	125846.5522	 	5.51945E-5	 	40277.262	42.7908	 
1145.0	1.0	0.0	7.26124	7.3001	-5.22679	20.08909	30.0607	1.53724	0.65052	102.13524	104.41338	38.19654	0.33697	 	135528.6568	 	5.10714E-5	 	40094.327	36.587	 
1140.0	1.0	0.0	7.26361	7.29772	-5.25765	20.07525	30.00419	1.5347	0.65159	102.65457	104.80915	38.3968	0.33676	 	146034.4445	 	4.72302E-5	 	39911.587	36.548	 
1135.0	1.0	0.0	7.26597	7.29535	-5.28847	20.06142	29.94767	1.53216	0.65267	103.17416	105.20417	38.59721	0.33655	 	157440.464	 	4.36535E-5	 	39729.058	36.5058	 
1130.0	1.0	0.0	7.26833	7.29298	-5.31925	20.04761	29.89115	1.5296	0.65376	103.694	105.59843	38.79779	0.33634	 	169830.9646	 	4.0325E-5	 	39546.749	36.4618	 
1125.0	1.0	0.0	7.27069	7.29061	-5.34999	20.03381	29.83463	1.52704	0.65486	104.21406	105.99191	38.99851	0.33613	 	183298.7292	 	3.7229E-5	 	39364.663	36.4172	 
1120.0	1.0	0.0	7.27305	7.28825	-5.38069	20.02003	29.77812	1.52447	0.65597	104.73434	106.38461	39.19937	0.33592	 	197946.0029	 	3.43509E-5	 	39182.799	36.3728	 
1115.0	1.0	0.0	7.27541	7.28588	-5.41135	20.00626	29.7216	1.52189	0.65708	105.25482	106.77651	39.40037	0.33571	 	213885.5301	 	3.16768E-5	 	39001.156	36.3286	 
1110.0	1.0	0.0	7.27777	7.28353	-5.44197	19.99251	29.66508	1.51929	0.6582	105.77548	107.16759	39.6015	0.3355	 	231241.7125	 	2.91937E-5	 	38819.733	36.2846	 
1105.0	1.0	0.0	7.28012	7.28117	-5.47254	19.97877	29.60857	1.51669	0.65933	106.29631	107.55785	39.80276	0.33529	 	250151.904	 	2.68893E-5	 	38638.528	36.241	 
1100.0	1.0	0.0	7.28247	7.27882	-5.50308	19.96505	29.55205	1.51408	0.66047	106.8173	107.94728	40.00414	0.33508	 	270767.8588	 	2.47518E-5	 	38457.54	36.1976	 
1095.0	1.0	0.0	7.28482	7.27647	-5.53357	19.95134	29.49553	1.51145	0.66161	107.33842	108.33585	40.20564	0.33487	 	293257.353	 	2.27704E-5	 	38276.767	36.1546	 
1090.0	1.0	0.0	7.28717	7.27412	-5.56402	19.93765	29.43902	1.50882	0.66277	107.85966	108.72357	40.40724	0.33466	 	317806.0004	 	2.09348E-5	 	38096.207	36.112	 
1085.0	1.0	0.0	7.28952	7.27178	-5.59444	19.92397	29.3825	1.50618	0.66393	108.38101	109.11041	40.60895	0.33445	 	344619.2888	 	1.92351E-5	 	37915.86	36.0694	 
1080.0	1.0	0.0	7.29187	7.26944	-5.62481	19.91031	29.32598	1.50353	0.6651	108.90246	109.49637	40.81075	0.33424	 	373924.8639	 	1.76623E-5	 	37735.723	36.0274	 
1075.0	1.0	0.0	7.29421	7.26711	-5.65514	19.89666	29.26947	1.50086	0.66628	109.42399	109.88143	41.01265	0.33403	 	405975.0937	 	1.62079E-5	 	37555.795	35.9856	 
1070.0	1.0	0.0	7.29655	7.26477	-5.68543	19.88303	29.21295	1.49819	0.66747	109.94558	110.26559	41.21464	0.33382	 	441049.9495	 	1.48636E-5	 	37376.074	35.9442	 
1065.0	1.0	0.0	7.29889	7.26244	-5.71568	19.86941	29.15644	1.49551	0.66867	110.46722	110.64883	41.41671	0.33361	 	479460.245	 	1.36219E-5	 	37196.559	35.903	 
1060.0	1.0	0.0	7.30123	7.26012	-5.74589	19.85581	29.09992	1.49281	0.66988	110.98889	111.03114	41.61885	0.3334	 	521551.2819	 	1.24758E-5	 	37017.247	35.8624	 
1055.0	1.0	0.0	7.30357	7.25779	-5.77606	19.84223	29.04341	1.49011	0.67109	111.51059	111.41252	41.82107	0.33319	 	567706.9536	 	1.14185E-5	 	36838.138	35.8218	 
1050.0	1.0	0.0	7.30591	7.25547	-5.80619	19.82866	28.9869	1.48739	0.67232	112.0323	111.79294	42.02336	0.33298	 	618354.3717	 	1.04438E-5	 	36659.228	35.782	 
1045.0	1.0	0.0	7.30824	7.25315	-5.83628	19.8151	28.93039	1.48466	0.67355	112.554	112.17241	42.2257	0.33277	 	673969.0829	 	9.54578E-6	 	36480.517	35.7422	 
1040.0	1.0	0.0	7.31057	7.25084	-5.86633	19.80156	28.87388	1.48193	0.6748	113.07568	112.55091	42.42811	0.33256	 	735080.9577	 	8.71898E-6	 	36302.003	35.7028	 
1035.0	1.0	0.0	7.31291	7.24853	-5.89633	19.78803	28.81737	1.47918	0.67605	113.59732	112.92843	42.63056	0.33235	 	802280.843	 	7.95825E-6	 	36123.682	35.6642	 
1030.0	1.0	0.0	7.31523	7.24622	-5.9263	19.77452	28.76086	1.47642	0.67731	114.11892	113.30496	42.83306	0.33214	 	876228.0834	 	7.25879E-6	 	35945.554	35.6256	 
1025.0	1.0	0.0	7.31756	7.24391	-5.95623	19.76103	28.70436	1.47365	0.67859	114.64046	113.68049	43.0356	0.33193	 	957659.0309	 	6.61608E-6	 	35767.617	35.5874	 
1020.0	1.0	0.0	7.31989	7.24161	-5.98612	19.74755	28.64785	1.47087	0.67987	115.16193	114.05501	43.23818	0.33172	 	1047396.683	 	6.02593E-6	 	35589.867	35.55	 
1015.0	1.0	0.0	7.32221	7.23931	-6.01597	19.73408	28.59135	1.46808	0.68116	115.6833	114.42852	43.44078	0.33151	 	1146361.604	 	5.48443E-6	 	35412.303	35.5128	 
1010.0	1.0	0.0	7.32454	7.23702	-6.04578	19.72063	28.53486	1.46528	0.68247	116.20458	114.801	43.64342	0.3313	 	1255584.319	 	4.98791E-6	 	35234.924	35.4758	 
1005.0	1.0	0.0	7.32686	7.23472	-6.07554	19.7072	28.47836	1.46246	0.68378	116.72575	115.17245	43.84607	0.33109	 	1376219.377	 	4.53295E-6	 	35057.725	35.4398	 
1000.0	1.0	0.0	7.32918	7.23243	-6.10527	19.69378	28.42187	1.45964	0.6851	117.24678	115.54285	44.04874	0.33088	 	1509561.339	 	4.11638E-6	 	34880.706	35.4038	 
995.0	1.0	0.0	7.3315	7.23015	-6.13496	19.68037	28.36539	1.4568	0.68644	117.76768	115.9122	44.25143	0.33067	 	1657062.959	 	3.73524E-6	 	34703.863	35.3686	 
990.0	1.0	0.0	7.33381	7.22786	-6.16461	19.66698	28.30891	1.45395	0.68778	118.28842	116.28048	44.45411	0.33046	 	1820355.874	 	3.38677E-6	 	34527.194	35.3338	 
985.0	1.0	0.0	7.33613	7.22558	-6.19422	19.65361	28.25243	1.45109	0.68914	118.809	116.64769	44.6568	0.33025	 	2001274.19	 	3.0684E-6	 	34350.696	35.2996	 
980.0	1.0	0.0	7.33844	7.2233	-6.22379	19.64025	28.19596	1.44822	0.6905	119.3294	117.01383	44.85949	0.33004	 	2201881.364	 	2.77777E-6	 	34174.368	35.2656	 
975.0	1.0	0.0	7.34075	7.22103	-6.25333	19.62691	28.1395	1.44533	0.69188	119.84961	117.37888	45.06217	0.32983	 	2424500.9	 	2.51265E-6	 	33998.205	35.2326	 
970.0	1.0	0.0	7.34306	7.21876	-6.28282	19.61358	28.08304	1.44244	0.69327	120.36962	117.74283	45.26484	0.32962	 	2671751.412	 	2.27098E-6	 	33822.206	35.1998	 
965.0	1.0	0.0	7.34537	7.21649	-6.31227	19.60026	28.02659	1.43953	0.69467	120.88941	118.10568	45.46749	0.32941	 	2946586.725	 	2.05088E-6	 	33646.366	35.168	 
960.0	1.0	0.0	7.34768	7.21422	-6.34168	19.58697	27.97015	1.43661	0.69608	121.40897	118.46741	45.67011	0.32919	 	3252341.768	 	1.85057E-6	 	33470.684	35.1364	 
955.0	1.0	0.0	7.34998	7.21196	-6.37106	19.57368	27.91372	1.43368	0.69751	121.9283	118.82803	45.87272	0.32898	 	3592785.169	 	1.66843E-6	 	33295.156	35.1056	 
950.0	1.0	0.0	7.35229	7.2097	-6.40039	19.56041	27.85729	1.43073	0.69894	122.44736	119.18751	46.07528	0.32877	 	3972179.563	 	1.50293E-6	 	33119.779	35.0754	 
945.0	1.0	0.0	7.35459	7.20744	-6.42969	19.54716	27.80088	1.42778	0.70039	122.96617	119.54587	46.27782	0.32856	 	4395350.825	 	1.35268E-6	 	32944.549	35.046	 
940.0	1.0	0.0	7.35689	7.20519	-6.45895	19.53392	27.74448	1.42481	0.70185	123.48469	119.90307	46.48031	0.32835	 	4867767.638	 	1.21639E-6	 	32769.464	35.017	 
935.0	1.0	0.0	7.35919	7.20294	-6.48817	19.5207	27.68809	1.42182	0.70332	124.00293	120.25913	46.68276	0.32814	 	5395633.003	 	1.09286E-6	 	32594.518	34.9892	 
930.0	1.0	0.0	7.36149	7.20069	-6.51735	19.50749	27.63172	1.41883	0.70481	124.52086	120.61403	46.88516	0.32793	 	5985989.621	 	9.81003E-7	 	32419.709	34.9618	 
925.0	1.0	0.0	7.36378	7.19845	-6.54649	19.4943	27.57536	1.41582	0.70631	125.03848	120.96776	47.0875	0.32772	 	6646841.351	 	8.79797E-7	 	32245.033	34.9352	 
920.0	1.0	0.0	7.36607	7.19621	-6.57559	19.48112	27.51902	1.4128	0.70782	125.55577	121.32032	47.28978	0.32751	 	7387293.362	 	7.88309E-7	 	32070.486	34.9094	 
915.0	1.0	0.0	7.36837	7.19397	-6.60465	19.46796	27.46269	1.40976	0.70934	126.07273	121.6717	47.492	0.3273	 	8217714.002	 	7.05679E-7	 	31896.063	34.8846	 
910.0	1.0	0.0	7.37066	7.19173	-6.63368	19.45481	27.40639	1.40671	0.71088	126.58933	122.02189	47.69416	0.32709	 	9149921.979	 	6.31116E-7	 	31721.761	34.8604	 
905.0	1.0	0.0	7.37295	7.1895	-6.66266	19.44168	27.3501	1.40365	0.71243	127.10558	122.37089	47.89624	0.32688	 	1.019740302E7	 	5.63894E-7	 	31547.574	34.8374	 
900.0	1.0	0.0	7.37523	7.18727	-6.69161	19.42856	27.29384	1.40058	0.71399	127.62145	122.71869	48.09824	0.32667	 	1.137556093E7	 	5.03347E-7	 	31373.498	34.8152	 
895.0	1.0	0.0	7.37752	7.18504	-6.72052	19.41546	27.23759	1.39749	0.71557	128.13694	123.06528	48.30016	0.32646	 	1.270200886E7	 	4.48862E-7	 	31199.529	34.7938	 
890.0	1.0	0.0	7.3798	7.18282	-6.74939	19.40237	27.18138	1.39438	0.71716	128.65203	123.41065	48.502	0.32625	 	1.419690754E7	 	3.99879E-7	 	31025.66	34.7738	 
885.0	1.0	0.0	7.38209	7.1806	-6.77822	19.3893	27.12518	1.39127	0.71877	129.16671	123.7548	48.70375	0.32604	 	1.588335858E7	 	3.55885E-7	 	30851.887	34.7546	 
880.0	1.0	0.0	7.38437	7.17838	-6.80702	19.37624	27.06902	1.38813	0.72039	129.68097	124.09773	48.9054	0.32583	 	1.778786225E7	 	3.16409E-7	 	30678.204	34.7366	 
875.0	1.0	0.0	7.38665	7.17616	-6.83577	19.3632	27.01288	1.38499	0.72203	130.1948	124.43942	49.10695	0.32562	 	1.994085099E7	 	2.81023E-7	 	30504.605	34.7198	 
870.0	1.0	0.0	7.38892	7.17395	-6.86449	19.35017	26.95677	1.38182	0.72368	130.70819	124.77986	49.3084	0.32541	 	2.237731184E7	 	2.49334E-7	 	30331.085	34.704	 
865.0	1.0	0.0	7.3912	7.17174	-6.89317	19.33716	26.9007	1.37865	0.72535	131.22112	125.11906	49.50975	0.3252	 	2.513751355E7	 	2.20986E-7	 	30157.636	34.6898	 
860.0	1.0	0.0	7.39347	7.16954	-6.92181	19.32416	26.84466	1.37546	0.72703	131.73359	125.45701	49.71098	0.325	 	2.826785693E7	 	1.95651E-7	 	29984.252	34.6768	 
855.0	1.0	0.0	7.39575	7.16733	-6.95042	19.31118	26.78865	1.37225	0.72873	132.24558	125.79369	49.91209	0.32479	 	3.182187062E7	 	1.73033E-7	 	29810.926	34.6652	 
850.0	1.0	0.0	7.39802	7.16513	-6.97898	19.29822	26.73269	1.36903	0.73044	132.75709	126.12911	50.11308	0.32458	 	3.586137848E7	 	1.52861E-7	 	29637.65	34.6552	 
845.0	1.0	0.0	7.40029	7.16294	-7.00751	19.28527	26.67676	1.36579	0.73218	133.26809	126.46326	50.31395	0.32437	 	4.045787E7	 	1.34891E-7	 	29464.417	34.6466	 
840.0	1.0	0.0	7.40256	7.16074	-7.036	19.27233	26.62086	1.36254	0.73392	133.77858	126.79612	50.51469	0.32416	 	4.569411096E7	 	1.189E-7	 	29291.219	34.6396	 
835.0	1.0	0.0	7.40482	7.15855	-7.06445	19.25941	26.56502	1.35927	0.73569	134.28854	127.1277	50.71529	0.32395	 	5.166603902E7	 	1.04684E-7	 	29118.046	34.6346	 
830.0	1.0	0.0	7.40709	7.15636	-7.09287	19.2465	26.50921	1.35599	0.73747	134.79798	127.45799	50.91575	0.32374	 	5.848499742E7	 	9.20612E-8	 	28944.889	34.6314	 
825.0	1.0	0.0	7.40935	7.15418	-7.12125	19.23361	26.45345	1.35269	0.73927	135.30686	127.78697	51.11608	0.32353	 	6.62803706E7	 	8.08655E-8	 	28771.739	34.63	 
820.0	1.0	0.0	7.41161	7.15199	-7.14959	19.22074	26.39773	1.34937	0.74109	135.81518	128.11466	51.31625	0.32332	 	7.520269827E7	 	7.09468E-8	 	28598.585	34.6308	 
815.0	1.0	0.0	7.41387	7.14981	-7.17789	19.20788	26.34207	1.34604	0.74292	136.32294	128.44103	51.51627	0.32311	 	8.542735959E7	 	6.21697E-8	 	28425.417	34.6336	 
810.0	1.0	0.0	7.41613	7.14764	-7.20615	19.19503	26.28645	1.34269	0.74478	136.83011	128.76608	51.71614	0.3229	 	9.715893798E7	 	5.44117E-8	 	28252.222	34.639	 
805.0	1.0	0.0	7.41839	7.14546	-7.23438	19.1822	26.23087	1.33932	0.74665	137.3367	129.08981	51.91584	0.32269	 	1.106363993E8	 	4.75628E-8	 	28078.989	34.6466	 
800.0	1.0	0.0	7.42064	7.14329	-7.26257	19.16939	26.17535	1.33594	0.74854	137.84267	129.41221	52.11538	0.32248	 	1.261392437E8	 	4.15238E-8	 	27905.703	34.6572	 
795.0	1.0	0.0	7.42289	7.14112	-7.29072	19.15659	26.11988	1.33254	0.75045	138.34804	129.73327	52.31475	0.32227	 	1.439948245E8	 	3.62053E-8	 	27732.351	34.6704	 
790.0	1.0	0.0	7.42515	7.13896	-7.31884	19.1438	26.06446	1.32912	0.75238	138.85277	130.053	52.51395	0.32206	 	1.645870684E8	 	3.15272E-8	 	27558.918	34.6866	 
785.0	1.0	0.0	7.4274	7.13679	-7.34692	19.13103	26.0091	1.32568	0.75433	139.35687	130.37138	52.71296	0.32185	 	1.883668794E8	 	2.74176E-8	 	27385.387	34.7062	 
780.0	1.0	0.0	7.42965	7.13463	-7.37496	19.11828	25.95378	1.32223	0.7563	139.86032	130.6884	52.9118	0.32164	 	2.15864572E8	 	2.3812E-8	 	27211.741	34.7292	 
775.0	1.0	0.0	7.43189	7.13248	-7.40297	19.10554	25.89852	1.31876	0.75829	140.36312	131.00407	53.11045	0.32143	 	2.477047489E8	 	2.06527E-8	 	27037.962	34.7558	 
770.0	1.0	0.0	7.43414	7.13032	-7.43093	19.09281	25.84331	1.31527	0.7603	140.86524	131.31838	53.30891	0.32122	 	2.846241336E8	 	1.7888E-8	 	26864.028	34.7868	 
765.0	1.0	0.0	7.43638	7.12817	-7.45886	19.0801	25.78816	1.31177	0.76233	141.36668	131.63132	53.50717	0.32101	 	3.274929762E8	 	1.54719E-8	 	26689.918	34.822	 
760.0	1.0	0.0	7.43862	7.12602	-7.48676	19.06741	25.73305	1.30825	0.76438	141.86743	131.94288	53.70524	0.3208	 	3.773407883E8	 	1.33634E-8	 	26515.609	34.8618	 
755.0	1.0	0.0	7.44086	7.12388	-7.51462	19.05473	25.67799	1.30471	0.76646	142.36747	132.25307	53.9031	0.32059	 	4.353873326E8	 	1.15257E-8	 	26341.076	34.9066	 
750.0	1.0	0.0	7.4431	7.12173	-7.54244	19.04207	25.62299	1.30115	0.76855	142.8668	132.56187	54.10075	0.32038	 	5.030799994E8	 	9.92634E-9	 	26166.289	34.9574	 
745.0	1.0	0.0	7.44534	7.11959	-7.57022	19.02942	25.56803	1.29757	0.77067	143.36541	132.86929	54.29819	0.32017	 	5.821389589E8	 	8.53634E-9	 	25991.22	35.0138	 
740.0	1.0	0.0	7.44758	7.11746	-7.59797	19.01678	25.51312	1.29398	0.77281	143.86328	133.17531	54.49542	0.31996	 	6.746117986E8	 	7.33004E-9	 	25815.836	35.0768	 
735.0	1.0	0.0	7.44981	7.11532	-7.62568	19.00417	25.45825	1.29037	0.77497	144.3604	133.47993	54.69243	0.31975	 	7.829397476E8	 	6.28469E-9	 	25640.1	35.1472	 
730.0	1.0	0.0	7.45204	7.11319	-7.65335	18.99156	25.40343	1.28674	0.77716	144.85677	133.78315	54.88921	0.31954	 	9.100380819E8	 	5.38013E-9	 	25463.974	35.2252	 
725.0	1.0	0.0	7.45427	7.11106	-7.68099	18.97897	25.34864	1.2831	0.77937	145.35237	134.08495	55.08576	0.31933	 	1.059393915E9	 	4.59859E-9	 	25287.414	35.312	 
720.0	1.0	0.0	7.4565	7.10893	-7.70859	18.9664	25.2939	1.27943	0.7816	145.8472	134.38535	55.28208	0.31912	 	1.235185338E9	 	3.92437E-9	 	25110.374	35.408	 
715.0	1.0	0.0	7.45873	7.10681	-7.73616	18.95384	25.23918	1.27575	0.78385	146.34123	134.68433	55.47817	0.31891	 	1.442426836E9	 	3.34361E-9	 	24932.802	35.5144	 
710.0	1.0	0.0	7.46096	7.10469	-7.76369	18.9413	25.1845	1.27205	0.78613	146.83447	134.98188	55.67401	0.3187	 	1.687147081E9	 	2.84416E-9	 	24754.641	35.6322	 
705.0	1.0	0.0	7.46318	7.10257	-7.79118	18.92877	25.12985	1.26833	0.78844	147.3269	135.278	55.86961	0.31849	 	1.976606714E9	 	2.4153E-9	 	24575.828	35.7626	 
700.0	1.0	0.0	7.4654	7.10046	-7.81864	18.91626	25.07522	1.2646	0.79076	147.8185	135.5727	56.06496	0.31828	 	2.31956561E9	 	2.04767E-9	 	24396.292	35.9072	 
695.0	1.0	0.0	7.46763	7.09835	-7.84606	18.90376	25.02061	1.26085	0.79312	148.30928	135.86595	56.26005	0.31807	 	2.726611463E9	 	1.73303E-9	 	24215.957	36.067	 
690.0	1.0	0.0	7.46985	7.09624	-7.87345	18.89128	24.96602	1.25708	0.7955	148.79922	136.15777	56.45489	0.31786	 	3.210564558E9	 	1.4642E-9	 	24034.736	36.2442	 
685.0	1.0	0.0	7.47206	7.09413	-7.90079	18.87881	24.91144	1.25329	0.7979	149.2883	136.44814	56.64947	0.31765	 	3.786977325E9	 	1.23489E-9	 	23847.023	37.5426	 
680.0	1.0	0.0	7.47428	7.09203	-7.92811	18.86636	24.85687	1.24949	0.80033	149.77652	136.73706	56.84379	0.31744	 	4.474752108E9	 	1.03963E-9	 	23655.497	38.3052	 
675.0	1.0	0.0	7.4765	7.08992	-7.95539	18.85392	24.8023	1.24567	0.80278	150.26388	137.02452	57.03783	0.31723	 	5.296906618E9	 	8.73658E-10	 	23465.238	38.0518	 
670.0	1.0	0.0	7.47871	7.08783	-7.98263	18.8415	24.74772	1.24183	0.80526	150.75035	137.31053	57.2316	0.31702	 	6.281524307E9	 	7.32829E-10	 	23276.204	37.8068	 
665.0	1.0	0.0	7.48092	7.08573	-8.00983	18.82909	24.69314	1.23798	0.80777	151.23593	137.59507	57.4251	0.31681	 	7.462936742E9	 	6.13549E-10	 	23088.355	37.5698	 
660.0	1.0	0.0	7.48313	7.08364	-8.037	18.8167	24.63855	1.23411	0.8103	151.7206	137.87814	57.61831	0.3166	 	8.883197679E9	 	5.12707E-10	 	22901.656	37.3398	 
655.0	1.0	0.0	7.48534	7.08155	-8.06414	18.80433	24.58393	1.23023	0.81286	152.20437	138.15975	57.81124	0.31639	 	1.05939E10	 	4.2761E-10	 	22716.071	37.117	 
650.0	1.0	0.0	7.48755	7.07946	-8.09124	18.79197	24.52929	1.22632	0.81545	152.68721	138.43987	58.00388	0.31618	 	1.2658599999999998E10	 	3.55937E-10	 	22531.566	36.901	 
645.0	1.0	0.0	7.48975	7.07738	-8.1183	18.77962	24.47462	1.22241	0.81806	153.16912	138.71852	58.19622	0.31597	 	1.5155499999999998E10	 	2.95686E-10	 	22348.11	36.6912	 
640.0	1.0	0.0	7.49196	7.07529	-8.14533	18.76729	24.41992	1.21847	0.8207	153.65009	138.99569	58.38827	0.31576	 	1.81812E10	 	2.45135E-10	 	22165.673	36.4874	 
635.0	1.0	0.0	7.49416	7.07321	-8.17233	18.75497	24.36517	1.21452	0.82337	154.1301	139.27137	58.58002	0.31555	 	2.18555E10	 	2.02808E-10	 	21984.225	36.2896	 
630.0	1.0	0.0	7.49636	7.07114	-8.19928	18.74267	24.31038	1.21056	0.82606	154.60916	139.54555	58.77146	0.31534	 	2.6326599999999996E10	 	1.67437E-10	 	21803.74	36.097	 
625.0	1.0	0.0	7.49856	7.06906	-8.22621	18.73038	24.25553	1.20658	0.82879	155.08724	139.81824	58.9626	0.31513	 	3.1779099999999996E10	 	1.37941E-10	 	21624.192	35.9096	 
620.0	1.0	0.0	7.50076	7.06699	-8.25309	18.71811	24.20063	1.20258	0.83154	155.56433	140.08943	59.15342	0.31492	 	3.84431E10	 	1.13395E-10	 	21445.555	35.7274	 
615.0	1.0	0.0	7.50295	7.06492	-8.27995	18.70586	24.14566	1.19857	0.83432	156.04044	140.35912	59.34392	0.31471	 	4.66056E10	 	9.30111E-11	 	21267.807	35.5496	 
610.0	1.0	0.0	7.50515	7.06286	-8.30677	18.69362	24.09063	1.19455	0.83714	156.51554	140.6273	59.53411	0.3145	 	5.662629999999999E10	 	7.61207E-11	 	21090.925	35.3764	 
605.0	1.0	0.0	7.50734	7.0608	-8.33355	18.68139	24.03552	1.19051	0.83998	156.98963	140.89397	59.72397	0.31429	 	6.89564E10	 	6.21557E-11	 	20914.888	35.2074	 
600.0	1.0	0.0	7.50953	7.05874	-8.3603	18.66918	23.98033	1.18646	0.84285	157.4627	141.15913	59.9135	0.31408	 	8.41635E10	 	5.06351E-11	 	20739.674	35.0428	 
595.0	1.0	0.0	7.51172	7.05668	-8.38701	18.65699	23.92506	1.18239	0.84575	157.93474	141.42277	60.1027	0.31387	 	1.02963E11	 	4.11527E-11	 	20565.266	34.8816	 
590.0	1.0	0.0	7.51391	7.05462	-8.41369	18.64481	23.8697	1.1783	0.84868	158.40574	141.68489	60.29156	0.31366	 	1.26261E11	 	3.33659E-11	 	20391.645	34.7242	 
585.0	1.0	0.0	7.5161	7.05257	-8.44033	18.63264	23.81424	1.17421	0.85164	158.87569	141.94548	60.48008	0.31345	 	1.55204E11	 	2.69866E-11	 	20218.792	34.5706	 
580.0	1.0	0.0	7.51828	7.05052	-8.46694	18.62049	23.7587	1.17009	0.85463	159.34457	142.20454	60.66826	0.31324	 	1.91248E11	 	2.17728E-11	 	20046.691	34.4202	 
575.0	1.0	0.0	7.52046	7.04847	-8.49352	18.60836	23.70305	1.16597	0.85766	159.81239	142.46208	60.8561	0.31304	 	2.36252E11	 	1.7522E-11	 	19875.327	34.2728	 
570.0	1.0	0.0	7.52265	7.04643	-8.52006	18.59624	23.6473	1.16183	0.86071	160.27912	142.71807	61.04358	0.31283	 	2.92588E11	 	1.40649E-11	 	19704.683	34.1288	 
565.0	1.0	0.0	7.52483	7.04439	-8.54656	18.58413	23.59145	1.15767	0.8638	160.74477	142.97253	61.2307	0.31262	 	3.63294E11	 	1.12603E-11	 	19534.746	33.9874	 
560.0	1.0	0.0	7.527	7.04235	-8.57303	18.57204	23.53548	1.1535	0.86693	161.20932	143.22545	61.41747	0.31241	 	4.52273E11	 	8.99103E-12	 	19365.5	33.8492	 
555.0	1.0	0.0	7.52918	7.04031	-8.59947	18.55997	23.47941	1.14932	0.87008	161.67276	143.47682	61.60387	0.3122	 	5.64554E11	 	7.15962E-12	 	19196.934	33.7132	 
550.0	1.0	0.0	7.53136	7.03828	-8.62587	18.54791	23.42323	1.14512	0.87327	162.13508	143.72665	61.78991	0.31199	 	7.06632E11	 	5.68555E-12	 	19029.033	33.5802	 
545.0	1.0	0.0	7.53353	7.03625	-8.65224	18.53587	23.36693	1.1409	0.8765	162.59627	143.97492	61.97557	0.31178	 	8.86924E11	 	4.50229E-12	 	18861.787	33.4492	 
540.0	1.0	0.0	7.5357	7.03422	-8.67858	18.52384	23.31052	1.13668	0.87976	163.05633	144.22164	62.16086	0.31157	 	1.11636E12	 	3.5551E-12	 	18695.183	33.3208	 
535.0	1.0	0.0	7.53787	7.03219	-8.70488	18.51182	23.25399	1.13243	0.88305	163.51524	144.4668	62.34578	0.31136	 	1.40921E12	 	2.79901E-12	 	18529.209	33.1948	 
530.0	1.0	0.0	7.54004	7.03017	-8.73114	18.49982	23.19735	1.12817	0.88639	163.97299	144.7104	62.53031	0.31115	 	1.78409E12	 	2.19719E-12	 	18363.856	33.0706	 
525.0	1.0	0.0	7.54221	7.02815	-8.75738	18.48784	23.14059	1.1239	0.88976	164.42958	144.95243	62.71445	0.31094	 	2.26545E12	 	1.71956E-12	 	18199.114	32.9484	 
520.0	1.0	0.0	7.54438	7.02613	-8.78357	18.47587	23.08372	1.11961	0.89317	164.88499	145.1929	62.89821	0.31073	 	2.88545E12	 	1.34162E-12	 	18034.971	32.8286	 
515.0	1.0	0.0	7.54654	7.02412	-8.80974	18.46392	23.02674	1.11531	0.89661	165.33922	145.4318	63.08157	0.31052	 	3.68654E12	 	1.04346E-12	 	17871.419	32.7104	 
510.0	1.0	0.0	7.54871	7.0221	-8.83587	18.45198	22.96965	1.11099	0.9001	165.79226	145.66913	63.26454	0.31031	 	4.72493E12	 	8.08977E-13	 	17708.449	32.594	 
505.0	1.0	0.0	7.55087	7.02009	-8.86197	18.44006	22.91245	1.10665	0.90363	166.2441	145.90488	63.44711	0.3101	 	6.07534E12	 	6.25143E-13	 	17546.052	32.4794	 
500.0	1.0	0.0	7.55303	7.01809	-8.88803	18.42815	22.85514	1.10229	0.9072	166.69472	146.13905	63.62927	0.30989	 	7.83737E12	 	4.81482E-13	 	17384.22	32.3664	 
495.0	1.0	0.0	7.55519	7.01608	-8.91406	18.41626	22.79773	1.09792	0.91081	167.14413	146.37164	63.81102	0.30968	 	1.01443E13	 	3.69581E-13	 	17222.944	32.2552	 
490.0	1.0	0.0	7.55734	7.01408	-8.94005	18.40438	22.74022	1.09354	0.91447	167.5923	146.60265	63.99237	0.30947	 	1.31752E13	 	2.8271E-13	 	17062.218	32.1452	 
485.0	1.0	0.0	7.5595	7.01208	-8.96602	18.39252	22.68262	1.08913	0.91816	168.03924	146.83207	64.1733	0.30926	 	1.71712E13	 	2.15497E-13	 	16902.033	32.037	 
480.0	1.0	0.0	7.56165	7.01008	-8.99195	18.38067	22.62492	1.08471	0.92191	168.48493	147.05991	64.3538	0.30905	 	2.24586E13	 	1.63676E-13	 	16742.382	31.9302	 
475.0	1.0	0.0	7.5638	7.00809	-9.01784	18.36884	22.56713	1.08026	0.9257	168.92936	147.28615	64.53389	0.30884	 	2.94807E13	 	1.23862E-13	 	16583.259	31.8246	 
470.0	1.0	0.0	7.56595	7.00609	-9.0437	18.35702	22.50925	1.0758	0.92954	169.37253	147.51079	64.71355	0.30863	 	3.88415E13	 	9.33829E-14	 	16424.657	31.7204	 
465.0	1.0	0.0	7.5681	7.0041	-9.06953	18.34522	22.45129	1.07132	0.93342	169.81443	147.73385	64.89278	0.30842	 	5.13674E13	 	7.01364E-14	 	16266.57	31.6174	 
460.0	1.0	0.0	7.57025	7.00212	-9.09533	18.33343	22.39326	1.06682	0.93736	170.25504	147.9553	65.07158	0.30821	 	6.81943E13	 	5.24724E-14	 	16108.991	31.5158	 
455.0	1.0	0.0	7.5724	7.00013	-9.12109	18.32166	22.33516	1.06231	0.94135	170.69436	148.17515	65.24995	0.308	 	9.0889E13	 	3.91018E-14	 	15951.915	31.4152	 
450.0	1.0	0.0	7.57454	6.99815	-9.14682	18.3099	22.27699	1.05777	0.94539	171.13238	148.3934	65.42787	0.30779	 	1.21622E14	 	2.90204E-14	 	15795.336	31.3158	 
445.0	1.0	0.0	7.57668	6.99617	-9.17252	18.29816	22.21876	1.05321	0.94948	171.56909	148.61004	65.60535	0.30758	 	1.63413E14	 	2.14495E-14	 	15639.249	31.2174	 
440.0	1.0	0.0	7.57883	6.9942	-9.19818	18.28643	22.16048	1.04862	0.95363	172.00448	148.82508	65.78238	0.30738	 	2.20481E14	 	1.57869E-14	 	15483.647	31.1204	 
435.0	1.0	0.0	7.58097	6.99222	-9.22382	18.27472	22.10215	1.04402	0.95784	172.43855	149.03851	65.95896	0.30717	 	2.98748E14	 	1.15693E-14	 	15328.527	31.024	 
430.0	1.0	0.0	7.5831	6.99025	-9.24941	18.26303	22.04377	1.03939	0.9621	172.87129	149.25032	66.13508	0.30696	 	4.06562E14	 	8.44128E-15	 	15173.883	30.9288	 
425.0	1.0	0.0	7.58524	6.98828	-9.27498	18.25134	21.98535	1.03474	0.96642	173.30268	149.46052	66.31075	0.30675	 	5.5574699999999994E14	 	6.13138E-15	 	15019.71	30.8346	 
420.0	1.0	0.0	7.58738	6.98631	-9.30051	18.23968	21.9269	1.03007	0.97081	173.73272	149.66911	66.48596	0.30654	 	7.6313E14	 	4.43318E-15	 	14866.004	30.7412	 
415.0	1.0	0.0	7.58951	6.98435	-9.32601	18.22803	21.86842	1.02538	0.97525	174.1614	149.87607	66.66071	0.30633	 	1.05277E15	 	3.19034E-15	 	14712.76	30.6488	 
410.0	1.0	0.0	7.59164	6.98239	-9.35148	18.21639	21.80992	1.02066	0.97976	174.58872	150.08142	66.83498	0.30612	 	1.45923E15	 	2.28496E-15	 	14559.975	30.557	 
405.0	1.0	0.0	7.59377	6.98043	-9.37691	18.20477	21.7514	1.01591	0.98434	175.01466	150.28515	67.00879	0.30591	 	2.03244E15	 	1.62853E-15	 	14407.643	30.4664	 
400.0	1.0	0.0	7.5959	6.97847	-9.40232	18.19317	21.69287	1.01114	0.98898	175.43921	150.48726	67.18212	0.3057	 	2.84485E15	 	1.15489E-15	 	14255.761	30.3764	 
395.0	1.0	0.0	7.59803	6.97652	-9.42769	18.18158	21.63433	1.00635	0.99369	175.86238	150.68774	67.35497	0.30549	 	4.0022E15	 	8.1482E-16	 	14104.325	30.2872	 
390.0	1.0	0.0	7.60016	6.97457	-9.45303	18.17	21.57579	1.00153	0.99847	176.28414	150.8866	67.52735	0.30528	 	5.65959E15	 	5.71891E-16	 	13953.332	30.1986	 
385.0	1.0	0.0	7.60228	6.97262	-9.47833	18.15844	21.51725	0.99668	1.00333	176.7045	151.08383	67.69924	0.30507	 	8.04579E15	 	3.99248E-16	 	13802.777	30.111	 
380.0	1.0	0.0	7.6044	6.97067	-9.5036	18.14689	21.45872	0.99181	1.00826	177.12345	151.27943	67.87064	0.30486	 	1.15001E16	 	2.77203E-16	 	13652.657	30.024	 
375.0	1.0	0.0	7.60653	6.96873	-9.52885	18.13536	21.40019	0.98691	1.01327	177.54097	151.4734	68.04155	0.30465	 	1.6528700000000002E16	 	1.91391E-16	 	13502.969	29.9376	 
370.0	1.0	0.0	7.60865	6.96678	-9.55405	18.12385	21.34169	0.98198	1.01835	177.95707	151.66575	68.21197	0.30444	 	2.38912E16	 	1.3139E-16	 	13353.71	29.8518	 
365.0	1.0	0.0	7.61076	6.96484	-9.57923	18.11235	21.2832	0.97702	1.02352	178.37173	151.85646	68.3819	0.30423	 	3.4733900000000004E16	 	8.96719E-17	 	13204.876	29.7668	 
360.0	1.0	0.0	7.61288	6.96291	-9.60438	18.10086	21.22474	0.97204	1.02877	178.78494	152.04554	68.55132	0.30402	 	5.07979E16	 	6.08342E-17	 	13056.464	29.6824	 
355.0	1.0	0.0	7.615	6.96097	-9.62949	18.0894	21.1663	0.96702	1.0341	179.19671	152.23299	68.72024	0.30381	 	7.47441E16	 	4.10179E-17	 	12908.472	29.5984	 
350.0	1.0	0.0	7.61711	6.95904	-9.65457	18.07794	21.10789	0.96198	1.03952	179.60701	152.41881	68.88866	0.3036	 	1.10665E17	 	2.74834E-17	 	12760.897	29.515	 
345.0	1.0	0.0	7.61922	6.95711	-9.67962	18.0665	21.04951	0.95691	1.04503	180.01586	152.60299	69.05657	0.30339	 	1.64896E17	 	1.82966E-17	 	12613.735	29.4324	 
340.0	1.0	0.0	7.62133	6.95518	-9.70464	18.05508	20.99117	0.9518	1.05064	180.42323	152.78554	69.22397	0.30318	 	2.47311E17	 	1.21007E-17	 	12466.984	29.3502	 
335.0	1.0	0.0	7.62344	6.95326	-9.72962	18.04367	20.93287	0.94667	1.05633	180.82913	152.96646	69.39086	0.30298	 	3.73407E17	 	7.94905E-18	 	12320.642	29.2684	 
330.0	1.0	0.0	7.62555	6.95134	-9.75458	18.03227	20.8746	0.94151	1.06212	181.23354	153.14574	69.55723	0.30277	 	5.67671E17	 	5.18579E-18	 	12174.707	29.187	 
325.0	1.0	0.0	7.62766	6.94942	-9.7795	18.0209	20.81638	0.93632	1.06801	181.63646	153.32339	69.72308	0.30256	 	8.69085E17	 	3.35919E-18	 	12029.175	29.1064	 
320.0	1.0	0.0	7.62976	6.9475	-9.80439	18.00953	20.7582	0.93109	1.07401	182.03789	153.4994	69.88841	0.30235	 	1.34015E18	 	2.16021E-18	 	11884.045	29.026	 
315.0	1.0	0.0	7.63187	6.94559	-9.82925	17.99818	20.70006	0.92584	1.0801	182.43782	153.67378	70.05322	0.30214	 	2.08187E18	 	1.37886E-18	 	11739.314	28.9462	 
310.0	1.0	0.0	7.63397	6.94367	-9.85408	17.98685	20.64197	0.92055	1.08631	182.83624	153.84653	70.2175	0.30193	 	3.25869E18	 	8.7342E-19	 	11594.981	28.8666	 
305.0	1.0	0.0	7.63607	6.94176	-9.87888	17.97553	20.58393	0.91523	1.09262	183.23315	154.01764	70.38125	0.30172	 	5.14052E18	 	5.48934E-19	 	11451.043	28.7876	 
300.0	1.0	0.0	7.63817	6.93986	-9.90365	17.96423	20.52593	0.90988	1.09905	183.62854	154.18713	70.54448	0.30151	 	8.17396E18	 	3.42233E-19	 	11307.498	28.709	 
295.0	1.0	0.0	7.64027	6.93795	-9.92838	17.95294	20.46798	0.90449	1.10559	184.02241	154.35499	70.70717	0.3013	 	1.31042E19	 	2.11611E-19	 	11164.346	28.6304	 
290.0	1.0	0.0	7.64236	6.93605	-9.95308	17.94167	20.41008	0.89908	1.11225	184.41476	154.52121	70.86932	0.30109	 	2.11855E19	 	1.29739E-19	 	11021.583	28.5526	 
285.0	1.0	0.0	7.64446	6.93415	-9.97776	17.93041	20.35223	0.89363	1.11903	184.80557	154.68581	71.03094	0.30088	 	3.45471E19	 	7.88543E-20	 	10879.209	28.4748	 
280.0	1.0	0.0	7.64655	6.93225	-10.0024	17.91917	20.29442	0.88815	1.12594	185.19485	154.84879	71.19203	0.30067	 	5.68371E19	 	4.75004E-20	 	10737.222	28.3974	 
275.0	1.0	0.0	7.64864	6.93035	-10.02701	17.90794	20.23667	0.88263	1.13298	185.58259	155.01014	71.35257	0.30046	 	9.43635E19	 	2.83519E-20	 	10595.62	28.3204	 
270.0	1.0	0.0	7.65073	6.92846	-10.05159	17.89673	20.17896	0.87708	1.14015	185.96879	155.16987	71.51257	0.30025	 	1.58138E20	 	1.67637E-20	 	10454.402	28.2436	 
265.0	1.0	0.0	7.65282	6.92657	-10.07614	17.88553	20.12129	0.8715	1.14745	186.35344	155.32798	71.67203	0.30004	 	2.6757399999999997E20	 	9.81625E-21	 	10313.567	28.167	 
260.0	1.0	0.0	7.65491	6.92468	-10.10066	17.87435	20.06367	0.86588	1.1549	186.73655	155.48448	71.83094	0.29983	 	4.5723799999999993E20	 	5.69107E-21	 	10173.114	28.0906	 
255.0	1.0	0.0	7.65699	6.92279	-10.12514	17.86318	20.0061	0.86023	1.16249	187.11811	155.63936	71.98931	0.29962	 	7.8932E20	 	3.26581E-21	 	10033.041	28.0146	 
250.0	1.0	0.0	7.65908	6.92091	-10.1496	17.85203	19.94857	0.85454	1.17022	187.49811	155.79263	72.14713	0.29941	 	1.3769000000000001E21	 	1.85443E-21	 	9893.348	27.9386	 
245.0	1.0	0.0	7.66116	6.91903	-10.17403	17.84089	19.89109	0.84882	1.17811	187.87656	155.9443	72.30441	0.29921	 	2.42786E21	 	1.04164E-21	 	9754.033	27.863	 
240.0	1.0	0.0	7.66324	6.91715	-10.19842	17.82977	19.83364	0.84306	1.18615	188.25346	156.09437	72.46113	0.299	 	4.32862E21	 	5.78605E-22	 	9615.097	27.7872	 
235.0	1.0	0.0	7.66532	6.91527	-10.22279	17.81866	19.77624	0.83727	1.19436	188.6288	156.24284	72.61731	0.29879	 	7.80591E21	 	3.17728E-22	 	9476.538	27.7118	 
230.0	1.0	0.0	7.6674	6.9134	-10.24712	17.80757	19.71887	0.83144	1.20273	189.00258	156.38971	72.77294	0.29858	 	1.42427E22	 	1.72421E-22	 	9338.355	27.6366	 
225.0	1.0	0.0	7.66948	6.91153	-10.27143	17.79649	19.66155	0.82558	1.21127	189.3748	156.535	72.92802	0.29837	 	2.6303299999999996E22	 	9.24349E-23	 	9200.549	27.5612	 
220.0	1.0	0.0	7.67155	6.90966	-10.2957	17.78543	19.60426	0.81968	1.21998	189.74548	156.67871	73.08255	0.29816	 	4.91855E22	 	4.89361E-23	 	9063.119	27.486	 
215.0	1.0	0.0	7.67363	6.90779	-10.31995	17.77439	19.547	0.81375	1.22888	190.11459	156.82084	73.23653	0.29795	 	9.316149999999999E22	 	2.55743E-23	 	8926.064	27.411	 
210.0	1.0	0.0	7.6757	6.90592	-10.34416	17.76335	19.48978	0.80778	1.23796	190.48216	156.9614	73.38996	0.29774	 	1.78806E23	 	1.31882E-23	 	8789.384	27.336	 
205.0	1.0	0.0	7.67777	6.90406	-10.36834	17.75234	19.43259	0.80177	1.24724	190.84817	157.1004	73.54284	0.29753	 	3.47901E23	 	6.70804E-24	 	8653.08	27.2608	 
200.0	1.0	0.0	7.67984	6.9022	-10.3925	17.74134	19.37543	0.79573	1.25671	191.21264	157.23785	73.69518	0.29732	 	6.865019999999999E23	 	3.3639E-24	 	8517.152	27.1856	 
195.0	1.0	0.0	7.68191	6.90034	-10.41662	17.73035	19.3183	0.78965	1.26639	191.57557	157.37374	73.84697	0.29711	 	1.37448E24	 	1.66239E-24	 	8381.599	27.1106	 
190.0	1.0	0.0	7.68397	6.89849	-10.44071	17.71938	19.26119	0.78353	1.27627	191.93696	157.5081	73.99822	0.2969	 	2.79351E24	 	8.09205E-25	 	8246.422	27.0354	 
185.0	1.0	0.0	7.68604	6.89663	-10.46478	17.70843	19.20411	0.77738	1.28638	192.29681	157.64093	74.14892	0.29669	 	5.76618E24	 	3.87799E-25	 	8111.622	26.96	 
180.0	1.0	0.0	7.6881	6.89478	-10.48881	17.69749	19.14706	0.77118	1.29671	192.65514	157.77224	74.29909	0.29648	 	1.20942E25	 	1.82875E-25	 	7977.199	26.8846	 
175.0	1.0	0.0	7.69016	6.89293	-10.51282	17.68656	19.09003	0.76495	1.30727	193.01195	157.90204	74.44871	0.29627	 	2.5789600000000004E25	 	8.48135E-26	 	7843.154	26.809	 
170.0	1.0	0.0	7.69223	6.89109	-10.53679	17.67565	19.03302	0.75868	1.31807	193.36725	158.03034	74.5978	0.29607	 	5.59421E25	 	3.86632E-26	 	7709.488	26.7332	 
165.0	1.0	0.0	7.69429	6.88924	-10.56074	17.66475	18.97603	0.75238	1.32912	193.72104	158.15716	74.74636	0.29586	 	1.2351300000000002E26	 	1.7314E-26	 	7576.201	26.6574	 
160.0	1.0	0.0	7.69634	6.8874	-10.58465	17.65387	18.91905	0.74603	1.34043	194.07334	158.2825	74.89439	0.29565	 	2.7773400000000002E26	 	7.61194E-27	 	7443.296	26.581	 
155.0	1.0	0.0	7.6984	6.88556	-10.60854	17.64301	18.8621	0.73965	1.352	194.42417	158.40639	75.0419	0.29544	 	6.36458E26	 	3.28332E-27	 	7310.773	26.5046	 
150.0	1.0	0.0	7.70045	6.88372	-10.63239	17.63216	18.80516	0.73322	1.36384	194.77352	158.52883	75.18889	0.29523	 	1.48739E27	 	1.38854E-27	 	7178.634	26.4278	 
145.0	1.0	0.0	7.70251	6.88189	-10.65622	17.62133	18.74824	0.72676	1.37598	195.12142	158.64984	75.33536	0.29502	 	3.54729E27	 	5.75337E-28	 	7046.88	26.3508	 
140.0	1.0	0.0	7.70456	6.88005	-10.68002	17.61051	18.69132	0.72025	1.3884	195.46787	158.76944	75.48132	0.29481	 	8.639899999999999E27	 	2.33392E-28	 	6915.514	26.2732	 
135.0	1.0	0.0	7.70661	6.87822	-10.70379	17.5997	18.63442	0.71371	1.40113	195.81291	158.88764	75.62679	0.2946	 	2.1507800000000002E28	 	9.26213E-29	 	6784.538	26.1952	 
130.0	1.0	0.0	7.70866	6.87639	-10.72753	17.58891	18.57754	0.70713	1.41418	196.15654	159.00447	75.77175	0.29439	 	5.47658E28	 	3.59289E-29	 	6653.954	26.1168	 
125.0	1.0	0.0	7.71071	6.87457	-10.75124	17.57814	18.52066	0.7005	1.42755	196.49878	159.11994	75.91623	0.29418	 	1.4276500000000001E29	 	1.36117E-29	 	6523.765	26.0378	 
120.0	1.0	0.0	7.71276	6.87274	-10.77492	17.56738	18.46379	0.69383	1.44127	196.83966	159.23407	76.06022	0.29397	 	3.8134500000000006E29	 	5.03184E-30	 	6393.973	25.9584	 
115.0	1.0	0.0	7.7148	6.87092	-10.79857	17.55664	18.40693	0.68713	1.45534	197.17919	159.3469	76.20374	0.29376	 	1.0447499999999999E30	 	1.81333E-30	 	6264.581	25.8784	 
110.0	1.0	0.0	7.71684	6.8691	-10.82219	17.54591	18.35007	0.68038	1.46978	197.51742	159.45844	76.3468	0.29355	 	2.93852E30	 	6.36396E-31	 	6135.593	25.7976	 
105.0	1.0	0.0	7.71889	6.86729	-10.84579	17.53519	18.29322	0.67358	1.4846	197.85435	159.56872	76.48941	0.29334	 	8.494229999999999E30	 	2.17284E-31	 	6007.012	25.7162	 
100.0	1.0	0.0	7.72093	6.86547	-10.86935	17.52449	18.23638	0.66675	1.49981	198.19002	159.67776	76.63158	0.29314	 	2.52625E31	 	7.20933E-32	 	5878.843	25.6338	 
95.0	1.0	0.0	7.72297	6.86366	-10.89289	17.51381	18.17953	0.65987	1.51545	198.52447	159.7856	76.77332	0.29293	 	7.73902E31	 	2.3218E-32	 	5751.088	25.551	 
90.0	1.0	0.0	7.725	6.86185	-10.9164	17.50314	18.1227	0.65295	1.53151	198.85773	159.89227	76.91464	0.29272	 	2.44504E32	 	7.24913E-33	 	5623.753	25.467	 
85.0	1.0	0.0	7.72704	6.86004	-10.93988	17.49249	18.06586	0.64599	1.54802	199.18983	159.9978	77.05556	0.29251	 	7.97697E32	 	2.19136E-33	 	5496.843	25.382	 
80.0	1.0	0.0	7.72908	6.85823	-10.96333	17.48185	18.00903	0.63898	1.565	199.52082	160.10223	77.1961	0.2923	 	2.69112E33	 	6.40492E-34	 	5370.362	25.2962	 
75.0	1.0	0.0	7.73111	6.85643	-10.98675	17.47123	17.9522	0.63193	1.58246	199.85073	160.20559	77.33627	0.29209	 	9.40148E33	 	1.80741E-34	 	5244.316	25.2092	 
70.0	1.0	0.0	7.73314	6.85463	-11.01014	17.46062	17.89537	0.62483	1.60044	200.17963	160.30793	77.47609	0.29188	 	3.4063800000000004E34	 	4.91675E-35	 	5118.711	25.121	 
65.0	1.0	0.0	7.73517	6.85283	-11.03351	17.45003	17.83853	0.61769	1.61894	200.50755	160.40929	77.61557	0.29167	 	1.28211E35	 	1.28728E-35	 	4993.554	25.0314	 
60.0	1.0	0.0	7.7372	6.85103	-11.05685	17.43945	17.7817	0.6105	1.63801	200.83456	160.50972	77.75475	0.29146	 	5.0215099999999995E35	 	3.23811E-36	 	4868.851	24.9406	 
55.0	1.0	0.0	7.73923	6.84923	-11.08016	17.42889	17.72487	0.60326	1.65765	201.16071	160.60927	77.89364	0.29125	 	2.0502799999999998E36	 	7.81169E-37	 	4744.61	24.8482	 
50.0	1.0	0.0	7.74126	6.84744	-11.10344	17.41834	17.66803	0.59598	1.6779	201.48607	160.70799	78.03227	0.29104	 	8.74382E36	 	1.80381E-37	 	4620.838	24.7544	 
45.0	1.0	0.0	7.74328	6.84565	-11.12669	17.40781	17.61119	0.58866	1.69879	201.8107	160.80595	78.17066	0.29083	 	3.9029E37	 	3.97861E-38	 	4497.544	24.6588	 
40.0	1.0	0.0	7.74531	6.84386	-11.14991	17.39729	17.55435	0.58128	1.72034	202.13468	160.90319	78.30884	0.29062	 	1.8273399999999997E38	 	8.36409E-39	 	4374.738	24.5612	 
35.0	1.0	0.0	7.74733	6.84207	-11.17311	17.38679	17.49751	0.57386	1.74259	202.4581	160.99979	78.44685	0.29042	 	8.995199999999999E38	 	1.67201E-39	 	4252.428	24.462	 
30.0	1.0	0.0	7.74935	6.84029	-11.19628	17.3763	17.44066	0.56639	1.76558	202.78103	161.09582	78.58471	0.29021	 	4.6669700000000005E39	 	3.17037E-40	 	4130.625	24.3606	 
25.0	1.0	0.0	7.75137	6.83851	-11.21942	 	17.38381	0.55887	1.78934	203.10358	161.19135	78.72247	0.29	 	2.5588299999999998E40	 	5.68696E-41	 	4009.341	 	 
