T (C)	Fraction solid (wt)-TOTAL	Fraction liquid (wt)-LIQUID	Density (g/(cm)^3)-TOTAL	Molar volume (cm^3)-TOTAL	Volume change (%)-  	Average expansion coeff. (10e-6 1/K)-  	Thermal conductivity (W/(m*K))-TOTAL	Electrical resistivity (10e-6 Ohm*m)-TOTAL	Electrical conductivity (10e6 1/(Ohm*m))-TOTAL	Young's modulus (GPa)-TOTAL	Bulk modulus (GPa)-TOTAL	Shear modulus(GPa)-TOTAL	Poisson's ratio-TOTAL	Liquid viscosity (mPa s)-  	Total viscosity (mPa s)-  	Liquid diffusivity (10e-9 (m^2)/s)-  	Total diffusivity (10e-9 (m^2)/s)-  	Surface Tension (mN/m)-  	Enthalpy (J/mole)-TOTAL	Specific heat (J/(mole K))-TOTAL	Latent heat (J/mole)-TOTAL
1500.0	0.0	1.0	6.86139	7.67273	0.0	29.64402	32.90213	1.75606	0.56946	0.0	98.48148	0.0	0.49976	5.74404	5.74404	1.50666	1.50666	1775.69373	64935.784	 	0.0
1495.0	0.0	1.0	6.86525	7.66842	-0.0561348	29.60087	32.82872	1.75502	0.56979	0.0	98.66179	0.0	0.49976	5.79135	5.79135	1.49014	1.49014	1777.72106	64718.088	43.5392	0.0
1490.0	0.0	1.0	6.86909	7.66413	-0.11211	29.55781	32.75531	1.75398	0.57013	0.0	98.84211	0.0	0.49976	5.83931	5.83931	1.47372	1.47372	1779.7462	64500.952	43.4272	0.0
1485.0	0.0	1.0	6.87294	7.65985	-0.16794	29.51487	32.6819	1.75294	0.57047	0.0	99.02242	0.0	0.49976	5.88795	5.88795	1.4574	1.4574	1781.76912	64284.371	43.3162	0.0
1480.0	0.0	1.0	6.87677	7.65557	-0.2236	29.47204	32.60849	1.75189	0.57081	0.0	99.20273	0.0	0.49976	5.93727	5.93727	1.44118	1.44118	1783.7898	64068.343	43.2056	0.0
1475.0	0.0	1.0	6.8806	7.65132	-0.27911	29.42932	32.53508	1.75083	0.57116	0.0	99.38304	0.0	0.49976	5.98729	5.98729	1.42507	1.42507	1785.8082	63852.863	43.096	0.0
1470.0	0.0	1.0	6.88442	7.64707	-0.33447	29.3867	32.46166	1.74977	0.5715	0.0	99.56335	0.0	0.49976	6.03803	6.03803	1.40905	1.40905	1787.8243	63637.928	42.987	0.0
1465.0	0.0	1.0	6.88823	7.64283	-0.38967	29.34421	32.38825	1.74871	0.57185	0.0	99.74367	0.0	0.49976	6.08949	6.08949	1.39314	1.39314	1789.83805	63423.533	42.879	0.0
1460.0	0.0	1.0	6.89204	7.63861	-0.44471	29.30182	32.31484	1.74764	0.5722	0.0	99.92398	0.0	0.49976	6.14168	6.14168	1.37732	1.37732	1791.84943	63209.676	42.7714	0.0
1455.0	0.0	1.0	6.89584	7.6344	-0.4996	29.25955	32.24143	1.74657	0.57255	0.0	100.10429	0.0	0.49976	6.19464	6.19464	1.36161	1.36161	1793.8584	62996.352	42.6648	0.0
1450.0	0.0	1.0	6.89964	7.6302	-0.55433	29.21739	32.16802	1.74549	0.57291	0.0	100.2846	0.0	0.49976	6.24836	6.24836	1.346	1.346	1795.86493	62783.559	42.5586	0.0
1445.0	0.0	1.0	6.90343	7.62601	-0.60891	29.17536	32.0946	1.7444	0.57326	0.0	100.46491	0.0	0.49976	6.30286	6.30286	1.33049	1.33049	1797.86898	62571.296	42.4526	0.0
1440.0	0.0	1.0	6.90721	7.62184	-0.66332	29.13344	32.02119	1.74331	0.57362	0.0	100.64523	0.0	0.49976	6.35816	6.35816	1.31508	1.31508	1799.87053	62359.559	42.3474	0.0
1435.0	0.0	1.0	6.91099	7.61767	-0.71759	29.09164	31.94778	1.74222	0.57398	0.0	100.82554	0.0	0.49976	6.41427	6.41427	1.29977	1.29977	1801.86952	62148.344	42.243	0.0
1430.0	0.0	1.0	6.91475	7.61352	-0.7717	29.04996	31.87437	1.74112	0.57434	0.0	101.00585	0.0	0.49976	6.47122	6.47122	1.28456	1.28456	1803.86593	61937.648	42.1392	0.0
1425.0	0.0	1.0	6.91852	7.60938	-0.82565	29.0084	31.80096	1.74002	0.57471	0.0	101.18616	0.0	0.49976	6.529	6.529	1.26945	1.26945	1805.85972	61727.468	42.036	0.0
1420.0	0.0	1.0	6.92227	7.60525	-0.87944	28.96697	31.72754	1.73891	0.57507	0.0	101.36647	0.0	0.49976	6.58765	6.58765	1.25444	1.25444	1807.85086	61517.799	41.9338	0.0
1415.0	0.0	1.0	6.92602	7.60114	-0.93308	28.92566	31.65413	1.73779	0.57544	0.0	101.54679	0.0	0.49976	6.64718	6.64718	1.23954	1.23954	1809.83929	61308.639	41.832	0.0
1410.0	0.0	1.0	6.92976	7.59703	-0.98657	28.88448	31.58072	1.73667	0.57581	0.0	101.7271	0.0	0.49976	6.70761	6.70761	1.22473	1.22473	1811.82499	61099.984	41.731	0.0
1405.0	0.0	1.0	6.93349	7.59294	-1.03989	28.84342	31.50731	1.73555	0.57619	0.0	101.90741	0.0	0.49976	6.76895	6.76895	1.21003	1.21003	1813.80792	60891.83	41.6308	0.0
1400.0	0.0	1.0	6.93722	7.58886	-1.09307	28.8025	31.4339	1.73442	0.57656	0.0	102.08772	0.0	0.49976	6.83122	6.83122	1.19543	1.19543	1815.78803	60684.172	41.5316	0.0
1395.0	0.0	1.0	6.94094	7.5848	-1.14608	28.7617	31.36049	1.73329	0.57694	0.0	102.26803	0.0	0.49976	6.89444	6.89444	1.18093	1.18093	1817.76529	60477.009	41.4326	0.0
1390.77	0.0	1.0	6.94408	7.58136	-1.19081	28.72729	31.29838	1.73232	0.57726	0.0	102.42056	0.0	0.49976	6.94868	6.94868	1.16874	1.16874	1819.43564	60302.15	41.3414	0.0
1390.0	0.00787	0.99213	6.94582	7.57941	-1.21628	28.67314	31.30589	1.7311	0.57767	1.90787E-7	102.09744	6.36563E-8	0.49857	6.94915	7.0195	1.16812	1.15641	1819.4724	60198.07	135.104	72.263
1385.0	0.0564101	0.94359	6.95637	7.56794	-1.36583	28.36395	31.35111	1.72341	0.58024	5.10805E-4	100.12965	1.71266E-4	0.49126	6.95358	7.52172	1.16386	1.07595	1819.72367	59546.501	130.314	517.649
1380.0	0.10088	0.89912	6.96632	7.55717	-1.50613	28.07818	31.38825	1.71618	0.58269	0.00529424	98.36298	0.00178315	0.48452	6.95785	8.44781	1.15964	0.95511	1820.00961	58933.704	122.559	924.745
1375.0	0.14175	0.85825	6.97562	7.54711	-1.63726	27.81593	31.41789	1.70938	0.58501	0.0209048	96.77396	0.00707055	0.4783	6.96247	10.54261	1.15537	0.76302	1820.3264	58355.12	115.717	1298.109
1372.19	0.1634	0.8366	6.98062	7.54184	-1.70589	27.68187	31.43219	1.70568	0.58628	0.0371819	95.94897	0.0126041	0.47499	6.96514	12.58136	1.15296	0.63828	1820.51308	58042.622	 	1495.472
1372.19	0.1634	0.8366	6.98062	7.54184	-1.7059	27.68185	31.43219	1.70568	0.58628	0.037182	95.94897	0.0126041	0.47499	6.96514	12.58136	1.15296	0.63828	1820.51309	58042.621	 	1495.473
1370.0	0.19083	0.80917	6.98672	7.53522	-1.79226	27.4848	31.46512	1.70163	0.58767	0.0453548	95.62029	0.0154138	0.47124	6.96119	17.02079	1.15207	0.47118	1820.491	57662.285	138.567	1786.205
1365.0	0.24919	0.75081	6.9999	7.52107	-1.97656	27.06876	31.53138	1.69289	0.59071	0.0726702	95.07438	0.0248328	0.46319	6.95181	36.69436	1.15012	0.21789	1820.48145	56842.411	163.975	2401.813
1360.0	0.30187	0.69813	7.01201	7.5084	-2.14179	26.70347	31.58616	1.68479	0.59354	0.1272	94.71139	0.0436858	0.45587	6.94237	74.67583	1.14817	0.10674	1820.515	56086.396	151.203	2954.036
1355.0	0.34958	0.65042	7.02329	7.49672	-2.29393	26.37254	31.62995	1.67731	0.59619	0.23092	94.46746	0.0796748	0.44917	6.93234	136.60788	1.14631	0.0581708	1820.59806	55386.298	140.02	3450.811
1350.0	0.39291	0.60709	7.03378	7.48604	-2.43321	26.07572	31.66415	1.67035	0.59868	0.40372	94.31208	0.13989	0.44303	6.92201	227.28841	1.14449	0.0348552	1820.72466	54735.422	130.175	3898.83
1345.0	0.43234	0.56766	7.04359	7.47622	-2.56116	25.80899	31.6897	1.66387	0.60101	0.6608	94.22629	0.22986	0.43739	6.91146	350.77918	1.14271	0.022515	1820.89298	54128.059	121.473	4303.8
1340.0	0.46831	0.53169	7.05276	7.46722	-2.67852	25.57061	31.70765	1.65779	0.60321	1.01211	94.19833	0.35334	0.4322	6.90068	510.36658	1.14096	0.0154269	1821.09921	53559.354	113.741	4670.573
1335.0	0.5012	0.4988	7.06138	7.45891	-2.78678	25.3566	31.71863	1.65208	0.6053	1.46295	94.21889	0.51244	0.42742	6.88982	708.83332	1.13921	0.0110731	1821.34232	53025.113	106.848	5003.342
1330.0	0.53131	0.46869	7.0695	7.45122	-2.88701	25.16414	31.72322	1.6467	0.60727	2.01501	94.28042	0.70801	0.42301	6.87894	948.63998	1.13747	0.0082482	1821.62056	52521.728	100.677	5305.708
1325.0	0.55892	0.44108	7.07721	7.44401	-2.98098	24.98839	31.72191	1.64163	0.60915	2.66677	94.377	0.93972	0.41892	6.86779	1231.79012	1.13576	0.00633239	1821.93643	52046.07	95.1316	5580.799
1320.0	0.58428	0.41572	7.08447	7.43734	-3.06788	24.83184	31.71536	1.63683	0.61094	3.41437	94.5046	1.20638	0.41513	6.85715	1560.33348	1.13396	0.0049834	1822.28181	51595.416	90.1308	5831.336
1315.0	0.60758	0.39242	7.09139	7.43113	-3.1488	24.69156	31.70418	1.63227	0.61264	4.25299	94.66007	1.50642	0.41162	6.84654	1936.10297	1.13216	0.00400359	1822.65719	51167.361	85.611	6059.721
1310.0	0.62902	0.37098	7.09795	7.42533	-3.22443	24.56571	31.68854	1.62794	0.61427	5.17619	94.83907	1.83766	0.40837	6.83669	2360.91386	1.13022	0.00327287	1823.06132	50759.793	81.5136	6268.063
1305.0	0.64877	0.35123	7.10423	7.41987	-3.29562	24.45197	31.66893	1.6238	0.61584	6.17762	95.03909	2.19791	0.40534	6.82716	2836.8413	1.12822	0.00271519	1823.4949	50370.836	77.7914	6458.236
1300.0	0.66697	0.33303	7.1102	7.4148	-3.36168	24.35251	31.64581	1.61984	0.61735	7.24953	95.25837	2.58447	0.40252	6.81876	3365.88145	1.12603	0.00228117	1823.95006	49998.818	74.4036	6631.91
1295.0	0.68376	0.31624	7.11595	7.40995	-3.42485	24.26083	31.61919	1.61605	0.61879	8.38524	95.49332	2.99496	0.39989	6.81096	3950.27328	1.12374	0.00193752	1824.43658	49642.225	71.3186	6790.594
1290.0	0.69926	0.30074	7.12144	7.40543	-3.48378	24.18107	31.58969	1.6124	0.62019	9.57766	95.7434	3.42684	0.39745	6.80458	4592.85796	1.12121	0.00166113	1824.9427	49299.697	68.5056	6935.647
1285.0	0.7136	0.2864	7.12675	7.40113	-3.53987	24.10916	31.55735	1.60889	0.62155	10.81983	96.00646	3.87763	0.39516	6.79936	5296.37463	1.11848	0.00143588	1825.47453	48969.996	65.9402	7068.305
1280.0	0.72685	0.27315	7.13184	7.39706	-3.59288	24.04596	31.52261	1.6055	0.62286	12.10481	96.28081	4.34479	0.39303	6.7956	6064.13565	1.11551	0.00125006	1826.027	48651.992	63.6008	7189.694
1276.44	0.73421	0.26579	7.13491	7.39404	-3.63221	23.99577	31.49644	1.60315	0.62377	12.88692	96.4796	4.62954	0.39181	6.79396	6596.48591	1.11322	0.00114655	1826.43256	48446.199	 	7255.926
1275.0	0.7604	0.2396	7.14045	7.38848	-3.70474	23.80472	31.48481	1.60225	0.62412	15.95097	96.81084	5.74974	0.3871	6.8181	7789.69198	1.10825	9.70017E-4	1825.38257	48021.219	126.155	7624.278
1270.0	0.82818	0.17182	7.15542	7.37348	-3.90013	23.30857	31.44027	1.59934	0.62526	27.77441	97.77589	10.10107	0.37483	6.90812	11881.20489	1.09027	6.3392E-4	1821.94122	46878.546	228.535	8571.188
1269.38	0.83411	0.16589	7.15684	7.37206	-3.91871	23.26394	31.43429	1.59899	0.62539	29.16882	97.87388	10.61658	0.37374	6.91928	12340.22843	1.08807	6.10093E-4	1821.52535	46771.66	 	8653.693
1265.0	0.88298	0.11702	7.17003	7.35884	-4.09098	22.82222	31.39041	1.59669	0.6263	43.56981	98.65063	15.96152	0.36484	7.03514	16551.7432	1.06712	4.53567E-4	1821.92632	45905.495	194.61	9348.894
1260.0	0.91645	0.0835515	7.18005	7.34877	-4.22222	22.51393	31.33801	1.59416	0.62729	56.72776	99.34093	20.87684	0.35863	7.1771	20603.12171	1.04261	3.63194E-4	1822.09339	45241.161	132.867	9818.304
1255.0	0.93737	0.0626294	7.18728	7.34148	-4.31731	22.31394	31.2845	1.59168	0.62827	66.19151	99.9164	24.43119	0.35465	7.32755	24136.65667	1.01787	3.09012E-4	1822.02493	44757.851	96.662	10107.105
1250.0	0.9514	0.0486046	7.19298	7.33566	-4.39313	22.17164	31.23024	1.58922	0.62924	72.94951	100.42658	26.98026	0.35191	7.4853	27393.45695	0.99316	2.71383E-4	1821.77258	44373.426	76.885	10297.437
1245.0	0.96128	0.0387162	7.19778	7.3307	-4.45779	22.06269	31.17571	1.58678	0.63021	77.89793	100.89613	28.85327	0.3499	7.64976	30526.24798	0.96862	2.42733E-4	1821.38067	44047.901	65.105	10429.281
1240.0	0.96856	0.0314422	7.20202	7.32628	-4.51538	21.97476	31.12102	1.58433	0.63118	81.66001	101.33915	30.28126	0.34836	7.81976	33639.17048	0.94444	2.19545E-4	1820.87076	43759.731	57.634	10524.182
1235.0	0.9741	0.0259014	7.2059	7.32222	-4.56833	21.90054	31.0662	1.58188	0.63216	84.63054	101.76382	31.41139	0.34713	7.99623	36805.30205	0.92055	1.99996E-4	1820.26329	43496.504	52.6454	10594.555
1230.0	0.97843	0.0215693	7.20954	7.3184	-4.61809	21.83573	31.01133	1.57943	0.63314	87.05276	102.17529	32.33467	0.34612	8.17838	40077.18328	0.89706	1.83059E-4	1819.57244	43250.682	49.1644	10647.932
1225.0	0.98189	0.0181062	7.213	7.31475	-4.66564	21.77731	30.95641	1.57697	0.63413	89.08398	102.57683	33.11014	0.34527	8.3655	43496.77792	0.87408	1.68107E-4	1818.81756	43017.429	46.6506	10689.149
1220.0	0.98471	0.0152872	7.21633	7.31123	-4.71154	21.72359	30.90147	1.5745	0.63512	90.82841	102.97069	33.77703	0.34453	8.55831	47100.10966	0.85153	1.54728E-4	1818.00538	42793.517	44.7824	10721.431
1215.0	0.98704	0.012956	7.21958	7.3078	-4.75622	21.6733	30.84651	1.57202	0.63612	92.3582	103.35842	34.36255	0.34388	8.75639	50920.26297	0.82948	1.4264E-4	1817.14825	42576.725	43.3584	10746.998
1210.0	0.989	0.0110009	7.22275	7.30445	-4.7999	21.62575	30.79156	1.56954	0.63713	93.72261	103.74128	34.88531	0.3433	8.95975	54988.08685	0.80793	1.31645E-4	1816.24745	42365.48	42.249	10767.419
1205.0	0.99066	0.00934131	7.22587	7.30115	-4.84286	21.58011	30.73659	1.56704	0.63815	94.95872	104.12004	35.35934	0.34277	9.16832	59335.04864	0.78689	1.21589E-4	1815.31636	42158.64	41.368	10783.834
1200.0	0.99208	0.00791912	7.22894	7.2979	-4.8852	21.53606	30.68164	1.56454	0.63917	96.09253	104.49532	35.79451	0.34228	9.3826	63992.64841	0.76632	1.12358E-4	1814.35249	41955.361	40.6558	10797.086
1199.52	0.99221	0.00779454	7.22924	7.29759	-4.88923	21.53191	30.67638	1.5643	0.63926	96.19581	104.53103	35.83417	0.34224	9.40305	64455.00671	0.76441	1.11516E-4	1814.26331	41936.102	 	10798.198
1199.52	0.99221	0.00779454	7.22924	7.29759	-4.88923	21.53191	30.67638	1.5643	0.63926	96.19581	104.53103	35.83417	0.34224	9.40305	64455.00671	0.76441	1.11516E-4	1814.26332	41936.103	 	10798.198
1195.0	0.99353	0.00647076	7.23208	7.2946	-4.9282	21.48952	30.62606	1.56206	0.64018	97.26184	104.87448	36.24396	0.34177	9.59293	69053.68265	0.74697	1.0377E-4	1812.66257	41749.638	41.1446	10813.178
1190.0	0.99478	0.00521947	7.2352	7.29133	-4.97081	21.44383	30.5706	1.55956	0.64121	98.34644	105.25033	36.66119	0.34129	9.80761	74490.0903	0.72814	9.58687E-5	1810.8913	41547.017	40.5242	10826.56
1185.0	0.99585	0.00414769	7.23829	7.2881	-5.01298	21.3992	30.51531	1.55705	0.64224	99.35142	105.62263	37.04804	0.34085	10.02798	80334.09501	0.7097	8.85909E-5	1809.10753	41347.449	39.9136	10837.281
1180.0	0.99678	0.00322017	7.24135	7.28489	-5.05475	21.35548	30.46014	1.55452	0.64329	100.29245	105.99202	37.41051	0.34043	10.25369	86627.61979	0.6917	8.1873E-5	1807.32099	41150.383	39.4132	10845.889
1175.0	0.99759	0.00241098	7.24439	7.28171	-5.09619	21.31247	30.40505	1.55198	0.64434	101.18097	106.35877	37.75294	0.34004	10.48465	93415.17853	0.67413	7.56629E-5	1805.53188	40955.401	38.9964	10852.8
1170.0	0.9983	0.00169937	7.24742	7.27856	-5.13732	21.27007	30.34997	1.54943	0.6454	102.02677	106.72323	38.07908	0.33967	10.72148	100745.3561	0.65697	6.99154E-5	1803.74191	40762.181	38.644	10858.336
1165.0	0.99893	0.0010677	7.25043	7.27542	-5.17821	21.22813	30.29495	1.54686	0.64647	102.83689	107.08558	38.39162	0.33931	10.96434	108670.1609	0.64019	6.45923E-5	1801.95031	40570.468	38.3426	10862.745
1160.0	0.9995	5.04565E-4	7.25343	7.2723	-5.21883	21.18669	30.24005	1.54428	0.64755	103.61657	107.44608	38.69257	0.33897	11.21285	117245.7736	0.62382	5.96597E-5	1800.15966	40380.063	38.081	10866.229
1155.0	1.0	0.0	7.25641	7.2692	-5.25926	21.14555	30.18523	1.54169	0.64864	104.37093	107.80476	38.98388	0.33864	 	126534.4209	 	5.50873E-5	 	40190.805	37.8516	10868.946
1150.0	1.0	0.0	7.25885	7.26676	-5.29103	21.13302	30.12855	1.53918	0.6497	104.84964	108.15407	39.16902	0.33843	 	136346.5833	 	5.0944E-5	 	39974.547	43.2516	 
1145.0	1.0	0.0	7.26128	7.26433	-5.32277	21.12052	30.07187	1.53667	0.65076	105.3283	108.5024	39.35421	0.33821	 	146998.2347	 	4.70865E-5	 	39793.566	36.1962	 
1140.0	1.0	0.0	7.26371	7.2619	-5.35447	21.10803	30.01518	1.53414	0.65183	105.80692	108.84975	39.53943	0.33799	 	158567.7045	 	4.34971E-5	 	39612.797	36.1538	 
1135.0	1.0	0.0	7.26614	7.25947	-5.38613	21.09556	29.9585	1.5316	0.65291	106.28547	109.19611	39.72469	0.33778	 	171141.2228	 	4.01588E-5	 	39432.253	36.1088	 
1130.0	1.0	0.0	7.26857	7.25704	-5.41776	21.08311	29.90182	1.52906	0.654	106.76395	109.54149	39.90999	0.33756	 	184813.7769	 	3.70558E-5	 	39251.942	36.0622	 
1125.0	1.0	0.0	7.271	7.25462	-5.44934	21.07067	29.84513	1.5265	0.65509	107.24236	109.88586	40.09531	0.33734	 	199690.0651	 	3.41731E-5	 	39071.87	36.0144	 
1120.0	1.0	0.0	7.27343	7.2522	-5.48089	21.05826	29.78845	1.52394	0.65619	107.72068	110.22924	40.28067	0.33713	 	215885.5629	 	3.14964E-5	 	38892.036	35.9668	 
1115.0	1.0	0.0	7.27585	7.24978	-5.51239	21.04586	29.73177	1.52137	0.6573	108.19891	110.57161	40.46605	0.33691	 	233527.7136	 	2.90125E-5	 	38712.439	35.9194	 
1110.0	1.0	0.0	7.27828	7.24737	-5.54386	21.03349	29.67508	1.51878	0.65842	108.67703	110.91298	40.65145	0.33669	 	252757.2588	 	2.67087E-5	 	38533.079	35.872	 
1105.0	1.0	0.0	7.2807	7.24495	-5.5753	21.02113	29.6184	1.51619	0.65955	109.15505	111.25334	40.83687	0.33648	 	273729.7275	 	2.45732E-5	 	38353.956	35.8246	 
1100.0	1.0	0.0	7.28312	7.24255	-5.60669	21.00879	29.56171	1.51358	0.66068	109.63296	111.59268	41.02231	0.33626	 	296617.103	 	2.25948E-5	 	38175.067	35.7778	 
1095.0	1.0	0.0	7.28554	7.24014	-5.63804	20.99647	29.50503	1.51097	0.66183	110.11074	111.93101	41.20776	0.33604	 	321609.6895	 	2.07631E-5	 	37996.412	35.731	 
1090.0	1.0	0.0	7.28796	7.23774	-5.66936	20.98417	29.44835	1.50834	0.66298	110.58839	112.26831	41.39322	0.33583	 	348918.2058	 	1.90681E-5	 	37817.99	35.6844	 
1085.0	1.0	0.0	7.29038	7.23534	-5.70064	20.97188	29.39166	1.50571	0.66414	111.0659	112.60459	41.57869	0.33561	 	378776.1336	 	1.75006E-5	 	37639.8	35.638	 
1080.0	1.0	0.0	7.29279	7.23294	-5.73188	20.95962	29.33498	1.50307	0.66531	111.54327	112.93984	41.76417	0.33539	 	411442.3533	 	1.60518E-5	 	37461.842	35.5916	 
1075.0	1.0	0.0	7.29521	7.23055	-5.76309	20.94737	29.27829	1.50041	0.66648	112.02049	113.27407	41.94965	0.33518	 	447204.1069	 	1.47136E-5	 	37284.114	35.5456	 
1070.0	1.0	0.0	7.29762	7.22815	-5.79425	20.93514	29.22161	1.49775	0.66767	112.49754	113.60725	42.13513	0.33496	 	486380.3274	 	1.34783E-5	 	37106.615	35.4998	 
1065.0	1.0	0.0	7.30003	7.22577	-5.82538	20.92294	29.16493	1.49507	0.66886	112.97444	113.9394	42.32061	0.33474	 	529325.3871	 	1.23387E-5	 	36929.344	35.4542	 
1060.0	1.0	0.0	7.30244	7.22338	-5.85647	20.91075	29.10824	1.49238	0.67007	113.45115	114.27052	42.50608	0.33453	 	576433.3165	 	1.1288E-5	 	36752.3	35.4088	 
1055.0	1.0	0.0	7.30485	7.221	-5.88753	20.89857	29.05156	1.48969	0.67128	113.92769	114.60058	42.69155	0.33431	 	628142.5603	 	1.03199E-5	 	36575.482	35.3636	 
1050.0	1.0	0.0	7.30726	7.21862	-5.91854	20.88642	28.99488	1.48698	0.6725	114.40404	114.92961	42.87701	0.3341	 	684941.34	 	9.4285E-6	 	36398.89	35.3184	 
1045.0	1.0	0.0	7.30967	7.21624	-5.94952	20.87429	28.9382	1.48426	0.67373	114.8802	115.25758	43.06245	0.33388	 	747373.7073	 	8.60823E-6	 	36222.521	35.2738	 
1040.0	1.0	0.0	7.31208	7.21387	-5.98046	20.86217	28.88152	1.48154	0.67498	115.35616	115.58451	43.24788	0.33366	 	816046.3819	 	7.85392E-6	 	36046.375	35.2292	 
1035.0	1.0	0.0	7.31448	7.2115	-6.01137	20.85007	28.82484	1.4788	0.67623	115.83191	115.91038	43.43329	0.33345	 	891636.4814	 	7.16072E-6	 	35870.45	35.185	 
1030.0	1.0	0.0	7.31688	7.20913	-6.04224	20.83799	28.76816	1.47605	0.67749	116.30745	116.23519	43.61868	0.33323	 	974900.2668	 	6.5241E-6	 	35694.746	35.1408	 
1025.0	1.0	0.0	7.31928	7.20676	-6.07307	20.82593	28.71148	1.47329	0.67875	116.78277	116.55895	43.80405	0.33301	 	1066683.046	 	5.93986E-6	 	35519.261	35.097	 
1020.0	1.0	0.0	7.32168	7.2044	-6.10386	20.81389	28.6548	1.47051	0.68003	117.25786	116.88165	43.9894	0.3328	 	1167930.396	 	5.40404E-6	 	35343.993	35.0536	 
1015.0	1.0	0.0	7.32408	7.20204	-6.13462	20.80187	28.59813	1.46773	0.68132	117.73272	117.20328	44.17471	0.33258	 	1279700.895	 	4.91298E-6	 	35168.943	35.01	 
1010.0	1.0	0.0	7.32648	7.19968	-6.16534	20.78987	28.54145	1.46494	0.68262	118.20734	117.52385	44.36	0.33236	 	1403180.568	 	4.46324E-6	 	34994.108	34.967	 
1005.0	1.0	0.0	7.32888	7.19733	-6.19602	20.77788	28.48478	1.46213	0.68393	118.68171	117.84335	44.54525	0.33215	 	1539699.31	 	4.05166E-6	 	34819.486	34.9244	 
1000.0	1.0	0.0	7.33127	7.19498	-6.22667	20.76591	28.42811	1.45932	0.68525	119.15583	118.16178	44.73047	0.33193	 	1690749.553	 	3.67525E-6	 	34645.078	34.8816	 
995.0	1.0	0.0	7.33367	7.19263	-6.25728	20.75397	28.37145	1.45649	0.68658	119.62969	118.47914	44.91566	0.33171	 	1858007.513	 	3.33127E-6	 	34470.88	34.8396	 
990.0	1.0	0.0	7.33606	7.19028	-6.28785	20.74204	28.31478	1.45365	0.68792	120.10329	118.79543	45.1008	0.3315	 	2043357.402	 	3.01715E-6	 	34296.893	34.7974	 
985.0	1.0	0.0	7.33845	7.18794	-6.31839	20.73013	28.25812	1.4508	0.68928	120.57662	119.11065	45.2859	0.33128	 	2248919.018	 	2.73052E-6	 	34123.113	34.756	 
980.0	1.0	0.0	7.34084	7.1856	-6.34889	20.71823	28.20146	1.44794	0.69064	121.04967	119.42478	45.47096	0.33107	 	2477079.248	 	2.46916E-6	 	33949.541	34.7144	 
975.0	1.0	0.0	7.34323	7.18326	-6.37936	20.70636	28.14481	1.44506	0.69201	121.52244	119.73784	45.65597	0.33085	 	2730528.04	 	2.23104E-6	 	33776.173	34.6736	 
970.0	1.0	0.0	7.34562	7.18093	-6.40979	20.6945	28.08816	1.44218	0.6934	121.99492	120.04981	45.84094	0.33063	 	3012299.536	 	2.01424E-6	 	33603.009	34.6328	 
965.0	1.0	0.0	7.348	7.17859	-6.44018	20.68267	28.03151	1.43928	0.69479	122.4671	120.36071	46.02585	0.33042	 	3325819.14	 	1.81703E-6	 	33430.048	34.5922	 
960.0	1.0	0.0	7.35039	7.17626	-6.47054	20.67085	27.97487	1.43637	0.6962	122.93899	120.67052	46.21071	0.3302	 	3674957.439	 	1.63776E-6	 	33257.286	34.5524	 
955.0	1.0	0.0	7.35277	7.17394	-6.50086	20.65905	27.91823	1.43345	0.69762	123.41056	120.97924	46.39551	0.32998	 	4064092.018	 	1.47494E-6	 	33084.723	34.5126	 
950.0	1.0	0.0	7.35515	7.17161	-6.53114	20.64727	27.8616	1.43051	0.69905	123.88182	121.28688	46.58026	0.32977	 	4498178.412	 	1.32718E-6	 	32912.356	34.4734	 
945.0	1.0	0.0	7.35754	7.16929	-6.56139	20.63551	27.80498	1.42757	0.70049	124.35277	121.59342	46.76494	0.32955	 	4982831.606	 	1.19319E-6	 	32740.184	34.4344	 
940.0	1.0	0.0	7.35992	7.16698	-6.5916	20.62376	27.74836	1.42461	0.70195	124.82339	121.89888	46.94957	0.32933	 	5524419.768	 	1.0718E-6	 	32568.205	34.3958	 
935.0	1.0	0.0	7.36229	7.16466	-6.62178	20.61204	27.69175	1.42164	0.70342	125.29368	122.20324	47.13413	0.32912	 	6130172.13	 	9.61911E-7	 	32396.417	34.3576	 
930.0	1.0	0.0	7.36467	7.16235	-6.65192	20.60033	27.63515	1.41865	0.70489	125.76363	122.50651	47.31862	0.3289	 	6808303.303	 	8.62517E-7	 	32224.818	34.3198	 
925.0	1.0	0.0	7.36705	7.16004	-6.68203	20.58865	27.57855	1.41566	0.70639	126.23324	122.80869	47.50305	0.32869	 	7568156.667	 	7.72694E-7	 	32053.405	34.2826	 
920.0	1.0	0.0	7.36942	7.15773	-6.7121	20.57698	27.52197	1.41265	0.70789	126.70251	123.10976	47.6874	0.32847	 	8420369.936	 	6.91593E-7	 	31882.176	34.2458	 
915.0	1.0	0.0	7.3718	7.15543	-6.74214	20.56533	27.46539	1.40962	0.70941	127.17142	123.40974	47.87168	0.32825	 	9377066.52	 	6.18431E-7	 	31711.13	34.2092	 
910.0	1.0	0.0	7.37417	7.15312	-6.77214	20.5537	27.40883	1.40659	0.71094	127.63997	123.70863	48.05588	0.32804	 	1.045207696E7	 	5.52489E-7	 	31540.264	34.1732	 
905.0	1.0	0.0	7.37654	7.15082	-6.80211	20.54208	27.35228	1.40354	0.71248	128.10815	124.00641	48.24001	0.32782	 	1.166119539E7	 	4.9311E-7	 	31369.574	34.138	 
900.0	1.0	0.0	7.37891	7.14853	-6.83204	20.53049	27.29574	1.40048	0.71404	128.57597	124.30309	48.42406	0.3276	 	1.302247701E7	 	4.3969E-7	 	31199.06	34.1028	 
895.0	1.0	0.0	7.38128	7.14623	-6.86193	20.51891	27.23921	1.3974	0.71561	129.04341	124.59866	48.60803	0.32739	 	1.455658331E7	 	3.91675E-7	 	31028.717	34.0686	 
890.0	1.0	0.0	7.38364	7.14394	-6.89179	20.50736	27.1827	1.39432	0.7172	129.51047	124.89313	48.79191	0.32717	 	1.628718332E7	 	3.48559E-7	 	30858.544	34.0346	 
885.0	1.0	0.0	7.38601	7.14165	-6.92162	20.49582	27.1262	1.39121	0.7188	129.97714	125.1865	48.9757	0.32696	 	1.824142051E7	 	3.0988E-7	 	30688.536	34.0016	 
880.0	1.0	0.0	7.38838	7.13937	-6.95141	20.4843	27.06972	1.3881	0.72041	130.44342	125.47876	49.15941	0.32674	 	2.045045657E7	 	2.75213E-7	 	30518.693	33.9686	 
875.0	1.0	0.0	7.39074	7.13709	-6.98116	20.4728	27.01325	1.38497	0.72204	130.9093	125.76991	49.34303	0.32652	 	2.295010557E7	 	2.44175E-7	 	30349.009	33.9368	 
870.0	1.0	0.0	7.3931	7.1348	-7.01089	20.46131	26.9568	1.38182	0.72368	131.37478	126.05996	49.52655	0.32631	 	2.578157434E7	 	2.16412E-7	 	30179.482	33.9054	 
865.0	1.0	0.0	7.39546	7.13253	-7.04057	20.44985	26.90037	1.37867	0.72534	131.83985	126.34889	49.70999	0.32609	 	2.899232798E7	 	1.91603E-7	 	30010.108	33.8748	 
860.0	1.0	0.0	7.39782	7.13025	-7.07022	20.4384	26.84396	1.37549	0.72701	132.30451	126.63672	49.89332	0.32587	 	3.263710267E7	 	1.69458E-7	 	29840.884	33.8448	 
855.0	1.0	0.0	7.40018	7.12798	-7.09984	20.42698	26.78757	1.37231	0.7287	132.76874	126.92343	50.07656	0.32566	 	3.677909253E7	 	1.49711E-7	 	29671.806	33.8156	 
850.0	1.0	0.0	7.40254	7.12571	-7.12943	20.41557	26.7312	1.36911	0.7304	133.23255	127.20903	50.25969	0.32544	 	4.149134192E7	 	1.3212E-7	 	29502.87	33.7872	 
845.0	1.0	0.0	7.40489	7.12344	-7.15897	20.40418	26.67485	1.36589	0.73212	133.69593	127.49351	50.44272	0.32523	 	4.685838101E7	 	1.16466E-7	 	29334.071	33.7598	 
840.0	1.0	0.0	7.40725	7.12118	-7.18849	20.39281	26.61852	1.36266	0.73386	134.15888	127.77688	50.62565	0.32501	 	5.297814929E7	 	1.02552E-7	 	29165.406	33.733	 
835.0	1.0	0.0	7.4096	7.11892	-7.21797	20.38146	26.56222	1.35941	0.73561	134.62138	128.05914	50.80847	0.32479	 	5.99642609E7	 	9.01971E-8	 	28996.869	33.7074	 
830.0	1.0	0.0	7.41195	7.11666	-7.24742	20.37012	26.50594	1.35615	0.73738	135.08343	128.34027	50.99118	0.32458	 	6.79486757E7	 	7.92392E-8	 	28828.456	33.6826	 
825.0	1.0	0.0	7.41431	7.1144	-7.27683	20.35881	26.44968	1.35288	0.73916	135.54503	128.62029	51.17378	0.32436	 	7.708485308E7	 	6.95311E-8	 	28660.161	33.659	 
820.0	1.0	0.0	7.41666	7.11215	-7.30621	20.34751	26.39345	1.34959	0.74097	136.00617	128.89919	51.35626	0.32414	 	8.755148057E7	 	6.09401E-8	 	28491.979	33.6364	 
815.0	1.0	0.0	7.419	7.10989	-7.33555	20.33623	26.33725	1.34628	0.74279	136.46685	129.17696	51.53863	0.32393	 	9.95568881E7	 	5.33463E-8	 	28323.905	33.6148	 
810.0	1.0	0.0	7.42135	7.10765	-7.36486	20.32498	26.28108	1.34296	0.74462	136.92706	129.45362	51.72088	0.32371	 	1.133442809E8	 	4.66418E-8	 	28155.93	33.595	 
805.0	1.0	0.0	7.4237	7.1054	-7.39414	20.31374	26.22493	1.33962	0.74648	137.38679	129.72915	51.90301	0.3235	 	1.291979517E8	 	4.07296E-8	 	27988.05	33.576	 
800.0	1.0	0.0	7.42604	7.10316	-7.42338	20.30251	26.16881	1.33627	0.74835	137.84604	130.00356	52.08502	0.32328	 	1.474506655E8	 	3.55222E-8	 	27820.257	33.5586	 
795.0	1.0	0.0	7.42839	7.10091	-7.45259	20.29131	26.11272	1.3329	0.75024	138.30481	130.27684	52.26691	0.32306	 	1.68492451E8	 	3.09413E-8	 	27652.544	33.5426	 
790.0	1.0	0.0	7.43073	7.09868	-7.48177	20.28013	26.05666	1.32952	0.75215	138.76308	130.549	52.44866	0.32285	 	1.927810815E8	 	2.69164E-8	 	27484.902	33.5284	 
785.0	1.0	0.0	7.43307	7.09644	-7.51091	20.26896	26.00062	1.32611	0.75408	139.22086	130.82003	52.63029	0.32263	 	2.208545883E8	 	2.33845E-8	 	27317.322	33.516	 
780.0	1.0	0.0	7.43541	7.09421	-7.54002	20.25781	25.94462	1.3227	0.75603	139.67814	131.08993	52.81179	0.32241	 	2.53346222E8	 	2.02891E-8	 	27149.797	33.505	 
775.0	1.0	0.0	7.43775	7.09197	-7.5691	20.24668	25.88865	1.31926	0.758	140.13491	131.35871	52.99316	0.3222	 	2.910023691E8	 	1.75798E-8	 	26982.314	33.4966	 
770.0	1.0	0.0	7.44009	7.08975	-7.59814	20.23557	25.8327	1.31581	0.75999	140.59117	131.62635	53.17439	0.32198	 	3.347040382E8	 	1.52115E-8	 	26814.865	33.4898	 
765.0	1.0	0.0	7.44242	7.08752	-7.62715	20.22448	25.77678	1.31235	0.76199	141.04691	131.89287	53.35548	0.32177	 	3.854926673E8	 	1.31441E-8	 	26647.436	33.4858	 
760.0	1.0	0.0	7.44476	7.0853	-7.65613	20.21341	25.72089	1.30887	0.76402	141.50213	132.15826	53.53644	0.32155	 	4.44601171E8	 	1.13417E-8	 	26480.017	33.4838	 
755.0	1.0	0.0	7.44709	7.08308	-7.68508	20.20236	25.66503	1.30537	0.76607	141.95681	132.42251	53.71725	0.32133	 	5.134913468E8	 	9.7726E-9	 	26312.592	33.485	 
750.0	1.0	0.0	7.44943	7.08086	-7.71399	20.19132	25.6092	1.30185	0.76814	142.41097	132.68563	53.89793	0.32112	 	5.9389902E8	 	8.4084E-9	 	26145.148	33.4888	 
745.0	1.0	0.0	7.45176	7.07864	-7.74287	20.1803	25.55339	1.29832	0.77023	142.86459	132.94762	54.07846	0.3209	 	6.878886119E8	 	7.22404E-9	 	25977.668	33.496	 
740.0	1.0	0.0	7.45409	7.07643	-7.77171	20.16931	25.49761	1.29477	0.77234	143.31766	133.20848	54.25884	0.32069	 	7.979192103E8	 	6.19729E-9	 	25810.135	33.5066	 
735.0	1.0	0.0	7.45642	7.07422	-7.80052	20.15833	25.44185	1.2912	0.77447	143.77019	133.46821	54.43907	0.32047	 	9.26924698E8	 	5.30845E-9	 	25642.529	33.5212	 
730.0	1.0	0.0	7.45875	7.07201	-7.8293	20.14736	25.38612	1.28762	0.77663	144.22216	133.72679	54.61915	0.32025	 	1.078411097E9	 	4.54013E-9	 	25474.831	33.5396	 
725.0	1.0	0.0	7.46107	7.0698	-7.85805	20.13642	25.3304	1.28402	0.7788	144.67357	133.98425	54.79908	0.32004	 	1.256575026E9	 	3.87698E-9	 	25307.017	33.5628	 
720.0	1.0	0.0	7.4634	7.0676	-7.88677	20.1255	25.27471	1.2804	0.781	145.12442	134.24057	54.97885	0.31982	 	1.466448113E9	 	3.30548E-9	 	25139.062	33.591	 
715.0	1.0	0.0	7.46573	7.0654	-7.91545	20.11459	25.21904	1.27677	0.78323	145.5747	134.49575	55.15847	0.3196	 	1.714073336E9	 	2.81372E-9	 	24970.939	33.6246	 
710.0	1.0	0.0	7.46805	7.0632	-7.9441	20.10371	25.16338	1.27312	0.78547	146.02441	134.74979	55.33793	0.31939	 	2.006720772E9	 	2.39122E-9	 	24802.616	33.6646	 
705.0	1.0	0.0	7.47037	7.06101	-7.97272	20.09284	25.10774	1.26945	0.78774	146.47354	135.0027	55.51722	0.31917	 	2.353152011E9	 	2.02881E-9	 	24634.062	33.7108	 
700.0	1.0	0.0	7.47269	7.05881	-8.00131	20.08199	25.05211	1.26577	0.79004	146.92208	135.25447	55.69636	0.31896	 	2.763944814E9	 	1.71845E-9	 	24465.237	33.765	 
695.0	1.0	0.0	7.47501	7.05662	-8.02986	20.07116	24.9965	1.26206	0.79235	147.37004	135.50511	55.87533	0.31874	 	3.251892512E9	 	1.45309E-9	 	24296.102	33.827	 
690.0	1.0	0.0	7.47733	7.05443	-8.05838	20.06035	24.94089	1.25835	0.79469	147.8174	135.7546	56.05413	0.31852	 	3.83249624E9	 	1.22659E-9	 	24126.61	33.8984	 
685.0	1.0	0.0	7.47965	7.05225	-8.08687	20.04955	24.88529	1.25461	0.79706	148.26417	136.00296	56.23276	0.31831	 	4.524572805E9	 	1.03358E-9	 	23952.029	34.9162	 
680.0	1.0	0.0	7.48197	7.05006	-8.11533	20.03878	24.82969	1.25086	0.79945	148.71033	136.25017	56.41123	0.31809	 	5.351006769E9	 	8.69386E-10	 	23777.951	34.8156	 
675.0	1.0	0.0	7.48428	7.04788	-8.14376	20.02802	24.77409	1.24709	0.80187	149.15588	136.49625	56.58952	0.31788	 	6.339682848E9	 	7.29955E-10	 	23604.626	34.665	 
670.0	1.0	0.0	7.4866	7.0457	-8.17215	20.01729	24.71849	1.2433	0.80431	149.60082	136.74118	56.76763	0.31766	 	7.52464416E9	 	6.11761E-10	 	23432.034	34.5184	 
665.0	1.0	0.0	7.48891	7.04353	-8.20052	20.00657	24.66288	1.2395	0.80678	150.04514	136.98498	56.94558	0.31744	 	8.947533984E9	 	5.11747E-10	 	23260.155	34.3758	 
660.0	1.0	0.0	7.49122	7.04135	-8.22885	19.99587	24.60727	1.23568	0.80927	150.48883	137.22763	57.12334	0.31723	 	1.06594E10	 	4.27273E-10	 	23088.97	34.237	 
655.0	1.0	0.0	7.49353	7.03918	-8.25715	19.98518	24.55164	1.23184	0.81179	150.9319	137.46914	57.30092	0.31701	 	1.2722899999999998E10	 	3.56056E-10	 	22918.461	34.1018	 
650.0	1.0	0.0	7.49584	7.03701	-8.28542	19.97452	24.496	1.22799	0.81434	151.37434	137.70951	57.47832	0.3168	 	1.5215199999999998E10	 	2.96128E-10	 	22748.613	33.9696	 
645.0	1.0	0.0	7.49815	7.03485	-8.31366	19.96388	24.44035	1.22412	0.81691	151.81614	137.94874	57.65553	0.31658	 	1.82315E10	 	2.45797E-10	 	22579.409	33.8408	 
640.0	1.0	0.0	7.50046	7.03268	-8.34186	19.95325	24.38467	1.22023	0.81952	152.25729	138.18683	57.83256	0.31636	 	2.18894E10	 	2.03608E-10	 	22410.834	33.715	 
635.0	1.0	0.0	7.50276	7.03052	-8.37004	19.94264	24.32897	1.21633	0.82215	152.6978	138.42377	58.00941	0.31615	 	2.6334399999999996E10	 	1.68314E-10	 	22242.874	33.592	 
630.0	1.0	0.0	7.50507	7.02836	-8.39818	19.93206	24.27325	1.21241	0.8248	153.13766	138.65957	58.18606	0.31593	 	3.1747399999999996E10	 	1.38848E-10	 	22075.514	33.472	 
625.0	1.0	0.0	7.50737	7.0262	-8.42629	19.92149	24.21749	1.20847	0.82749	153.57686	138.89423	58.36252	0.31571	 	3.83533E10	 	1.14296E-10	 	21908.743	33.3542	 
620.0	1.0	0.0	7.50968	7.02405	-8.45438	19.91094	24.1617	1.20452	0.83021	154.0154	139.12775	58.53878	0.3155	 	4.64326E10	 	9.38833E-11	 	21742.546	33.2394	 
615.0	1.0	0.0	7.51198	7.0219	-8.48243	19.9004	24.10588	1.20055	0.83295	154.45328	139.36012	58.71485	0.31528	 	5.633559999999999E10	 	7.69468E-11	 	21576.914	33.1264	 
610.0	1.0	0.0	7.51428	7.01975	-8.51045	19.88989	24.05002	1.19657	0.83572	154.89048	139.59134	58.89073	0.31507	 	6.850139999999999E10	 	6.29248E-11	 	21411.834	33.016	 
605.0	1.0	0.0	7.51658	7.0176	-8.53844	19.87939	23.99412	1.19256	0.83853	155.32701	139.82143	59.0664	0.31485	 	8.34812E10	 	5.13413E-11	 	21247.295	32.9078	 
600.0	1.0	0.0	7.51888	7.01545	-8.5664	19.86892	23.93817	1.18854	0.84136	155.76285	140.05037	59.24188	0.31463	 	1.01969E11	 	4.17935E-11	 	21083.288	32.8014	 
595.0	1.0	0.0	7.52117	7.01331	-8.59432	19.85846	23.88218	1.18451	0.84423	156.19802	140.27816	59.41715	0.31442	 	1.2484E11	 	3.39414E-11	 	20919.803	32.697	 
590.0	1.0	0.0	7.52347	7.01117	-8.62222	19.84802	23.82614	1.18046	0.84713	156.63249	140.50481	59.59221	0.3142	 	1.53201E11	 	2.74987E-11	 	20756.83	32.5946	 
585.0	1.0	0.0	7.52576	7.00903	-8.65009	19.8376	23.77004	1.17639	0.85006	157.06627	140.73032	59.76707	0.31399	 	1.88457E11	 	2.22248E-11	 	20594.361	32.4938	 
580.0	1.0	0.0	7.52806	7.0069	-8.67793	19.8272	23.7139	1.1723	0.85302	157.49935	140.95468	59.94172	0.31377	 	2.32393E11	 	1.7918E-11	 	20432.387	32.3948	 
575.0	1.0	0.0	7.53035	7.00476	-8.70573	19.81681	23.65769	1.1682	0.85602	157.93173	141.17789	60.11616	0.31355	 	2.87285E11	 	1.44094E-11	 	20270.901	32.2972	 
570.0	1.0	0.0	7.53264	7.00263	-8.73351	19.80645	23.60144	1.16408	0.85904	158.3634	141.39996	60.29039	0.31334	 	3.56042E11	 	1.15582E-11	 	20109.893	32.2016	 
565.0	1.0	0.0	7.53493	7.0005	-8.76126	19.7961	23.54512	1.15995	0.86211	158.79435	141.62089	60.4644	0.31312	 	4.42391E11	 	9.24704E-12	 	19949.358	32.107	 
560.0	1.0	0.0	7.53722	6.99838	-8.78897	19.78577	23.48874	1.1558	0.8652	159.22459	141.84067	60.6382	0.31291	 	5.51123E11	 	7.37838E-12	 	19789.289	32.0138	 
555.0	1.0	0.0	7.53951	6.99625	-8.81666	19.77546	23.4323	1.15163	0.86834	159.65411	142.0593	60.81177	0.31269	 	6.88414E11	 	5.87146E-12	 	19629.677	31.9224	 
550.0	1.0	0.0	7.5418	6.99413	-8.84431	19.76517	23.3758	1.14744	0.8715	160.0829	142.27679	60.98513	0.31247	 	8.62243E11	 	4.65946E-12	 	19470.518	31.8318	 
545.0	1.0	0.0	7.54409	6.99201	-8.87194	19.7549	23.31923	1.14324	0.87471	160.51096	142.49313	61.15827	0.31226	 	1.08296E12	 	3.6873E-12	 	19311.804	31.7428	 
540.0	1.0	0.0	7.54637	6.98989	-8.89954	19.74465	23.2626	1.13902	0.87795	160.93829	142.70833	61.33118	0.31204	 	1.364E12	 	2.90966E-12	 	19153.531	31.6546	 
535.0	1.0	0.0	7.54866	6.98778	-8.9271	19.73441	23.20591	1.13478	0.88123	161.36487	142.92238	61.50387	0.31183	 	1.72292E12	 	2.28936E-12	 	18995.692	31.5678	 
530.0	1.0	0.0	7.55094	6.98567	-8.95464	19.7242	23.14915	1.13052	0.88455	161.79072	143.13529	61.67634	0.31161	 	2.18264E12	 	1.79598E-12	 	18838.282	31.482	 
525.0	1.0	0.0	7.55322	6.98356	-8.98215	19.714	23.09233	1.12625	0.8879	162.21581	143.34705	61.84857	0.3114	 	2.77328E12	 	1.40468E-12	 	18681.296	31.3972	 
520.0	1.0	0.0	7.5555	6.98145	-9.00963	19.70382	23.03544	1.12196	0.8913	162.64015	143.55767	62.02057	0.31118	 	3.53444E12	 	1.09527E-12	 	18524.729	31.3134	 
515.0	1.0	0.0	7.55778	6.97934	-9.03707	19.69366	22.97849	1.11765	0.89474	163.06373	143.76714	62.19234	0.31096	 	4.51846E12	 	8.51343E-13	 	18368.577	31.2304	 
510.0	1.0	0.0	7.56006	6.97724	-9.06449	19.68352	22.92148	1.11332	0.89821	163.48655	143.97546	62.36387	0.31075	 	5.79466E12	 	6.59635E-13	 	18212.834	31.1486	 
505.0	1.0	0.0	7.56234	6.97514	-9.09188	19.6734	22.86441	1.10897	0.90174	163.9086	144.18264	62.53517	0.31053	 	7.4552E12	 	5.09437E-13	 	18057.497	31.0674	 
500.0	1.0	0.0	7.56462	6.97304	-9.11925	19.66329	22.80728	1.10461	0.9053	164.32988	144.38867	62.70623	0.31032	 	9.62302E12	 	3.92138E-13	 	17902.562	30.987	 
495.0	1.0	0.0	7.56689	6.97094	-9.14658	19.65321	22.75008	1.10022	0.90891	164.75039	144.59356	62.87706	0.3101	 	1.24627E13	 	3.0083E-13	 	17748.023	30.9078	 
490.0	1.0	0.0	7.56917	6.96884	-9.17388	19.64314	22.69283	1.09582	0.91256	165.17012	144.7973	63.04764	0.30988	 	1.61953E13	 	2.29989E-13	 	17593.879	30.8288	 
485.0	1.0	0.0	7.57144	6.96675	-9.20115	19.63309	22.63553	1.0914	0.91626	165.58906	144.9999	63.21797	0.30967	 	2.1119E13	 	1.75214E-13	 	17440.124	30.751	 
480.0	1.0	0.0	7.57371	6.96466	-9.2284	19.62306	22.57817	1.08695	0.92	166.00722	145.20135	63.38806	0.30945	 	2.76372E13	 	1.33007E-13	 	17286.756	30.6736	 
475.0	1.0	0.0	7.57598	6.96257	-9.25561	19.61305	22.52076	1.08249	0.9238	166.42458	145.40166	63.55791	0.30924	 	3.62978E13	 	1.00599E-13	 	17133.771	30.597	 
470.0	1.0	0.0	7.57825	6.96049	-9.2828	19.60306	22.4633	1.078	0.92764	166.84114	145.60082	63.7275	0.30902	 	4.78482E13	 	7.5805E-14	 	16981.165	30.5212	 
465.0	1.0	0.0	7.58052	6.9584	-9.30996	19.59309	22.4058	1.0735	0.93153	167.25691	145.79884	63.89685	0.3088	 	6.33113E13	 	5.6905E-14	 	16828.936	30.4458	 
460.0	1.0	0.0	7.58279	6.95632	-9.33709	19.58313	22.34825	1.06897	0.93548	167.67187	145.99572	64.06594	0.30859	 	8.40932E13	 	4.25519E-14	 	16677.081	30.371	 
455.0	1.0	0.0	7.58506	6.95424	-9.36419	19.5732	22.29066	1.06443	0.93947	168.08602	146.19145	64.23478	0.30837	 	1.12134E14	 	3.16934E-14	 	16525.597	30.2968	 
450.0	1.0	0.0	7.58733	6.95216	-9.39126	19.56328	22.23303	1.05986	0.94352	168.49935	146.38603	64.40337	0.30816	 	1.50124E14	 	2.35106E-14	 	16374.481	30.2232	 
445.0	1.0	0.0	7.58959	6.95009	-9.41831	19.55338	22.17536	1.05527	0.94763	168.91187	146.57947	64.57169	0.30794	 	2.01805E14	 	1.73688E-14	 	16223.73	30.1502	 
440.0	1.0	0.0	7.59185	6.94802	-9.44533	19.5435	22.11766	1.05065	0.95179	169.32356	146.77177	64.73976	0.30772	 	2.7240799999999997E14	 	1.27776E-14	 	16073.342	30.0776	 
435.0	1.0	0.0	7.59412	6.94595	-9.47231	19.53364	22.05993	1.04602	0.95601	169.73443	146.96293	64.90757	0.30751	 	3.69277E14	 	9.35964E-15	 	15923.315	30.0054	 
430.0	1.0	0.0	7.59638	6.94388	-9.49927	19.52379	22.00218	1.04136	0.96028	170.14447	147.15294	65.07511	0.30729	 	5.0276999999999994E14	 	6.82598E-15	 	15773.645	29.934	 
425.0	1.0	0.0	7.59864	6.94181	-9.52621	19.51397	21.9444	1.03668	0.96462	170.55368	147.34181	65.24239	0.30708	 	6.87561E14	 	4.95592E-15	 	15624.332	29.8626	 
420.0	1.0	0.0	7.6009	6.93975	-9.55311	19.50416	21.88659	1.03197	0.96902	170.96204	147.52954	65.40941	0.30686	 	9.44537E14	 	3.58175E-15	 	15475.372	29.792	 
415.0	1.0	0.0	7.60316	6.93768	-9.57999	19.49437	21.82877	1.02724	0.97348	171.36956	147.71613	65.57616	0.30665	 	1.30357E15	 	2.57652E-15	 	15326.763	29.7218	 
410.0	1.0	0.0	7.60542	6.93562	-9.60683	19.4846	21.77094	1.02248	0.97801	171.77624	147.90158	65.74263	0.30643	 	1.80761E15	 	1.84458E-15	 	15178.505	29.6516	 
405.0	1.0	0.0	7.60768	6.93357	-9.63365	19.47485	21.71309	1.0177	0.9826	172.18207	148.08588	65.90884	0.30621	 	2.51868E15	 	1.31413E-15	 	15030.594	29.5822	 
400.0	1.0	0.0	7.60993	6.93151	-9.66045	19.46512	21.65523	1.0129	0.98726	172.58704	148.26905	66.07478	0.306	 	3.52684E15	 	9.31563E-16	 	14883.029	29.513	 
395.0	1.0	0.0	7.61219	6.92946	-9.68721	19.45541	21.59737	1.00807	0.99199	172.99116	148.45107	66.24044	0.30578	 	4.96355E15	 	6.57005E-16	 	14735.807	29.4444	 
390.0	1.0	0.0	7.61444	6.92741	-9.71395	19.44572	21.5395	1.00321	0.9968	173.39441	148.63196	66.40582	0.30557	 	7.02167E15	 	4.60954E-16	 	14588.929	29.3756	 
385.0	1.0	0.0	7.6167	6.92536	-9.74066	19.43604	21.48163	0.99833	1.00167	173.7968	148.81171	66.57093	0.30535	 	9.98579E15	 	3.21684E-16	 	14442.391	29.3076	 
380.0	1.0	0.0	7.61895	6.92331	-9.76734	19.42638	21.42376	0.99342	1.00662	174.19831	148.99032	66.73576	0.30513	 	1.42781E16	 	2.23269E-16	 	14296.192	29.2398	 
375.0	1.0	0.0	7.6212	6.92126	-9.794	19.41674	21.3659	0.98849	1.01164	174.59896	149.16779	66.90031	0.30492	 	2.05286E16	 	1.541E-16	 	14150.332	29.172	 
370.0	1.0	0.0	7.62345	6.91922	-9.82062	19.40712	21.30804	0.98353	1.01675	174.99873	149.34413	67.06458	0.3047	 	2.96827E16	 	1.05754E-16	 	14004.807	29.105	 
365.0	1.0	0.0	7.6257	6.91718	-9.84722	19.39752	21.25019	0.97854	1.02193	175.39762	149.51933	67.22857	0.30449	 	4.31681E16	 	7.21517E-17	 	13859.618	29.0378	 
360.0	1.0	0.0	7.62795	6.91514	-9.8738	19.38794	21.19235	0.97352	1.0272	175.79562	149.69339	67.39227	0.30427	 	6.31531E16	 	4.89326E-17	 	13714.763	28.971	 
355.0	1.0	0.0	7.63019	6.9131	-9.90034	19.37838	21.13452	0.96848	1.03255	176.19274	149.86633	67.55568	0.30406	 	9.29525E16	 	3.29829E-17	 	13570.24	28.9046	 
350.0	1.0	0.0	7.63244	6.91107	-9.92686	19.36883	21.0767	0.9634	1.03799	176.58897	150.03812	67.71881	0.30384	 	1.37666E17	 	2.20929E-17	 	13426.049	28.8382	 
345.0	1.0	0.0	7.63469	6.90904	-9.95336	19.3593	21.0189	0.9583	1.04351	176.98431	150.20879	67.88165	0.30362	 	2.05189E17	 	1.47037E-17	 	13282.188	28.7722	 
340.0	1.0	0.0	7.63693	6.90701	-9.97982	19.3498	20.96112	0.95317	1.04913	177.37874	150.37833	68.04419	0.30341	 	3.07831E17	 	9.72166E-18	 	13138.657	28.7062	 
335.0	1.0	0.0	7.63918	6.90498	-10.00626	19.34031	20.90336	0.94801	1.05484	177.77228	150.54673	68.20645	0.30319	 	4.64914E17	 	6.38447E-18	 	12995.454	28.6406	 
330.0	1.0	0.0	7.64142	6.90295	-10.03267	19.33084	20.84562	0.94282	1.06065	178.16492	150.71401	68.36841	0.30298	 	7.06976E17	 	4.16397E-18	 	12852.579	28.575	 
325.0	1.0	0.0	7.64366	6.90093	-10.05906	19.32138	20.7879	0.9376	1.06655	178.55665	150.88016	68.53008	0.30276	 	1.08264E18	 	2.69658E-18	 	12710.03	28.5098	 
320.0	1.0	0.0	7.6459	6.8989	-10.08542	19.31195	20.7302	0.93235	1.07256	178.94747	151.04518	68.69146	0.30255	 	1.66989E18	 	1.73366E-18	 	12567.808	28.4444	 
315.0	1.0	0.0	7.64814	6.89688	-10.11175	19.30254	20.67253	0.92707	1.07867	179.33738	151.20908	68.85253	0.30233	 	2.59474E18	 	1.10632E-18	 	12425.911	28.3794	 
310.0	1.0	0.0	7.65038	6.89487	-10.13806	19.29314	20.61488	0.92176	1.08488	179.72637	151.37185	69.01331	0.30211	 	4.06244E18	 	7.00615E-19	 	12284.339	28.3144	 
305.0	1.0	0.0	7.65262	6.89285	-10.16434	19.28376	20.55725	0.91642	1.09121	180.11445	151.5335	69.17379	0.3019	 	6.4099E18	 	4.40226E-19	 	12143.092	28.2494	 
300.0	1.0	0.0	7.65485	6.89083	-10.19059	19.2744	20.49965	0.91104	1.09764	180.50161	151.69403	69.33397	0.30168	 	1.01947E19	 	2.74398E-19	 	12002.168	28.1848	 
295.0	1.0	0.0	7.65709	6.88882	-10.21682	19.26506	20.44207	0.90564	1.10419	180.88784	151.85344	69.49385	0.30147	 	1.63474E19	 	1.6963E-19	 	11861.567	28.1202	 
290.0	1.0	0.0	7.65933	6.88681	-10.24302	19.25574	20.38452	0.9002	1.11086	181.27316	152.01174	69.65342	0.30125	 	2.64342E19	 	1.03979E-19	 	11721.289	28.0556	 
285.0	1.0	0.0	7.66156	6.8848	-10.2692	19.24644	20.327	0.89474	1.11765	181.65754	152.16892	69.81269	0.30104	 	4.3115E19	 	6.31844E-20	 	11581.334	27.991	 
280.0	1.0	0.0	7.66379	6.8828	-10.29535	19.23715	20.2695	0.88924	1.12456	182.041	152.32498	69.97166	0.30082	 	7.09469E19	 	3.80536E-20	 	11441.701	27.9266	 
275.0	1.0	0.0	7.66603	6.88079	-10.32147	19.22789	20.21203	0.8837	1.1316	182.42353	152.47994	70.13032	0.3006	 	1.1781199999999998E20	 	2.2709E-20	 	11302.391	27.862	 
270.0	1.0	0.0	7.66826	6.87879	-10.34757	19.21864	20.15458	0.87814	1.13877	182.80513	152.63378	70.28868	0.30039	 	1.9747E20	 	1.34247E-20	 	11163.403	27.7976	 
265.0	1.0	0.0	7.67049	6.87679	-10.37364	19.20941	20.09716	0.87254	1.14608	183.18579	152.78652	70.44673	0.30017	 	3.3418299999999997E20	 	7.85969E-21	 	11024.737	27.7332	 
260.0	1.0	0.0	7.67272	6.87479	-10.39969	19.2002	20.03976	0.86691	1.15352	183.56552	152.93816	70.60447	0.29996	 	5.7115899999999997E20	 	4.55595E-21	 	10886.393	27.6688	 
255.0	1.0	0.0	7.67495	6.87279	-10.42571	19.19101	19.98239	0.86125	1.16111	183.94431	153.08869	70.76191	0.29974	 	9.861419999999999E20	 	2.61399E-21	 	10748.372	27.6042	 
250.0	1.0	0.0	7.67717	6.8708	-10.45171	19.18184	19.92504	0.85555	1.16884	184.32217	153.23813	70.91904	0.29953	 	1.72051E21	 	1.48407E-21	 	10610.673	27.5398	 
245.0	1.0	0.0	7.6794	6.86881	-10.47768	19.17268	19.86772	0.84982	1.17672	184.69909	153.38646	71.07585	0.29931	 	3.0342000000000003E21	 	8.33484E-22	 	10473.297	27.4752	 
240.0	1.0	0.0	7.68163	6.86682	-10.50362	19.16355	19.81042	0.84405	1.18476	185.07507	153.53371	71.23236	0.29909	 	5.410480000000001E21	 	4.62909E-22	 	10336.245	27.4104	 
235.0	1.0	0.0	7.68385	6.86483	-10.52954	19.15443	19.75314	0.83825	1.19296	185.45011	153.67987	71.38856	0.29888	 	9.75825E21	 	2.5416E-22	 	10199.516	27.3458	 
230.0	1.0	0.0	7.68608	6.86284	-10.55543	19.14533	19.69588	0.83241	1.20132	185.82422	153.82494	71.54445	0.29866	 	1.78074E22	 	1.37906E-22	 	10063.111	27.281	 
225.0	1.0	0.0	7.6883	6.86086	-10.5813	19.13625	19.63864	0.82654	1.20986	186.19738	153.96892	71.70003	0.29845	 	3.2891E22	 	7.39214E-23	 	9927.031	27.216	 
220.0	1.0	0.0	7.69052	6.85887	-10.60715	19.12719	19.58142	0.82064	1.21856	186.56961	154.11183	71.8553	0.29823	 	6.15118E22	 	3.91298E-23	 	9791.276	27.151	 
215.0	1.0	0.0	7.69275	6.85689	-10.63297	19.11815	19.52423	0.8147	1.22745	186.9409	154.25366	72.01026	0.29802	 	1.1652299999999999E23	 	2.04469E-23	 	9655.848	27.0856	 
210.0	1.0	0.0	7.69497	6.85491	-10.65876	19.10912	19.46705	0.80872	1.23652	187.31125	154.39443	72.16491	0.2978	 	2.23671E23	 	1.05429E-23	 	9520.747	27.0202	 
205.0	1.0	0.0	7.69719	6.85294	-10.68453	19.10012	19.40988	0.80271	1.24578	187.68067	154.53412	72.31925	0.29758	 	4.35243E23	 	5.3619E-24	 	9385.975	26.9544	 
200.0	1.0	0.0	7.69941	6.85096	-10.71028	19.09113	19.35274	0.79666	1.25524	188.04916	154.67276	72.47328	0.29737	 	8.58949E23	 	2.68855E-24	 	9251.531	26.8888	 
195.0	1.0	0.0	7.70163	6.84899	-10.736	19.08216	19.29561	0.79058	1.2649	188.41671	154.81034	72.62701	0.29715	 	1.71993E24	 	1.3285E-24	 	9117.419	26.8224	 
190.0	1.0	0.0	7.70384	6.84702	-10.76169	19.07322	19.23849	0.78446	1.27477	188.78333	154.94687	72.78042	0.29694	 	3.49596E24	 	6.46608E-25	 	8983.638	26.7562	 
185.0	1.0	0.0	7.70606	6.84505	-10.78736	19.06428	19.18139	0.7783	1.28486	189.14903	155.08235	72.93353	0.29672	 	7.216870000000001E24	 	3.09846E-25	 	8850.19	26.6896	 
180.0	1.0	0.0	7.70828	6.84308	-10.81301	19.05537	19.1243	0.7721	1.29517	189.5138	155.21679	73.08634	0.29651	 	1.5138300000000002E25	 	1.461E-25	 	8717.077	26.6226	 
175.0	1.0	0.0	7.71049	6.84111	-10.83863	19.04648	19.06723	0.76587	1.30571	189.87766	155.3502	73.23884	0.29629	 	3.2284100000000002E25	 	6.77519E-26	 	8584.301	26.5552	 
170.0	1.0	0.0	7.71271	6.83915	-10.86423	19.0376	19.01016	0.7596	1.31649	190.2406	155.48259	73.39104	0.29608	 	7.00363E25	 	3.08826E-26	 	8451.863	26.4876	 
165.0	1.0	0.0	7.71492	6.83719	-10.8898	19.02875	18.95311	0.75329	1.32752	190.60263	155.61395	73.54294	0.29586	 	1.5464500000000001E26	 	1.38285E-26	 	8319.765	26.4196	 
160.0	1.0	0.0	7.71713	6.83523	-10.91535	19.01991	18.89606	0.74694	1.3388	190.96375	155.7443	73.69453	0.29564	 	3.4776800000000005E26	 	6.07905E-27	 	8188.01	26.351	 
155.0	1.0	0.0	7.71934	6.83327	-10.94088	19.01109	18.83903	0.74055	1.35035	191.32397	155.87365	73.84583	0.29543	 	7.970150000000001E26	 	2.6219E-27	 	8056.599	26.2822	 
150.0	1.0	0.0	7.72155	6.83131	-10.96638	19.00229	18.782	0.73413	1.36217	191.6833	156.002	73.99684	0.29521	 	1.86276E27	 	1.10873E-27	 	7925.535	26.2128	 
145.0	1.0	0.0	7.72376	6.82936	-10.99186	18.99351	18.72498	0.72766	1.37427	192.04174	156.12937	74.14755	0.295	 	4.44287E27	 	4.59362E-28	 	7794.821	26.1428	 
140.0	1.0	0.0	7.72597	6.8274	-11.01731	18.98475	18.66797	0.72115	1.38666	192.39931	156.25576	74.29797	0.29478	 	1.0822100000000001E28	 	1.86331E-28	 	7664.459	26.0724	 
135.0	1.0	0.0	7.72818	6.82545	-11.04274	18.976	18.61096	0.71461	1.39937	192.756	156.38117	74.44811	0.29457	 	2.6942100000000002E28	 	7.39393E-29	 	7534.453	26.0012	 
130.0	1.0	0.0	7.73039	6.8235	-11.06815	18.96728	18.55396	0.70802	1.41238	193.11183	156.50564	74.59796	0.29435	 	6.8608500000000005E28	 	2.86797E-29	 	7404.804	25.9298	 
125.0	1.0	0.0	7.7326	6.82155	-11.09353	18.95857	18.49696	0.7014	1.42573	193.46681	156.62915	74.74754	0.29413	 	1.7886400000000002E29	 	1.08645E-29	 	7275.518	25.8572	 
120.0	1.0	0.0	7.7348	6.81961	-11.11889	18.94988	18.43996	0.69473	1.43941	193.82095	156.75174	74.89684	0.29392	 	4.77806E29	 	4.016E-30	 	7146.596	25.7844	 
115.0	1.0	0.0	7.73701	6.81766	-11.14423	18.94121	18.38297	0.68802	1.45344	194.17426	156.8734	75.04587	0.2937	 	1.30911E30	 	1.44714E-30	 	7018.044	25.7104	 
110.0	1.0	0.0	7.73921	6.81572	-11.16954	18.93256	18.32598	0.68127	1.46785	194.52675	156.99415	75.19463	0.29349	 	3.68235E30	 	5.07844E-31	 	6889.864	25.636	 
105.0	1.0	0.0	7.74142	6.81378	-11.19483	18.92393	18.269	0.67448	1.48263	194.87844	157.11401	75.34313	0.29327	 	1.0645199999999999E31	 	1.7338E-31	 	6762.061	25.5606	 
100.0	1.0	0.0	7.74362	6.81184	-11.22009	18.91531	18.21201	0.66764	1.49781	195.22935	157.23299	75.49138	0.29306	 	3.16618E31	 	5.7522E-32	 	6634.64	25.4842	 
95.0	1.0	0.0	7.74582	6.80991	-11.24533	18.90672	18.15502	0.66076	1.5134	195.57949	157.3511	75.63938	0.29284	 	9.70015E31	 	1.85239E-32	 	6507.606	25.4068	 
90.0	1.0	0.0	7.74802	6.80797	-11.27055	18.89814	18.09804	0.65384	1.52942	195.92887	157.46837	75.78713	0.29263	 	3.06486E32	 	5.78312E-33	 	6380.963	25.3286	 
85.0	1.0	0.0	7.75023	6.80604	-11.29575	18.88958	18.04105	0.64688	1.54589	196.27752	157.58481	75.93465	0.29241	 	9.999859999999999E32	 	1.74807E-33	 	6254.717	25.2492	 
80.0	1.0	0.0	7.75243	6.80411	-11.32092	18.88104	17.98407	0.63987	1.56283	196.62546	157.70045	76.08195	0.2922	 	3.37381E33	 	5.10888E-34	 	6128.873	25.1688	 
75.0	1.0	0.0	7.75462	6.80218	-11.34607	18.87252	17.92708	0.63281	1.58025	196.97271	157.81529	76.22903	0.29198	 	1.17874E34	 	1.44157E-34	 	6003.438	25.087	 
70.0	1.0	0.0	7.75682	6.80025	-11.3712	18.86402	17.87009	0.62571	1.59818	197.31929	157.92937	76.37589	0.29176	 	4.27116E34	 	3.92125E-35	 	5878.418	25.004	 
65.0	1.0	0.0	7.75902	6.79832	-11.39631	18.85554	17.8131	0.61857	1.61664	197.66524	158.04271	76.52256	0.29155	 	1.6077199999999998E35	 	1.02656E-35	 	5753.821	24.9194	 
60.0	1.0	0.0	7.76122	6.7964	-11.42139	18.84707	17.7561	0.61138	1.63565	198.01057	158.15532	76.66904	0.29133	 	6.297319999999999E35	 	2.58209E-36	 	5629.652	24.8338	 
55.0	1.0	0.0	7.76341	6.79448	-11.44645	18.83863	17.6991	0.60414	1.65524	198.35532	158.26725	76.81535	0.29112	 	2.5713999999999998E36	 	6.22859E-37	 	5505.921	24.7462	 
50.0	1.0	0.0	7.76561	6.79256	-11.47148	18.8302	17.6421	0.59686	1.67544	198.69953	158.37851	76.96149	0.2909	 	1.0967099999999999E37	 	1.43813E-37	 	5382.635	24.6572	 
45.0	1.0	0.0	7.7678	6.79064	-11.4965	18.82179	17.5851	0.58953	1.69627	199.04322	158.48914	77.10748	0.29069	 	4.89569E37	 	3.17179E-38	 	5259.803	24.5664	 
40.0	1.0	0.0	7.77	6.78872	-11.52149	18.8134	17.52809	0.58215	1.71777	199.38644	158.59917	77.25334	0.29047	 	2.29237E38	 	6.66737E-39	 	5137.435	24.4736	 
35.0	1.0	0.0	7.77219	6.7868	-11.54646	18.80503	17.47107	0.57473	1.73996	199.72923	158.70863	77.39908	0.29026	 	1.12853E39	 	1.33271E-39	 	5015.541	24.3788	 
30.0	1.0	0.0	7.77439	6.78489	-11.57141	18.79667	17.41405	0.56725	1.76289	200.07162	158.81757	77.54471	0.29004	 	5.85566E39	 	2.52679E-40	 	4894.131	24.282	 
25.0	1.0	0.0	7.77658	6.78298	-11.59633	 	17.35703	0.55973	1.78658	200.41368	158.92602	77.69026	0.28982	 	3.21087E40	 	4.5321E-41	 	4773.217	 	 
