T (C)	Fraction solid (wt)-TOTAL	Fraction liquid (wt)-LIQUID	Density (g/(cm)^3)-TOTAL	Molar volume (cm^3)-TOTAL	Volume change (%)-  	Average expansion coeff. (10e-6 1/K)-  	Thermal conductivity (W/(m*K))-TOTAL	Electrical resistivity (10e-6 Ohm*m)-TOTAL	Electrical conductivity (10e6 1/(Ohm*m))-TOTAL	Young's modulus (GPa)-TOTAL	Bulk modulus (GPa)-TOTAL	Shear modulus(GPa)-TOTAL	Poisson's ratio-TOTAL	Liquid viscosity (mPa s)-  	Total viscosity (mPa s)-  	Liquid diffusivity (10e-9 (m^2)/s)-  	Total diffusivity (10e-9 (m^2)/s)-  	Surface Tension (mN/m)-  	Enthalpy (J/mole)-TOTAL	Specific heat (J/(mole K))-TOTAL	Latent heat (J/mole)-TOTAL
1500.0	0.0	1.0	6.97127	7.84959	0.0	26.62012	31.59615	1.82864	0.54685	0.0	105.98944	0.0	0.49974	6.74694	6.74694	1.2827	1.2827	1741.20651	65441.847	 	0.0
1495.0	0.0	1.0	6.97516	7.84521	-0.0557122	26.56946	31.52095	1.82784	0.54709	0.0	106.17638	0.0	0.49974	6.80589	6.80589	1.268	1.268	1742.73768	65219.829	44.4036	0.0
1490.0	0.0	1.0	6.97904	7.84085	-0.11127	26.51884	31.44575	1.82703	0.54734	0.0	106.36332	0.0	0.49974	6.86569	6.86569	1.25341	1.25341	1744.26201	64998.325	44.3008	0.0
1485.0	0.0	1.0	6.98291	7.83651	-0.16667	26.46827	31.37055	1.82621	0.54758	0.0	106.55026	0.0	0.49974	6.92636	6.92636	1.2389	1.2389	1745.7794	64777.332	44.1986	0.0
1480.0	0.0	1.0	6.98678	7.83217	-0.22191	26.41776	31.29535	1.8254	0.54783	0.0	106.7372	0.0	0.49974	6.98791	6.98791	1.2245	1.2245	1747.28977	64556.845	44.0974	0.0
1475.0	0.0	1.0	6.99064	7.82784	-0.277	26.3673	31.22015	1.82457	0.54807	0.0	106.92414	0.0	0.49974	7.05037	7.05037	1.21019	1.21019	1748.79299	64336.863	43.9964	0.0
1470.0	0.0	1.0	6.99449	7.82353	-0.33193	26.3169	31.14495	1.82375	0.54832	0.0	107.11108	0.0	0.49974	7.11375	7.11375	1.19598	1.19598	1750.28896	64117.38	43.8966	0.0
1465.0	0.0	1.0	6.99834	7.81923	-0.3867	26.26655	31.06975	1.82292	0.54857	0.0	107.29801	0.0	0.49974	7.17807	7.17807	1.18186	1.18186	1751.77757	63898.396	43.7968	0.0
1460.0	0.0	1.0	7.00217	7.81495	-0.44132	26.21625	30.99454	1.82209	0.54882	0.0	107.48495	0.0	0.49974	7.24335	7.24335	1.16784	1.16784	1753.25871	63679.905	43.6982	0.0
1455.0	0.0	1.0	7.00601	7.81067	-0.49578	26.16601	30.91934	1.82125	0.54907	0.0	107.67189	0.0	0.49974	7.3096	7.3096	1.15392	1.15392	1754.73226	63461.905	43.6	0.0
1450.0	0.0	1.0	7.00983	7.80641	-0.55009	26.11583	30.84413	1.82041	0.54933	0.0	107.85883	0.0	0.49974	7.37685	7.37685	1.14009	1.14009	1756.19809	63244.417	43.4976	0.0
1445.0	0.0	1.0	7.01365	7.80216	-0.60424	26.0657	30.76893	1.81956	0.54958	0.0	108.04577	0.0	0.49974	7.44512	7.44512	1.12636	1.12636	1757.65611	63027.481	43.3872	0.0
1440.0	0.0	1.0	7.01746	7.79792	-0.65823	26.01563	30.69372	1.81871	0.54984	0.0	108.23271	0.0	0.49974	7.51442	7.51442	1.11272	1.11272	1759.10617	62811.088	43.2786	0.0
1438.28	0.0	1.0	7.01877	7.79646	-0.67678	25.9984	30.66785	1.81842	0.54993	0.0	108.29703	0.0	0.49974	7.53851	7.53851	1.10805	1.10805	1759.60322	62736.756	43.2087	0.0050
1435.0	0.10854	0.89146	7.03799	7.77526	-0.94697	25.3449	31.04482	1.79289	0.55776	0.00788245	104.28637	0.00265606	0.48386	7.56095	9.21181	1.10265	0.90504	1757.40737	61639.411	334.587	955.822
1430.0	0.24319	0.75681	7.06256	7.74812	-1.2926	24.5185	31.51744	1.76084	0.56791	0.20278	99.3784	0.0692563	0.46399	7.595	23.60659	1.09449	0.35213	1754.21219	60242.8	279.322	2137.115
1425.0	0.34837	0.65163	7.08235	7.72656	-1.5673	23.87497	31.88994	1.73516	0.57631	0.86908	95.63507	0.30002	0.44835	7.62989	70.16471	1.08629	0.11813	1751.17137	59110.453	226.469	3054.678
1422.83	0.38636	0.61364	7.08973	7.71852	-1.66973	23.63901	32.02371	1.72571	0.57947	1.32407	94.31125	0.4589	0.44266	7.645	102.43652	1.08275	0.0808077	1749.89455	58687.35	 	3384.722
1420.0	0.45941	0.54059	7.10247	7.70473	-1.84541	23.21773	32.19312	1.71376	0.58351	2.34799	92.92832	0.81962	0.43236	7.66226	224.78983	1.07851	0.0367625	1747.01154	57807.07	260.677	4143.804
1415.0	0.56145	0.43855	7.12081	7.68496	-2.09734	22.62593	32.4212	1.69668	0.58939	5.05934	91.20111	1.78417	0.41784	7.69285	571.79277	1.07105	0.0144098	1742.29277	56538.56	253.702	5198.584
1410.0	0.63662	0.36338	7.13502	7.66978	-2.29061	22.18767	32.57515	1.68366	0.59394	8.73418	90.10193	3.10378	0.40702	7.72389	1043.6744	1.06359	0.00787126	1737.92845	55555.113	196.689	5968.822
1405.0	0.69362	0.30638	7.14645	7.65767	-2.44495	21.85134	32.67875	1.67334	0.59761	13.04055	89.40561	4.66156	0.39873	7.75509	1597.70018	1.05616	0.00512651	1733.87309	54764.124	158.198	6547.12
1400.0	0.73785	0.26215	7.15591	7.64771	-2.57177	21.58713	32.74621	1.66491	0.60063	17.62292	88.98234	6.32902	0.39223	7.78686	2202.86258	1.04872	0.0037071	1730.0851	54107.902	131.244	6991.166
1395.0	0.77285	0.22715	7.16395	7.63932	-2.67873	21.37501	32.78726	1.65786	0.60319	22.2055	88.75087	8.00473	0.38702	7.81914	2840.51938	1.04127	0.00286632	1726.52992	53548.735	111.833	7338.668
1390.0	0.80102	0.19898	7.17093	7.63204	-2.7715	21.20009	32.8083	1.65183	0.60539	26.60807	88.65758	9.62124	0.38278	7.85201	3499.81059	1.0338	0.00231939	1723.18108	53061.219	97.5032	7615.026
1385.0	0.82422	0.17578	7.17717	7.62559	-2.85362	21.05305	32.81476	1.64654	0.60733	30.7703	88.6652	11.15483	0.37924	7.88542	4180.72344	1.02633	0.00193579	1720.00995	52625.878	87.0682	7839.714
1380.0	0.84358	0.15642	7.18285	7.61975	-2.92805	20.92607	32.80975	1.64183	0.60908	34.65662	88.74856	12.5911	0.37624	7.91941	4882.86035	1.01884	0.00165244	1716.99822	52230.599	79.0558	8024.841
1375.0	0.85995	0.14005	7.1881	7.61439	-2.99635	20.81507	32.79571	1.63756	0.61066	38.25809	88.89098	13.92561	0.37366	7.95397	5607.33217	1.01135	0.00143459	1714.1262	51866.647	72.7904	8179.139
1370.0	0.87395	0.12605	7.19301	7.60941	-3.05972	20.71688	32.77448	1.63365	0.61213	41.58655	89.07974	15.16181	0.37142	7.98905	6356.70841	1.00385	0.00126163	1711.37718	51527.593	67.8108	8309.035
1365.0	0.88602	0.11398	7.19764	7.60474	-3.1192	20.62881	32.74744	1.63002	0.61349	44.66408	89.30513	16.30717	0.36946	8.02504	7134.72937	0.99631	0.00112063	1708.73711	51208.615	63.7956	8419.345
1360.0	0.89652	0.10348	7.20205	7.60033	-3.17539	20.54923	32.71562	1.62663	0.61477	47.51	89.56029	17.36828	0.36772	8.06195	7944.46232	0.98872	0.00100334	1706.19234	50906.04	60.515	8513.743
1355.0	0.90573	0.094265	7.20629	7.59612	-3.229	20.47631	32.67989	1.62342	0.61598	50.15008	89.83982	18.35426	0.36617	8.09938	8790.39597	0.98114	9.04009E-4	1703.73311	50617.024	57.8032	8595.068
1350.0	0.91386	0.0861368	7.21038	7.59207	-3.28069	20.40823	32.64079	1.62038	0.61714	52.60447	90.139	19.27227	0.36477	8.13735	9676.3825	0.97356	8.18714E-4	1701.35395	50339.336	55.5376	8665.546
1348.99	0.91535	0.0846534	7.21117	7.59129	-3.29063	20.39577	32.63252	1.61978	0.61737	53.06725	90.20153	19.44551	0.36451	8.14528	9858.05909	0.97201	8.03128E-4	1700.87412	50285.023	 	8678.204
1345.0	0.92286	0.0771398	7.21521	7.58731	-3.34135	20.3143	32.60513	1.61715	0.61837	55.40961	90.4165	20.3229	0.36323	8.18332	10687.02583	0.96511	7.39007E-4	1699.52387	50050.518	57.7636	8747.636
1340.0	0.93114	0.0688567	7.22001	7.58262	-3.40106	20.22237	32.56723	1.61403	0.61957	58.11586	90.70857	21.33806	0.36179	8.23142	11763.8011	0.9565	6.69289E-4	1697.87913	49769.388	56.226	8822.515
1335.0	0.93835	0.0616486	7.22454	7.57822	-3.45708	20.1402	32.52586	1.61107	0.6207	60.59199	91.02189	22.26821	0.3605	8.28029	12887.85414	0.94791	6.09022E-4	1696.26821	49500.135	53.8506	8885.989
1330.0	0.94467	0.0553279	7.22886	7.57406	-3.51007	20.06608	32.48166	1.60825	0.62179	62.87048	91.35248	23.12522	0.35935	8.32994	14065.7751	0.93933	5.56285E-4	1694.68438	49240.685	51.89	8940.133
1325.0	0.95025	0.0497476	7.23301	7.57009	-3.56065	19.99828	32.43504	1.60554	0.62284	64.97823	91.6972	23.91893	0.3583	8.38015	15304.34443	0.93079	5.09671E-4	1693.12507	48989.414	50.2542	8986.567
1320.0	0.95521	0.04479	7.237	7.56629	-3.60908	19.93616	32.3864	1.60292	0.62386	66.93763	92.05398	24.65755	0.35735	8.43119	16610.57065	0.92226	4.68122E-4	1691.581	48745.033	48.8762	9026.576
1315.0	0.95964	0.0403631	7.24087	7.56262	-3.65577	19.87856	32.33604	1.60038	0.62485	68.7684	92.42053	25.34835	0.35647	8.48324	17991.634	0.91373	4.30832E-4	1690.05074	48506.51	47.7046	9061.189
1310.0	0.96361	0.0363901	7.24464	7.55908	-3.70097	19.82485	32.28419	1.5979	0.62582	70.48679	92.79569	25.99731	0.35566	8.5359	19455.33043	0.90523	3.97164E-4	1688.52914	48273.008	46.7004	9091.241
1305.0	0.96719	0.0328063	7.24832	7.55563	-3.74494	19.77431	32.23105	1.59548	0.62677	72.10688	93.17796	26.60966	0.3549	8.58958	21009.43293	0.89673	3.66624E-4	1687.0148	48043.845	45.8326	9117.413
1300.0	0.97044	0.0295604	7.25192	7.55226	-3.7878	19.7266	32.17679	1.59311	0.6277	73.6401	93.56641	27.18961	0.3542	8.64398	22662.54608	0.88827	3.38804E-4	1685.50296	47818.454	45.0782	9140.266
1295.0	0.97339	0.0266083	7.25545	7.54897	-3.82971	19.68131	32.12156	1.59077	0.62862	75.09703	93.96003	27.7411	0.35353	8.69944	24423.68927	0.8798	3.13374E-4	1683.99072	47596.364	44.418	9160.268
1290.0	0.97609	0.023913	7.25892	7.54575	-3.87075	19.63821	32.06549	1.58848	0.62953	76.48584	94.35827	28.26716	0.35291	8.75615	26302.41307	0.87131	2.90063E-4	1682.47381	47377.185	43.8358	9177.812
1285.0	0.97856	0.0214437	7.26234	7.54258	-3.91113	19.59674	32.00865	1.58621	0.63044	77.81513	94.76048	28.77099	0.35232	8.81363	28309.34754	0.86286	2.68637E-4	1680.95516	47160.581	43.3208	9193.226
1280.0	0.98083	0.0191735	7.26572	7.53946	-3.95083	19.55695	31.95117	1.58396	0.63133	79.09105	95.16601	29.25489	0.35176	8.87237	30455.30646	0.8544	2.48907E-4	1679.4267	46946.272	42.8618	9206.79
1275.0	0.98292	0.0170778	7.26906	7.53639	-3.99002	19.51836	31.89308	1.58174	0.63222	80.31973	95.57457	29.72114	0.35122	8.93205	32752.7234	0.84596	2.30703E-4	1677.89334	46734.015	42.4514	9218.742
1270.0	0.98486	0.015138	7.27237	7.53335	-4.0287	19.48099	31.83447	1.57953	0.6331	81.50629	95.98576	30.17166	0.35071	8.99304	35214.64247	0.83751	2.13881E-4	1676.34774	46523.606	42.0818	9229.287
1265.0	0.98666	0.0133367	7.27564	7.53035	-4.06698	19.44453	31.77541	1.57734	0.63398	82.65548	96.39905	30.60822	0.35022	9.055	37854.84457	0.82908	1.98319E-4	1674.79388	46314.864	41.7484	9238.6
1260.0	0.98834	0.0116583	7.2789	7.52737	-4.10485	19.40899	31.71591	1.57516	0.63486	83.77105	96.81449	31.03222	0.34974	9.11844	40689.2907	0.82064	1.83904E-4	1673.22438	46107.636	41.4456	9246.834
1255.0	0.98992	0.0100792	7.28213	7.52442	-4.14243	19.37404	31.65608	1.57299	0.63573	84.86114	97.23138	31.44675	0.34928	9.18331	43736.09735	0.81218	1.70535E-4	1671.64125	45901.79	41.1692	9254.116
1250.0	0.99142	0.00858472	7.28536	7.52149	-4.17978	19.33951	31.59596	1.57083	0.63661	85.92957	97.64964	31.85325	0.34884	9.24932	47014.20414	0.80375	1.58125E-4	1670.0465	45697.22	40.914	9260.553
1245.0	0.99283	0.00716778	7.28857	7.51858	-4.2169	19.3054	31.53559	1.56867	0.63748	86.97932	98.06916	32.25282	0.3484	9.3169	50543.76475	0.7953	1.466E-4	1668.43241	45493.83	40.678	9266.237
1240.0	0.99418	0.00582009	7.29178	7.51568	-4.25385	19.27155	31.47496	1.56651	0.63836	88.01193	98.48964	32.64606	0.34797	9.38557	54346.30676	0.78688	1.35893E-4	1666.80732	45291.531	40.4598	9271.26
1238.34	0.99482	0.00518246	7.29299	7.51464	-4.26703	19.25741	31.45517	1.56578	0.63866	88.43499	98.62907	32.80723	0.3478	9.40876	55724.78158	0.78408	1.32387E-4	1666.25815	45223.254	 	9274.192
1235.0	0.99619	0.00381063	7.29524	7.51228	-4.29712	19.21793	31.41563	1.56429	0.63927	89.36099	98.92	33.16077	0.34739	9.56602	58634.09985	0.76948	1.2554E-4	1663.13313	45074.408	43.4246	9291.54
1230.0	0.9978	0.00220318	7.29851	7.50885	-4.34083	19.16252	31.35595	1.56207	0.64018	90.57238	99.35336	33.62341	0.34687	9.80239	63173.55366	0.74844	1.16132E-4	1658.94329	44858.725	43.1366	9310.813
1225.0	0.99903	9.71994E-4	7.30169	7.50552	-4.38329	19.11053	31.29592	1.55986	0.64108	91.6349	99.78494	34.0293	0.34641	10.04052	67982.35103	0.72826	1.07559E-4	1655.16896	44649.081	41.9288	9324.476
1220.0	1.0	0.0	7.3048	7.50226	-4.4248	19.06105	31.23537	1.55767	0.64199	92.59416	100.21526	34.39584	0.34601	 	73107.84137	 	9.96842E-5	 	44443.69	41.0782	9334.312
1215.0	1.0	0.0	7.30717	7.49982	-4.45585	19.04392	31.17204	1.5556	0.64284	93.11146	100.64045	34.5933	0.3458	 	78316.94236	 	9.27423E-5	 	44216.546	45.4288	 
1210.0	1.0	0.0	7.30955	7.49739	-4.48685	19.02681	31.10871	1.55353	0.64369	93.62971	101.06553	34.79118	0.3456	 	83937.98843	 	8.62409E-5	 	44026.411	38.027	 
1205.0	1.0	0.0	7.31192	7.49496	-4.5178	19.0097	31.04538	1.55146	0.64456	94.14889	101.49047	34.98945	0.34539	 	90006.66081	 	8.0155E-5	 	43836.518	37.9786	 
1200.0	1.0	0.0	7.31428	7.49253	-4.5487	18.99259	30.98204	1.54937	0.64542	94.66898	101.91526	35.18813	0.34518	 	96561.99266	 	7.44608E-5	 	43646.879	37.9278	 
1195.0	1.0	0.0	7.31665	7.49011	-4.57956	18.9755	30.91871	1.54727	0.6463	95.18994	102.33987	35.38719	0.34498	 	103646.708	 	6.91356E-5	 	43457.498	37.8762	 
1190.0	1.0	0.0	7.31901	7.48769	-4.61037	18.95841	30.85537	1.54517	0.64718	95.71177	102.76427	35.58663	0.34477	 	111307.5973	 	6.4158E-5	 	43268.376	37.8244	 
1185.0	1.0	0.0	7.32137	7.48528	-4.64113	18.94133	30.79202	1.54306	0.64806	96.23443	103.18845	35.78645	0.34457	 	119595.9339	 	5.95076E-5	 	43079.512	37.7728	 
1180.0	1.0	0.0	7.32373	7.48287	-4.67184	18.92425	30.72868	1.54093	0.64896	96.75792	103.61239	35.98663	0.34436	 	128567.9361	 	5.51651E-5	 	42890.903	37.7218	 
1175.0	1.0	0.0	7.32609	7.48046	-4.7025	18.90718	30.66533	1.5388	0.64985	97.2822	104.03605	36.18717	0.34415	 	138285.2802	 	5.11122E-5	 	42702.549	37.6708	 
1170.0	1.0	0.0	7.32844	7.47806	-4.73312	18.89012	30.60198	1.53667	0.65076	97.80725	104.45942	36.38806	0.34395	 	148815.6701	 	4.73314E-5	 	42514.448	37.6202	 
1165.0	1.0	0.0	7.33079	7.47566	-4.76368	18.87307	30.53863	1.53452	0.65167	98.33305	104.88248	36.58929	0.34374	 	160233.4714	 	4.38064E-5	 	42326.599	37.5698	 
1160.0	1.0	0.0	7.33314	7.47326	-4.7942	18.85602	30.47528	1.53236	0.65259	98.85959	105.30521	36.79086	0.34353	 	172620.4156	 	4.05216E-5	 	42139.0	37.5198	 
1155.0	1.0	0.0	7.33549	7.47087	-4.82467	18.83898	30.41192	1.5302	0.65351	99.38684	105.72758	36.99275	0.34333	 	186066.3846	 	3.74621E-5	 	41951.65	37.47	 
1150.0	1.0	0.0	7.33784	7.46848	-4.8551	18.82194	30.34856	1.52802	0.65444	99.91478	106.14957	37.19496	0.34312	 	200670.2843	 	3.46142E-5	 	41764.547	37.4206	 
1145.0	1.0	0.0	7.34018	7.4661	-4.88547	18.80492	30.2852	1.52584	0.65538	100.44339	106.57117	37.39748	0.34292	 	216541.0185	 	3.19646E-5	 	41577.69	37.3714	 
1140.0	1.0	0.0	7.34252	7.46372	-4.9158	18.7879	30.22184	1.52365	0.65632	100.97265	106.99235	37.6003	0.34271	 	233798.5745	 	2.95008E-5	 	41391.077	37.3226	 
1135.0	1.0	0.0	7.34486	7.46134	-4.94608	18.77088	30.15847	1.52145	0.65727	101.50253	107.41309	37.80343	0.3425	 	252575.2354	 	2.7211E-5	 	41204.706	37.2742	 
1130.0	1.0	0.0	7.3472	7.45897	-4.97631	18.75388	30.09511	1.51924	0.65822	102.03302	107.83337	38.00683	0.3423	 	273016.9333	 	2.50843E-5	 	41018.577	37.2258	 
1125.0	1.0	0.0	7.34953	7.4566	-5.0065	18.73688	30.03174	1.51702	0.65919	102.5641	108.25318	38.21052	0.34209	 	295284.7621	 	2.311E-5	 	40832.687	37.178	 
1120.0	1.0	0.0	7.35186	7.45423	-5.03664	18.71988	29.96836	1.51479	0.66016	103.09574	108.67249	38.41449	0.34189	 	319556.6692	 	2.12783E-5	 	40647.034	37.1306	 
1115.0	1.0	0.0	7.35419	7.45187	-5.06673	18.7029	29.90499	1.51255	0.66113	103.62793	109.09128	38.61872	0.34168	 	346029.3486	 	1.95799E-5	 	40461.618	37.0832	 
1110.0	1.0	0.0	7.35652	7.44951	-5.09677	18.68592	29.84161	1.51031	0.66212	104.16064	109.50954	38.8232	0.34147	 	374920.3611	 	1.8006E-5	 	40276.436	37.0364	 
1105.0	1.0	0.0	7.35885	7.44716	-5.12676	18.66895	29.77823	1.50805	0.66311	104.69386	109.92724	39.02794	0.34127	 	406470.5107	 	1.65483E-5	 	40091.486	36.99	 
1100.0	1.0	0.0	7.36117	7.44481	-5.15671	18.65198	29.71484	1.50578	0.66411	105.22756	110.34437	39.23293	0.34106	 	440946.5097	 	1.51991E-5	 	39906.766	36.944	 
1095.0	1.0	0.0	7.36349	7.44246	-5.18661	18.63502	29.65146	1.50351	0.66511	105.76173	110.76091	39.43815	0.34086	 	478643.9694	 	1.39511E-5	 	39722.276	36.898	 
1090.0	1.0	0.0	7.36581	7.44012	-5.21646	18.61807	29.58807	1.50122	0.66612	106.29635	111.17683	39.64359	0.34065	 	519890.7604	 	1.27973E-5	 	39538.012	36.8528	 
1085.0	1.0	0.0	7.36813	7.43778	-5.24627	18.60113	29.52468	1.49893	0.66714	106.83138	111.59213	39.84926	0.34044	 	565050.789	 	1.17313E-5	 	39353.974	36.8076	 
1080.0	1.0	0.0	7.37044	7.43544	-5.27602	18.58419	29.46128	1.49662	0.66817	107.36683	112.00677	40.05515	0.34024	 	614528.2448	 	1.07471E-5	 	39170.158	36.7632	 
1075.0	1.0	0.0	7.37276	7.43311	-5.30573	18.56726	29.39789	1.49431	0.66921	107.90266	112.42076	40.26124	0.34003	 	668772.3836	 	9.8389E-6	 	38986.563	36.719	 
1070.0	1.0	0.0	7.37507	7.43078	-5.3354	18.55034	29.33449	1.49198	0.67025	108.43886	112.83405	40.46753	0.33983	 	728282.9147	 	9.00142E-6	 	38803.187	36.6752	 
1065.0	1.0	0.0	7.37737	7.42846	-5.36501	18.53342	29.27109	1.48965	0.6713	108.9754	113.24665	40.67401	0.33962	 	793616.0763	 	8.22964E-6	 	38620.027	36.632	 
1060.0	1.0	0.0	7.37968	7.42614	-5.39458	18.51651	29.20768	1.4873	0.67236	109.51227	113.65853	40.88069	0.33941	 	865391.4896	 	7.51888E-6	 	38437.082	36.589	 
1055.0	1.0	0.0	7.38198	7.42382	-5.4241	18.49961	29.14427	1.48495	0.67342	110.04945	114.06967	41.08753	0.33921	 	944299.9003	 	6.86474E-6	 	38254.35	36.5464	 
1050.0	1.0	0.0	7.38428	7.42151	-5.45357	18.48271	29.08086	1.48258	0.6745	110.58691	114.48006	41.29455	0.339	 	1031111.927	 	6.26311E-6	 	38071.827	36.5046	 
1045.0	1.0	0.0	7.38658	7.4192	-5.483	18.46582	29.01745	1.48021	0.67558	111.12465	114.88968	41.50174	0.3388	 	1126687.956	 	5.71015E-6	 	37889.512	36.463	 
1040.0	1.0	0.0	7.38888	7.41689	-5.51238	18.44894	28.95404	1.47782	0.67667	111.66264	115.29852	41.70908	0.33859	 	1231989.347	 	5.20228E-6	 	37707.403	36.4218	 
1035.0	1.0	0.0	7.39118	7.41459	-5.54171	18.43206	28.89062	1.47543	0.67777	112.20086	115.70655	41.91657	0.33838	 	1348091.122	 	4.73615E-6	 	37525.496	36.3814	 
1030.0	1.0	0.0	7.39347	7.41229	-5.57099	18.4152	28.8272	1.47302	0.67888	112.73929	116.11376	42.12421	0.33818	 	1476196.359	 	4.30861E-6	 	37343.791	36.341	 
1025.0	1.0	0.0	7.39576	7.40999	-5.60023	18.39833	28.76377	1.47061	0.67999	113.27791	116.52013	42.33198	0.33797	 	1617652.527	 	3.91675E-6	 	37162.283	36.3016	 
1020.0	1.0	0.0	7.39804	7.4077	-5.62942	18.38148	28.70035	1.46818	0.68112	113.81671	116.92565	42.53988	0.33776	 	1773970.035	 	3.55786E-6	 	36980.971	36.2624	 
1015.0	1.0	0.0	7.40033	7.40541	-5.65856	18.36463	28.63692	1.46574	0.68225	114.35566	117.3303	42.7479	0.33756	 	1946843.33	 	3.2294E-6	 	36799.851	36.224	 
1010.0	1.0	0.0	7.40261	7.40313	-5.68766	18.34779	28.57349	1.4633	0.68339	114.89476	117.73407	42.95604	0.33735	 	2138174.894	 	2.92901E-6	 	36618.922	36.1858	 
1005.0	1.0	0.0	7.40489	7.40085	-5.71671	18.33096	28.51005	1.46084	0.68454	115.43396	118.13694	43.16429	0.33715	 	2350102.575	 	2.65449E-6	 	36438.18	36.1484	 
1000.0	1.0	0.0	7.40717	7.39857	-5.74571	18.31413	28.44662	1.45837	0.6857	115.97327	118.5389	43.37263	0.33694	 	2585030.747	 	2.40381E-6	 	36257.623	36.1114	 
995.0	1.0	0.0	7.40945	7.3963	-5.77467	18.29731	28.38318	1.45589	0.68687	116.51266	118.93992	43.58108	0.33673	 	2845665.855	 	2.17507E-6	 	36077.247	36.0752	 
990.0	1.0	0.0	7.41172	7.39403	-5.80357	18.28049	28.31973	1.45339	0.68804	117.05212	119.34	43.78961	0.33653	 	3135057.008	 	1.96651E-6	 	35897.049	36.0396	 
985.0	1.0	0.0	7.41399	7.39177	-5.83244	18.26369	28.25629	1.45089	0.68923	117.59162	119.73911	43.99822	0.33632	 	3456642.38	 	1.7765E-6	 	35717.028	36.0042	 
980.0	1.0	0.0	7.41626	7.3895	-5.86125	18.24689	28.19284	1.44838	0.69043	118.13114	120.13725	44.2069	0.33612	 	3814302.293	 	1.60352E-6	 	35537.178	35.97	 
975.0	1.0	0.0	7.41853	7.38725	-5.89002	18.2301	28.12939	1.44585	0.69163	118.67067	120.5344	44.41566	0.33591	 	4212420.011	 	1.44618E-6	 	35357.497	35.9362	 
970.0	1.0	0.0	7.4208	7.38499	-5.91874	18.21331	28.06593	1.44332	0.69285	119.21019	120.93054	44.62447	0.3357	 	4655951.424	 	1.30317E-6	 	35177.983	35.9028	 
965.0	1.0	0.0	7.42306	7.38274	-5.94741	18.19653	28.00247	1.44077	0.69407	119.74969	121.32566	44.83334	0.3355	 	5150505.001	 	1.1733E-6	 	34998.63	35.8706	 
960.0	1.0	0.0	7.42532	7.38049	-5.97604	18.17976	27.93901	1.43821	0.69531	120.28913	121.71974	45.04225	0.33529	 	5702433.627	 	1.05546E-6	 	34819.436	35.8388	 
955.0	1.0	0.0	7.42758	7.37825	-6.00462	18.16299	27.87555	1.43564	0.69655	120.82851	122.11278	45.2512	0.33509	 	6318940.168	 	9.48623E-7	 	34640.397	35.8078	 
950.0	1.0	0.0	7.42983	7.37601	-6.03315	18.14624	27.81209	1.43306	0.69781	121.36781	122.50475	45.46019	0.33488	 	7008198.969	 	8.51844E-7	 	34461.509	35.7776	 
945.0	1.0	0.0	7.43208	7.37377	-6.06164	18.12948	27.74862	1.43046	0.69907	121.90701	122.89565	45.66921	0.33467	 	7779495.813	 	7.64251E-7	 	34282.769	35.748	 
940.0	1.0	0.0	7.43433	7.37154	-6.09008	18.11274	27.68515	1.42786	0.70035	122.44609	123.28545	45.87824	0.33447	 	8643389.311	 	6.85042E-7	 	34104.172	35.7194	 
935.0	1.0	0.0	7.43658	7.36931	-6.11848	18.096	27.62167	1.42524	0.70164	122.98503	123.67415	46.08729	0.33426	 	9611897.211	 	6.13477E-7	 	33925.715	35.6914	 
930.0	1.0	0.0	7.43883	7.36709	-6.14682	18.07927	27.5582	1.42261	0.70293	123.52382	124.06172	46.29634	0.33406	 	1.069871169E7	 	5.48877E-7	 	33747.392	35.6646	 
925.0	1.0	0.0	7.44107	7.36487	-6.17512	18.06255	27.49472	1.41997	0.70424	124.06244	124.44817	46.5054	0.33385	 	1.191944837E7	 	4.90616E-7	 	33569.2	35.6384	 
920.0	1.0	0.0	7.44331	7.36265	-6.20338	18.04583	27.43124	1.41732	0.70556	124.60087	124.83347	46.71445	0.33364	 	1.329193479E7	 	4.3812E-7	 	33391.134	35.6132	 
915.0	1.0	0.0	7.44555	7.36043	-6.23159	18.02912	27.36775	1.41465	0.70689	125.13909	125.21761	46.92348	0.33344	 	1.483654468E7	 	3.90864E-7	 	33213.19	35.5888	 
910.0	1.0	0.0	7.44779	7.35822	-6.25975	18.01242	27.30426	1.41198	0.70823	125.67708	125.60057	47.1325	0.33323	 	1.657658601E7	 	3.48363E-7	 	33035.362	35.5656	 
905.0	1.0	0.0	7.45002	7.35602	-6.28786	17.99572	27.24077	1.40929	0.70958	126.21484	125.98235	47.34148	0.33303	 	1.853875188E7	 	3.10175E-7	 	32857.645	35.5434	 
900.0	1.0	0.0	7.45226	7.35381	-6.31593	17.97903	27.17728	1.40658	0.71094	126.75233	126.36292	47.55044	0.33282	 	2.075364489E7	 	2.75896E-7	 	32680.035	35.522	 
895.0	1.0	0.0	7.45449	7.35161	-6.34395	17.96235	27.11379	1.40387	0.71232	127.28954	126.74229	47.75935	0.33261	 	2.325638785E7	 	2.45156E-7	 	32502.526	35.5018	 
890.0	1.0	0.0	7.45671	7.34942	-6.37193	17.94567	27.05029	1.40114	0.7137	127.82645	127.12042	47.96822	0.33241	 	2.608733571E7	 	2.17617E-7	 	32325.113	35.4826	 
885.0	1.0	0.0	7.45894	7.34723	-6.39986	17.92901	26.98679	1.3984	0.7151	128.36305	127.49732	48.17704	0.3322	 	2.929290663E7	 	1.9297E-7	 	32147.788	35.465	 
880.0	1.0	0.0	7.46116	7.34504	-6.42774	17.91234	26.92329	1.39565	0.71651	128.89932	127.87296	48.38579	0.332	 	3.292655307E7	 	1.70933E-7	 	31970.548	35.448	 
875.0	1.0	0.0	7.46338	7.34285	-6.45558	17.89569	26.85979	1.39288	0.71794	129.43524	128.24734	48.59448	0.33179	 	3.7049898E7	 	1.51251E-7	 	31793.385	35.4326	 
870.0	1.0	0.0	7.4656	7.34067	-6.48337	17.87904	26.79629	1.3901	0.71937	129.9708	128.62044	48.8031	0.33158	 	4.17340659E7	 	1.3369E-7	 	31616.292	35.4186	 
865.0	1.0	0.0	7.46782	7.33849	-6.51111	17.8624	26.73278	1.38731	0.72082	130.50596	128.99224	49.01163	0.33138	 	4.706124376E7	 	1.18038E-7	 	31439.264	35.4056	 
860.0	1.0	0.0	7.47003	7.33632	-6.53881	17.84577	26.66927	1.3845	0.72228	131.04073	129.36275	49.22008	0.33117	 	5.312651423E7	 	1.04103E-7	 	31262.293	35.3942	 
855.0	1.0	0.0	7.47224	7.33415	-6.56646	17.82914	26.60576	1.38168	0.72375	131.57508	129.73193	49.42843	0.33097	 	6.004001101E7	 	9.17092E-8	 	31085.371	35.3844	 
850.0	1.0	0.0	7.47445	7.33198	-6.59406	17.81252	26.54225	1.37885	0.72524	132.10899	130.09979	49.63669	0.33076	 	6.792945633E7	 	8.06987E-8	 	30908.492	35.3758	 
845.0	1.0	0.0	7.47665	7.32982	-6.62162	17.7959	26.47874	1.37601	0.72674	132.64244	130.46631	49.84484	0.33055	 	7.694315214E7	 	7.09279E-8	 	30731.646	35.3692	 
840.0	1.0	0.0	7.47886	7.32766	-6.64914	17.7793	26.41523	1.37315	0.72825	133.17543	130.83148	50.05288	0.33035	 	8.725351077E7	 	6.22669E-8	 	30554.827	35.3638	 
835.0	1.0	0.0	7.48106	7.3255	-6.6766	17.7627	26.35172	1.37027	0.72978	133.70793	131.19528	50.2608	0.33014	 	9.906122782E7	 	5.45986E-8	 	30378.024	35.3606	 
830.0	1.0	0.0	7.48326	7.32335	-6.70403	17.7461	26.28821	1.36739	0.73132	134.23992	131.55771	50.46859	0.32994	 	1.126002207E8	 	4.7817E-8	 	30201.23	35.3588	 
825.0	1.0	0.0	7.48545	7.3212	-6.7314	17.72952	26.22469	1.36449	0.73288	134.77139	131.91875	50.67625	0.32973	 	1.281434813E8	 	4.18265E-8	 	30024.434	35.3592	 
820.0	1.0	0.0	7.48765	7.31906	-6.75873	17.71294	26.16118	1.36157	0.73445	135.30232	132.27839	50.88377	0.32952	 	1.460100214E8	 	3.65413E-8	 	29847.626	35.3616	 
815.0	1.0	0.0	7.48984	7.31691	-6.78601	17.69637	26.09767	1.35864	0.73603	135.83269	132.63662	51.09115	0.32932	 	1.665731265E8	 	3.18838E-8	 	29670.796	35.366	 
810.0	1.0	0.0	7.49203	7.31478	-6.81325	17.6798	26.03416	1.3557	0.73763	136.36249	132.99343	51.29837	0.32911	 	1.902701786E8	 	2.77846E-8	 	29493.933	35.3726	 
805.0	1.0	0.0	7.49422	7.31264	-6.84044	17.66324	25.97064	1.35274	0.73924	136.8917	133.3488	51.50544	0.32891	 	2.176143616E8	 	2.41812E-8	 	29317.025	35.3816	 
800.0	1.0	0.0	7.4964	7.31051	-6.86759	17.64669	25.90713	1.34977	0.74087	137.42031	133.70273	51.71235	0.3287	 	2.492086323E8	 	2.10176E-8	 	29140.059	35.3932	 
795.0	1.0	0.0	7.49858	7.30838	-6.89469	17.63015	25.84362	1.34678	0.74251	137.94829	134.0552	51.91908	0.32849	 	2.857624188E8	 	1.82437E-8	 	28963.024	35.407	 
790.0	1.0	0.0	7.50076	7.30626	-6.92174	17.61361	25.78012	1.34378	0.74417	138.47563	134.40621	52.12564	0.32829	 	3.281116077E8	 	1.58147E-8	 	28785.905	35.4238	 
785.0	1.0	0.0	7.50294	7.30414	-6.94875	17.59708	25.71661	1.34076	0.74585	139.00231	134.75574	52.33201	0.32808	 	3.772425063E8	 	1.36903E-8	 	28608.687	35.4436	 
780.0	1.0	0.0	7.50511	7.30202	-6.97571	17.58056	25.65311	1.33773	0.74754	139.52832	135.10378	52.53819	0.32788	 	4.343206107E8	 	1.1835E-8	 	28431.356	35.4662	 
775.0	1.0	0.0	7.50728	7.29991	-7.00263	17.56404	25.5896	1.33468	0.74924	140.05364	135.45032	52.74418	0.32767	 	5.007252007E8	 	1.02167E-8	 	28253.894	35.4924	 
770.0	1.0	0.0	7.50945	7.2978	-7.0295	17.54753	25.5261	1.33162	0.75097	140.57825	135.79536	52.94996	0.32746	 	5.780910041E8	 	8.80719E-9	 	28076.286	35.5216	 
765.0	1.0	0.0	7.51162	7.2957	-7.05632	17.53103	25.4626	1.32854	0.75271	141.10214	136.13887	53.15554	0.32726	 	6.683584558E8	 	7.58119E-9	 	27898.512	35.5548	 
760.0	1.0	0.0	7.51379	7.29359	-7.0831	17.51453	25.39911	1.32545	0.75446	141.62529	136.48085	53.3609	0.32705	 	7.738344232E8	 	6.51631E-9	 	27720.553	35.5918	 
755.0	1.0	0.0	7.51595	7.2915	-7.10984	17.49804	25.33561	1.32234	0.75624	142.14768	136.82129	53.56604	0.32685	 	8.972656955E8	 	5.59271E-9	 	27542.387	35.6332	 
750.0	1.0	0.0	7.51811	7.2894	-7.13653	17.48156	25.27212	1.31921	0.75803	142.6693	137.16018	53.77096	0.32664	 	1.041928068E9	 	4.79279E-9	 	27363.993	35.6788	 
745.0	1.0	0.0	7.52027	7.28731	-7.16317	17.46508	25.20863	1.31607	0.75984	143.19013	137.49751	53.97563	0.32643	 	1.211734511E9	 	4.10101E-9	 	27185.346	35.7294	 
740.0	1.0	0.0	7.52242	7.28522	-7.18977	17.44861	25.14514	1.31292	0.76166	143.71016	137.83327	54.18007	0.32623	 	1.411366739E9	 	3.50365E-9	 	27006.421	35.785	 
735.0	1.0	0.0	7.52457	7.28314	-7.21632	17.43215	25.08165	1.30974	0.76351	144.22937	138.16745	54.38427	0.32602	 	1.646435511E9	 	2.9886E-9	 	26827.19	35.8462	 
730.0	1.0	0.0	7.52673	7.28106	-7.24282	17.4157	25.01817	1.30656	0.76537	144.74774	138.50004	54.58821	0.32582	 	1.923676284E9	 	2.54519E-9	 	26647.623	35.9134	 
725.0	1.0	0.0	7.52887	7.27898	-7.26928	17.39925	24.95469	1.30335	0.76725	145.26525	138.83102	54.79189	0.32561	 	2.251188441E9	 	2.16407E-9	 	26467.688	35.987	 
720.0	1.0	0.0	7.53102	7.27691	-7.2957	17.38281	24.8912	1.30013	0.76915	145.7819	139.1604	54.99531	0.3254	 	2.638728315E9	 	1.83699E-9	 	26287.351	36.0674	 
715.0	1.0	0.0	7.53316	7.27484	-7.32207	17.36637	24.82772	1.29689	0.77107	146.29766	139.48815	55.19845	0.3252	 	3.098068774E9	 	1.55675E-9	 	26106.573	36.1556	 
710.0	1.0	0.0	7.5353	7.27277	-7.34839	17.34994	24.76425	1.29364	0.77301	146.81252	139.81428	55.40132	0.32499	 	3.643441298E9	 	1.31703E-9	 	25925.313	36.252	 
705.0	1.0	0.0	7.53744	7.27071	-7.37467	17.33352	24.70077	1.29037	0.77497	147.32646	140.13877	55.60391	0.32479	 	4.292080481E9	 	1.11231E-9	 	25743.528	36.357	 
700.0	1.0	0.0	7.53957	7.26865	-7.40091	17.31711	24.63729	1.28708	0.77695	147.83947	140.46161	55.80621	0.32458	 	5.064895992E9	 	9.37769E-10	 	25561.168	36.472	 
695.0	1.0	0.0	7.54171	7.26659	-7.4271	17.3007	24.57381	1.28377	0.77895	148.35153	140.78279	56.00821	0.32437	 	5.987303409E9	 	7.8922E-10	 	25378.182	36.5972	 
690.0	1.0	0.0	7.54384	7.26454	-7.45324	17.2843	24.51033	1.28045	0.78098	148.86262	141.1023	56.20991	0.32417	 	7.090253517E9	 	6.63008E-10	 	25194.51	36.7344	 
685.0	1.0	0.0	7.54597	7.26249	-7.47934	17.26791	24.44684	1.27711	0.78302	149.37273	141.42014	56.4113	0.32396	 	8.411510012E9	 	5.55963E-10	 	25010.089	36.8842	 
680.0	1.0	0.0	7.54809	7.26045	-7.50539	17.25153	24.38336	1.27375	0.78508	149.88185	141.7363	56.61238	0.32376	 	9.99723876E9	 	4.65337E-10	 	24824.85	37.0478	 
675.0	1.0	0.0	7.55021	7.2584	-7.5314	17.23515	24.31987	1.27038	0.78717	150.38995	142.05076	56.81314	0.32355	 	1.1903999999999998E10	 	3.88751E-10	 	24638.715	37.227	 
670.0	1.0	0.0	7.55233	7.25637	-7.55736	17.21877	24.25637	1.26699	0.78927	150.89703	142.36352	57.01357	0.32334	 	1.4201199999999998E10	 	3.24148E-10	 	24451.6	37.423	 
665.0	1.0	0.0	7.55445	7.25433	-7.58328	17.20241	24.19288	1.26358	0.7914	151.40307	142.67457	57.21367	0.32314	 	1.6974099999999998E10	 	2.69756E-10	 	24263.411	37.6378	 
660.0	1.0	0.0	7.55657	7.2523	-7.60915	17.18605	24.12937	1.26015	0.79355	151.90804	142.9839	57.41344	0.32293	 	2.03281E10	 	2.24048E-10	 	24074.044	37.8734	 
655.0	1.0	0.0	7.55868	7.25027	-7.63498	17.1697	24.06586	1.25671	0.79573	152.41194	143.2915	57.61286	0.32273	 	2.4392899999999996E10	 	1.85712E-10	 	23883.382	38.1324	 
650.0	1.0	0.0	7.56079	7.24825	-7.66076	17.15335	24.00234	1.25325	0.79793	152.91475	143.59736	57.81193	0.32252	 	2.9329499999999996E10	 	1.53623E-10	 	23691.297	38.417	 
645.0	1.0	0.0	7.5629	7.24623	-7.6865	17.13702	23.93882	1.24977	0.80015	153.41645	143.90148	58.01064	0.32231	 	3.53371E10	 	1.26815E-10	 	23497.645	38.7304	 
640.0	1.0	0.0	7.56501	7.24421	-7.71219	17.12069	23.87528	1.24627	0.8024	153.91704	144.20384	58.20899	0.32211	 	4.26638E10	 	1.04465E-10	 	23297.805	39.968	 
635.0	1.0	0.0	7.56711	7.2422	-7.73784	17.10436	23.81174	1.24275	0.80467	154.41649	144.50445	58.40697	0.3219	 	5.161829999999999E10	 	8.58699E-11	 	23086.608	42.2394	 
630.0	1.0	0.0	7.56921	7.24019	-7.76344	17.08804	23.74818	1.23922	0.80696	154.91478	144.80328	58.60458	0.3217	 	6.258619999999999E10	 	7.04317E-11	 	22877.376	41.8464	 
625.0	1.0	0.0	7.57131	7.23818	-7.789	17.07173	23.68461	1.23566	0.80928	155.41191	145.10033	58.80181	0.32149	 	7.60501E10	 	5.76416E-11	 	22670.037	41.4678	 
620.0	1.0	0.0	7.5734	7.23618	-7.81451	17.05543	23.62103	1.23209	0.81163	155.90786	145.3956	58.99866	0.32128	 	9.26154E10	 	4.70682E-11	 	22464.522	41.103	 
615.0	1.0	0.0	7.57549	7.23418	-7.83998	17.03913	23.55743	1.2285	0.814	156.40261	145.68908	59.19511	0.32108	 	1.13043E11	 	3.83467E-11	 	22260.766	40.7512	 
610.0	1.0	0.0	7.57758	7.23219	-7.8654	17.02284	23.49382	1.22489	0.8164	156.89615	145.98075	59.39116	0.32087	 	1.38294E11	 	3.11688E-11	 	22058.708	40.4116	 
605.0	1.0	0.0	7.57967	7.23019	-7.89078	17.00656	23.4302	1.22127	0.81882	157.38846	146.27061	59.58681	0.32067	 	1.69578E11	 	2.52747E-11	 	21858.289	40.0838	 
600.0	1.0	0.0	7.58176	7.22821	-7.91611	16.99029	23.36656	1.21762	0.82127	157.87953	146.55866	59.78205	0.32046	 	2.08433E11	 	2.0446E-11	 	21659.455	39.7668	 
595.0	1.0	0.0	7.58384	7.22622	-7.9414	16.97402	23.3029	1.21395	0.82375	158.36934	146.84488	59.97688	0.32025	 	2.56809E11	 	1.64995E-11	 	21462.154	39.4602	 
590.0	1.0	0.0	7.58592	7.22424	-7.96664	16.95776	23.23923	1.21027	0.82626	158.85788	147.12926	60.17129	0.32005	 	3.17188E11	 	1.32818E-11	 	21266.335	39.1638	 
585.0	1.0	0.0	7.588	7.22226	-7.99184	16.9415	23.17553	1.20657	0.8288	159.34514	147.41181	60.36527	0.31984	 	3.92742E11	 	1.06645E-11	 	21071.951	38.8768	 
580.0	1.0	0.0	7.59007	7.22029	-8.017	16.92525	23.11182	1.20284	0.83136	159.83109	147.69251	60.55881	0.31964	 	4.87528E11	 	8.54108E-12	 	20878.959	38.5984	 
575.0	1.0	0.0	7.59215	7.21832	-8.04211	16.90901	23.0481	1.1991	0.83396	160.31573	147.97136	60.75192	0.31943	 	6.06753E11	 	6.82256E-12	 	20687.314	38.329	 
570.0	1.0	0.0	7.59422	7.21635	-8.06717	16.89278	22.98435	1.19534	0.83658	160.79903	148.24834	60.94458	0.31922	 	7.57122E11	 	5.43533E-12	 	20496.978	38.0672	 
565.0	1.0	0.0	7.59628	7.21438	-8.09219	16.87655	22.92058	1.19155	0.83924	161.28099	148.52346	61.13679	0.31902	 	9.47284E11	 	4.31845E-12	 	20307.911	37.8134	 
560.0	1.0	0.0	7.59835	7.21242	-8.11717	16.86033	22.8568	1.18775	0.84193	161.76159	148.79669	61.32855	0.31881	 	1.18844E12	 	3.42163E-12	 	20120.078	37.5666	 
555.0	1.0	0.0	7.60041	7.21047	-8.1421	16.84411	22.79299	1.18393	0.84465	162.24081	149.06805	61.51985	0.31861	 	1.49512E12	 	2.70346E-12	 	19933.444	37.3268	 
550.0	1.0	0.0	7.60247	7.20851	-8.16699	16.82791	22.72917	1.18008	0.8474	162.71864	149.33751	61.71068	0.3184	 	1.88625E12	 	2.12994E-12	 	19747.975	37.0938	 
545.0	1.0	0.0	7.60453	7.20656	-8.19183	16.81171	22.66533	1.17622	0.85018	163.19507	149.60508	61.90103	0.31819	 	2.38654E12	 	1.67321E-12	 	19563.641	36.8668	 
540.0	1.0	0.0	7.60658	7.20462	-8.21663	16.79552	22.60147	1.17234	0.853	163.67009	149.87075	62.09091	0.31799	 	3.02837E12	 	1.31053E-12	 	19380.411	36.646	 
535.0	1.0	0.0	7.60863	7.20267	-8.24138	16.77933	22.53759	1.16843	0.85585	164.14367	150.1345	62.2803	0.31778	 	3.85427E12	 	1.02338E-12	 	19198.258	36.4306	 
530.0	1.0	0.0	7.61068	7.20073	-8.26609	16.76315	22.47369	1.1645	0.85874	164.6158	150.39634	62.46921	0.31758	 	4.92031E12	 	7.96693E-13	 	19017.154	36.2208	 
525.0	1.0	0.0	7.61273	7.1988	-8.29076	16.74698	22.40978	1.16055	0.86166	165.08647	150.65626	62.65761	0.31737	 	6.30062E12	 	6.18283E-13	 	18837.074	36.016	 
520.0	1.0	0.0	7.61477	7.19687	-8.31538	16.73081	22.34585	1.15658	0.86462	165.55566	150.91424	62.84552	0.31716	 	8.0936E12	 	4.783E-13	 	18657.992	35.8164	 
515.0	1.0	0.0	7.61682	7.19494	-8.33995	16.71465	22.2819	1.15259	0.86761	166.02337	151.17029	63.03292	0.31696	 	1.04302E13	 	3.68811E-13	 	18479.887	35.621	 
510.0	1.0	0.0	7.61886	7.19301	-8.36449	16.6985	22.21794	1.14857	0.87065	166.48958	151.4244	63.21981	0.31675	 	1.34853E13	 	2.83446E-13	 	18302.734	35.4306	 
505.0	1.0	0.0	7.62089	7.19109	-8.38897	16.68236	22.15397	1.14454	0.87372	166.95426	151.67656	63.40618	0.31655	 	1.74935E13	 	2.17107E-13	 	18126.513	35.2442	 
500.0	1.0	0.0	7.62293	7.18917	-8.41342	16.66622	22.08997	1.14048	0.87683	167.41742	151.92676	63.59202	0.31634	 	2.27701E13	 	1.65724E-13	 	17951.204	35.0618	 
495.0	1.0	0.0	7.62496	7.18725	-8.43782	16.65009	22.02597	1.13639	0.87998	167.87903	152.17501	63.77734	0.31613	 	2.97411E13	 	1.26059E-13	 	17776.786	34.8836	 
490.0	1.0	0.0	7.62699	7.18534	-8.46217	16.63396	21.96195	1.13229	0.88317	168.33908	152.42129	63.96212	0.31593	 	3.89835E13	 	9.55468E-14	 	17603.242	34.7088	 
485.0	1.0	0.0	7.62901	7.18343	-8.48648	16.61785	21.89793	1.12816	0.8864	168.79756	152.6656	64.14637	0.31572	 	5.12821E13	 	7.21566E-14	 	17430.553	34.5378	 
480.0	1.0	0.0	7.63104	7.18153	-8.51075	16.60174	21.83389	1.124	0.88968	169.25445	152.90793	64.33007	0.31552	 	6.77085E13	 	5.42906E-14	 	17258.703	34.37	 
475.0	1.0	0.0	7.63306	7.17963	-8.53497	16.58563	21.76984	1.11983	0.89299	169.70975	153.14827	64.51321	0.31531	 	8.97316E13	 	4.0694E-14	 	17087.674	34.2058	 
470.0	1.0	0.0	7.63508	7.17773	-8.55915	16.56954	21.70578	1.11563	0.89636	170.16343	153.38663	64.69581	0.3151	 	1.19372E14	 	3.0385E-14	 	16917.452	34.0444	 
465.0	1.0	0.0	7.63709	7.17584	-8.58329	16.55345	21.64171	1.1114	0.89977	170.61549	153.623	64.87784	0.3149	 	1.59424E14	 	2.25984E-14	 	16748.021	33.8862	 
460.0	1.0	0.0	7.6391	7.17394	-8.60738	16.53736	21.57763	1.10715	0.90322	171.0659	153.85737	65.0593	0.31469	 	2.1376E14	 	1.67399E-14	 	16579.367	33.7308	 
455.0	1.0	0.0	7.64111	7.17206	-8.63143	16.52129	21.51355	1.10288	0.90672	171.51467	154.08973	65.2402	0.31449	 	2.8778E14	 	1.23494E-14	 	16411.476	33.5782	 
450.0	1.0	0.0	7.64312	7.17017	-8.65543	16.50522	21.44946	1.09858	0.91027	171.96177	154.32008	65.42051	0.31428	 	3.89037E14	 	9.07244E-15	 	16244.335	33.4282	 
445.0	1.0	0.0	7.64513	7.16829	-8.67939	16.48916	21.38536	1.09425	0.91387	172.40719	154.54842	65.60025	0.31407	 	5.2814599999999994E14	 	6.63663E-15	 	16077.93	33.281	 
440.0	1.0	0.0	7.64713	7.16641	-8.70331	16.4731	21.32126	1.0899	0.91752	172.85092	154.77474	65.77939	0.31387	 	7.20095E14	 	4.83368E-15	 	15912.251	33.1358	 
435.0	1.0	0.0	7.64913	7.16454	-8.72718	16.45705	21.25716	1.08552	0.92122	173.29294	154.99904	65.95795	0.31366	 	9.86134E14	 	3.5049E-15	 	15747.284	32.9934	 
430.0	1.0	0.0	7.65113	7.16267	-8.75101	16.44101	21.19305	1.08112	0.92497	173.73326	155.22131	66.13591	0.31346	 	1.35655E15	 	2.52988E-15	 	15583.018	32.8532	 
425.0	1.0	0.0	7.65312	7.1608	-8.77479	16.42498	21.12893	1.07669	0.92878	174.17184	155.44155	66.31326	0.31325	 	1.87467E15	 	1.81765E-15	 	15419.443	32.715	 
420.0	1.0	0.0	7.65512	7.15894	-8.79853	16.40895	21.06482	1.07223	0.93264	174.60868	155.65975	66.49001	0.31304	 	2.60288E15	 	1.29975E-15	 	15256.548	32.579	 
415.0	1.0	0.0	7.6571	7.15708	-8.82223	16.39293	21.0007	1.06774	0.93655	175.04376	155.87591	66.66614	0.31284	 	3.6313E15	 	9.24927E-16	 	15094.323	32.445	 
410.0	1.0	0.0	7.65909	7.15522	-8.84588	16.37692	20.93658	1.06323	0.94053	175.47709	156.09003	66.84166	0.31263	 	5.09092E15	 	6.54947E-16	 	14932.758	32.313	 
405.0	1.0	0.0	7.66108	7.15337	-8.86949	16.36091	20.87245	1.05869	0.94456	175.90863	156.30209	67.01656	0.31243	 	7.17304E15	 	4.61434E-16	 	14771.843	32.183	 
400.0	1.0	0.0	7.66306	7.15152	-8.89305	16.34491	20.80833	1.05413	0.94865	176.33838	156.51211	67.19082	0.31222	 	1.01585E16	 	3.23421E-16	 	14611.57	32.0546	 
395.0	1.0	0.0	7.66504	7.14967	-8.91658	16.32892	20.7442	1.04953	0.95281	176.76634	156.72006	67.36446	0.31201	 	1.4462E16	 	2.25492E-16	 	14451.929	31.9282	 
390.0	1.0	0.0	7.66701	7.14783	-8.94005	16.31293	20.68007	1.04491	0.95702	177.19248	156.92596	67.53746	0.31181	 	2.0699E16	 	1.56369E-16	 	14292.912	31.8034	 
385.0	1.0	0.0	7.66899	7.14599	-8.96349	16.29695	20.61594	1.04025	0.9613	177.6168	157.1298	67.70982	0.3116	 	2.97881E16	 	1.07837E-16	 	14134.511	31.6802	 
380.0	1.0	0.0	7.67096	7.14416	-8.98688	16.28098	20.55181	1.03557	0.96565	178.03928	157.33157	67.88154	0.3114	 	4.31087E16	 	7.39495E-17	 	13976.718	31.5586	 
375.0	1.0	0.0	7.67293	7.14232	-9.01023	16.26501	20.48767	1.03086	0.97006	178.45991	157.53127	68.0526	0.31119	 	6.27439E16	 	5.04186E-17	 	13819.524	31.4388	 
370.0	1.0	0.0	7.67489	7.14049	-9.03353	16.24905	20.42353	1.02612	0.97454	178.87869	157.7289	68.22301	0.31099	 	9.18586E16	 	3.41727E-17	 	13662.924	31.32	 
365.0	1.0	0.0	7.67685	7.13867	-9.05679	16.2331	20.3594	1.02135	0.97909	179.2956	157.92445	68.39276	0.31078	 	1.35291E17	 	2.30218E-17	 	13506.908	31.2032	 
360.0	1.0	0.0	7.67881	7.13684	-9.08001	16.21716	20.29526	1.01655	0.98372	179.71064	158.11793	68.56185	0.31057	 	2.00486E17	 	1.54138E-17	 	13351.472	31.0872	 
355.0	1.0	0.0	7.68077	7.13503	-9.10318	16.20122	20.23111	1.01172	0.98841	180.12378	158.30933	68.73027	0.31037	 	2.98967E17	 	1.02548E-17	 	13196.606	30.9732	 
350.0	1.0	0.0	7.68273	7.13321	-9.12631	16.18529	20.16697	1.00686	0.99319	180.53503	158.49865	68.89801	0.31016	 	4.48698E17	 	6.77836E-18	 	13042.306	30.86	 
345.0	1.0	0.0	7.68468	7.1314	-9.1494	16.16936	20.10282	1.00197	0.99803	180.94437	158.68588	69.06509	0.30996	 	6.77868E17	 	4.45078E-18	 	12888.565	30.7482	 
340.0	1.0	0.0	7.68663	7.12959	-9.17244	16.15345	20.03867	0.99705	1.00296	181.35179	158.87103	69.23148	0.30975	 	1.03101E18	 	2.90261E-18	 	12735.376	30.6378	 
335.0	1.0	0.0	7.68858	7.12778	-9.19544	16.13754	19.97451	0.99209	1.00797	181.75728	159.0541	69.39719	0.30954	 	1.57901E18	 	1.87981E-18	 	12582.733	30.5286	 
330.0	1.0	0.0	7.69052	7.12598	-9.2184	16.12163	19.91035	0.98711	1.01306	182.16084	159.23507	69.56221	0.30934	 	2.43546E18	 	1.20874E-18	 	12430.631	30.4204	 
325.0	1.0	0.0	7.69246	7.12418	-9.24132	16.10574	19.84619	0.98209	1.01824	182.56245	159.41396	69.72654	0.30913	 	3.7838E18	 	7.71559E-19	 	12279.065	30.3132	 
320.0	1.0	0.0	7.6944	7.12239	-9.26419	16.08985	19.78203	0.97704	1.0235	182.9621	159.59076	69.89018	0.30893	 	5.92253E18	 	4.88814E-19	 	12128.028	30.2074	 
315.0	1.0	0.0	7.69634	7.1206	-9.28701	16.07396	19.71786	0.97195	1.02885	183.3598	159.76547	70.05311	0.30872	 	9.34116E18	 	3.07308E-19	 	11977.516	30.1024	 
310.0	1.0	0.0	7.69827	7.11881	-9.3098	16.05809	19.65368	0.96684	1.0343	183.75552	159.93809	70.21535	0.30851	 	1.48488E19	 	1.91679E-19	 	11827.523	29.9986	 
305.0	1.0	0.0	7.7002	7.11702	-9.33254	16.04222	19.5895	0.96169	1.03984	184.14927	160.10862	70.37688	0.30831	 	2.37942E19	 	1.18592E-19	 	11678.045	29.8956	 
300.0	1.0	0.0	7.70213	7.11524	-9.35524	16.02636	19.52531	0.95651	1.04547	184.54103	160.27706	70.5377	0.3081	 	3.8444E19	 	7.27657E-20	 	11529.076	29.7938	 
295.0	1.0	0.0	7.70406	7.11346	-9.37789	16.0105	19.46112	0.95129	1.0512	184.9308	160.44341	70.69782	0.3079	 	6.26408E19	 	4.42683E-20	 	11380.612	29.6928	 
290.0	1.0	0.0	7.70598	7.11169	-9.40051	15.99465	19.39692	0.94604	1.05704	185.31857	160.60768	70.85721	0.30769	 	1.02957E20	 	2.66965E-20	 	11232.649	29.5926	 
285.0	1.0	0.0	7.7079	7.10992	-9.42308	15.97881	19.33272	0.94075	1.06298	185.70434	160.76986	71.0159	0.30748	 	1.70736E20	 	1.59556E-20	 	11085.182	29.4934	 
280.0	1.0	0.0	7.70982	7.10815	-9.4456	15.96298	19.2685	0.93543	1.06902	186.08809	160.92995	71.17386	0.30728	 	2.8573899999999997E20	 	9.44843E-21	 	10938.207	29.395	 
275.0	1.0	0.0	7.71173	7.10638	-9.46808	15.94715	19.20428	0.93008	1.07518	186.46983	161.08797	71.3311	0.30707	 	4.8272399999999993E20	 	5.54227E-21	 	10791.719	29.2976	 
270.0	1.0	0.0	7.71364	7.10462	-9.49052	15.93133	19.14006	0.92469	1.08145	186.84955	161.2439	71.48762	0.30687	 	8.23425E20	 	3.21945E-21	 	10645.716	29.2006	 
265.0	1.0	0.0	7.71555	7.10286	-9.51292	15.91552	19.07582	0.91926	1.08783	187.22724	161.39775	71.64341	0.30666	 	1.41861E21	 	1.85151E-21	 	10500.193	29.1046	 
260.0	1.0	0.0	7.71746	7.10111	-9.53528	15.89971	19.01158	0.9138	1.09434	187.60291	161.54953	71.79847	0.30645	 	2.46909E21	 	1.0539E-21	 	10355.147	29.0092	 
255.0	1.0	0.0	7.71936	7.09936	-9.55759	15.88391	18.94733	0.9083	1.10096	187.97654	161.69924	71.95281	0.30625	 	4.34281E21	 	5.93572E-22	 	10210.574	28.9146	 
250.0	1.0	0.0	7.72126	7.09761	-9.57986	15.86812	18.88306	0.90276	1.10772	188.34813	161.84688	72.10641	0.30604	 	7.72139E21	 	3.30687E-22	 	10066.471	28.8206	 
245.0	1.0	0.0	7.72316	7.09586	-9.60208	15.85233	18.81879	0.89718	1.1146	188.71769	161.99247	72.25928	0.30584	 	1.3881799999999999E22	 	1.82178E-22	 	9922.834	28.7274	 
240.0	1.0	0.0	7.72506	7.09412	-9.62427	15.83655	18.75451	0.89157	1.12161	189.0852	162.13599	72.41142	0.30563	 	2.5244499999999998E22	 	9.92122E-23	 	9779.661	28.6346	 
235.0	1.0	0.0	7.72695	7.09238	-9.64641	15.82078	18.69022	0.88592	1.12877	189.45068	162.27746	72.56283	0.30543	 	4.64514E22	 	5.33924E-23	 	9636.949	28.5424	 
230.0	1.0	0.0	7.72884	7.09065	-9.6685	15.80501	18.62592	0.88023	1.13606	189.81411	162.41689	72.7135	0.30522	 	8.65163E22	 	2.83848E-23	 	9494.694	28.451	 
225.0	1.0	0.0	7.73073	7.08892	-9.69056	15.78925	18.56161	0.8745	1.1435	190.1755	162.55428	72.86343	0.30501	 	1.63163E23	 	1.49013E-23	 	9352.895	28.3598	 
220.0	1.0	0.0	7.73261	7.08719	-9.71257	15.7735	18.49729	0.86874	1.1511	190.53486	162.68964	73.01263	0.30481	 	3.1169799999999995E23	 	7.72202E-24	 	9211.548	28.2694	 
215.0	1.0	0.0	7.7345	7.08547	-9.73454	15.75776	18.43296	0.86293	1.15884	190.89217	162.82298	73.1611	0.3046	 	6.034049999999999E23	 	3.94849E-24	 	9070.651	28.1794	 
210.0	1.0	0.0	7.73637	7.08375	-9.75647	15.74202	18.36862	0.85708	1.16675	191.24745	162.9543	73.30883	0.3044	 	1.18419E24	 	1.99134E-24	 	8930.203	28.0896	 
205.0	1.0	0.0	7.73825	7.08203	-9.77835	15.72629	18.30427	0.8512	1.17482	191.60069	163.08361	73.45584	0.30419	 	2.35701E24	 	9.90122E-25	 	8790.201	28.0004	 
200.0	1.0	0.0	7.74012	7.08031	-9.8002	15.71056	18.2399	0.84527	1.18306	191.95191	163.21093	73.60211	0.30398	 	4.7601600000000003E24	 	4.85136E-25	 	8650.642	27.9118	 
195.0	1.0	0.0	7.742	7.0786	-9.82199	15.69485	18.17552	0.8393	1.19147	192.3011	163.33627	73.74764	0.30378	 	9.75897E24	 	2.34136E-25	 	8511.526	27.8232	 
190.0	1.0	0.0	7.74386	7.07689	-9.84375	15.67913	18.11113	0.83329	1.20007	192.64828	163.45963	73.89246	0.30357	 	2.03198E25	 	1.11247E-25	 	8372.851	27.735	 
185.0	1.0	0.0	7.74573	7.07519	-9.86547	15.66343	18.04673	0.82723	1.20885	192.99345	163.58104	74.03654	0.30337	 	4.299210000000001E25	 	5.20122E-26	 	8234.616	27.647	 
180.0	1.0	0.0	7.74759	7.07349	-9.88714	15.64773	17.98231	0.82113	1.21783	193.33662	163.70049	74.17991	0.30316	 	9.24788E25	 	2.39159E-26	 	8096.818	27.5596	 
175.0	1.0	0.0	7.74945	7.07179	-9.90877	15.63204	17.91788	0.81499	1.227	193.67779	163.81802	74.32256	0.30295	 	2.02358E26	 	1.08091E-26	 	7959.458	27.472	 
170.0	1.0	0.0	7.75131	7.0701	-9.93036	15.61636	17.85344	0.80881	1.23638	194.01699	163.93363	74.46449	0.30275	 	4.5068400000000005E26	 	4.79916E-27	 	7822.533	27.385	 
165.0	1.0	0.0	7.75316	7.0684	-9.9519	15.60069	17.78899	0.80258	1.24598	194.35423	164.04733	74.60571	0.30254	 	1.02226E27	 	2.09193E-27	 	7686.044	27.2978	 
160.0	1.0	0.0	7.75502	7.06672	-9.9734	15.58502	17.72452	0.79631	1.25579	194.6895	164.15916	74.74623	0.30234	 	2.3630199999999999E27	 	8.94661E-28	 	7549.99	27.2108	 
155.0	1.0	0.0	7.75687	7.06503	-9.99486	15.56935	17.66004	0.78999	1.26584	195.02285	164.26912	74.88605	0.30213	 	5.5702E27	 	3.75156E-28	 	7414.371	27.1238	 
150.0	1.0	0.0	7.75871	7.06335	-10.01628	15.5537	17.59554	0.78363	1.27612	195.35427	164.37724	75.02517	0.30192	 	1.3399100000000001E28	 	1.54136E-28	 	7279.186	27.037	 
145.0	1.0	0.0	7.76056	7.06167	-10.03766	15.53805	17.53103	0.77722	1.28664	195.68379	164.48354	75.16361	0.30172	 	3.29154E28	 	6.2004E-29	 	7144.436	26.95	 
140.0	1.0	0.0	7.7624	7.06	-10.05899	15.52241	17.4665	0.77076	1.29742	196.01143	164.58803	75.30137	0.30151	 	8.263630000000001E28	 	2.44019E-29	 	7010.12	26.8632	 
135.0	1.0	0.0	7.76423	7.05833	-10.08028	15.50677	17.40196	0.76426	1.30846	196.33721	164.69076	75.43846	0.30131	 	2.12196E29	 	9.38791E-30	 	6876.24	26.776	 
130.0	1.0	0.0	7.76607	7.05666	-10.10153	15.49115	17.3374	0.75771	1.31977	196.66116	164.79173	75.57488	0.3011	 	5.577820000000001E29	 	3.52768E-30	 	6742.797	26.6886	 
125.0	1.0	0.0	7.7679	7.05499	-10.12274	15.47553	17.27282	0.75111	1.33137	196.9833	164.89099	75.71066	0.3009	 	1.5022199999999999E30	 	1.2936E-30	 	6609.791	26.6012	 
120.0	1.0	0.0	7.76973	7.05333	-10.14391	15.45991	17.20824	0.74446	1.34326	197.30367	164.98856	75.8458	0.30069	 	4.14904E30	 	4.62485E-31	 	6477.224	26.5134	 
115.0	1.0	0.0	7.77156	7.05168	-10.16503	15.44431	17.14363	0.73776	1.35546	197.62229	165.08447	75.9803	0.30048	 	1.1763299999999999E31	 	1.61049E-31	 	6345.097	26.4254	 
110.0	1.0	0.0	7.77338	7.05002	-10.18611	15.4287	17.07901	0.73101	1.36797	197.9392	165.17875	76.1142	0.30028	 	3.42707E31	 	5.45674E-32	 	6213.412	26.337	 
105.0	1.0	0.0	7.7752	7.04837	-10.20715	15.41311	17.01437	0.72421	1.38081	198.25444	165.27145	76.24749	0.30007	 	1.02706E32	 	1.79702E-32	 	6082.172	26.248	 
100.0	1.0	0.0	7.77702	7.04672	-10.22815	15.39753	16.94971	0.71736	1.39399	198.56804	165.36259	76.3802	0.29987	 	3.16991E32	 	5.74543E-33	 	5951.38	26.1584	 
95.0	1.0	0.0	7.77884	7.04508	-10.2491	15.38195	16.88503	0.71046	1.40754	198.88006	165.45223	76.51233	0.29966	 	1.00877E33	 	1.78123E-33	 	5821.037	26.0686	 
90.0	1.0	0.0	7.78065	7.04343	-10.27001	15.36637	16.82034	0.70351	1.42145	199.19053	165.5404	76.64392	0.29945	 	3.31422E33	 	5.348E-34	 	5691.148	25.9778	 
85.0	1.0	0.0	7.78246	7.0418	-10.29089	15.35081	16.75562	0.6965	1.43575	199.49951	165.62716	76.77497	0.29925	 	1.1256300000000001E34	 	1.55295E-34	 	5561.717	25.8862	 
80.0	1.0	0.0	7.78427	7.04016	-10.31171	15.33525	16.69089	0.68944	1.45045	199.80706	165.71255	76.90551	0.29904	 	3.9577200000000004E34	 	4.35513E-35	 	5432.747	25.794	 
75.0	1.0	0.0	7.78607	7.03853	-10.3325	15.3197	16.62614	0.68233	1.46557	200.11323	165.79663	77.03557	0.29884	 	1.4427099999999999E35	 	1.17781E-35	 	5304.243	25.7008	 
70.0	1.0	0.0	7.78788	7.0369	-10.35325	15.30415	16.56137	0.67516	1.48113	200.41809	165.87944	77.16516	0.29863	 	5.4611499999999995E35	 	3.06681E-36	 	5176.21	25.6066	 
65.0	1.0	0.0	7.78967	7.03528	-10.37395	15.28861	16.49658	0.66793	1.49715	200.72171	165.96107	77.29431	0.29842	 	2.1502299999999997E36	 	7.67558E-37	 	5048.654	25.5112	 
60.0	1.0	0.0	7.79147	7.03365	-10.39461	15.27308	16.43176	0.66065	1.51365	201.02415	166.04156	77.42305	0.29822	 	8.821689999999999E36	 	1.84321E-37	 	4921.581	25.4146	 
55.0	1.0	0.0	7.79326	7.03204	-10.41523	15.25756	16.36693	0.65332	1.53065	201.32551	166.12099	77.55141	0.29801	 	3.7783399999999996E37	 	4.23894E-38	 	4794.998	25.3166	 
50.0	1.0	0.0	7.79505	7.03042	-10.43581	15.24204	16.30207	0.64592	1.54818	201.62587	166.19943	77.67943	0.29781	 	1.6927799999999998E38	 	9.3173E-39	 	4668.912	25.2172	 
45.0	1.0	0.0	7.79684	7.02881	-10.45635	15.22653	16.23719	0.63847	1.56625	201.92531	166.27697	77.80714	0.2976	 	7.95008E38	 	1.9532E-39	 	4543.331	25.1162	 
40.0	1.0	0.0	7.79863	7.0272	-10.47684	15.21102	16.17229	0.63096	1.5849	202.22395	166.35368	77.93458	0.2974	 	3.92279E39	 	3.89623E-40	 	4418.264	25.0134	 
35.0	1.0	0.0	7.80041	7.02559	-10.4973	15.19553	16.10736	0.62338	1.60415	202.52189	166.42966	78.06179	0.29719	 	2.03851E40	 	7.37794E-41	 	4293.72	24.9088	 
30.0	1.0	0.0	7.80219	7.02399	-10.51771	15.18004	16.04241	0.61575	1.62403	202.81924	166.50501	78.18881	0.29698	 	1.1185200000000002E41	 	1.32282E-41	 	4169.711	24.8018	 
25.0	1.0	0.0	7.80397	7.02239	-10.53808	 	15.97743	0.60806	1.64458	203.11614	166.57984	78.31569	0.29678	 	6.49783E41	 	2.23951E-42	 	4046.247	 	 
