T (C)	Fraction solid (wt)-TOTAL	Fraction liquid (wt)-LIQUID	Density (g/(cm)^3)-TOTAL	Molar volume (cm^3)-TOTAL	Volume change (%)-  	Average expansion coeff. (10e-6 1/K)-  	Thermal conductivity (W/(m*K))-TOTAL	Electrical resistivity (10e-6 Ohm*m)-TOTAL	Electrical conductivity (10e6 1/(Ohm*m))-TOTAL	Young's modulus (GPa)-TOTAL	Bulk modulus (GPa)-TOTAL	Shear modulus(GPa)-TOTAL	Poisson's ratio-TOTAL	Liquid viscosity (mPa s)-  	Total viscosity (mPa s)-  	Liquid diffusivity (10e-9 (m^2)/s)-  	Total diffusivity (10e-9 (m^2)/s)-  	Surface Tension (mN/m)-  	Enthalpy (J/mole)-TOTAL	Specific heat (J/(mole K))-TOTAL	Latent heat (J/mole)-TOTAL
1400.0	0.00589	0.99411	6.81713	7.92228	0.0	34.59093	30.78598	1.33152	0.75102	1.92516E-6	119.62392	6.4263E-7	0.49788	5.94485	5.94485	1.37366	1.37366	1725.16702	38399.648	 	0.0
1395.0	0.00602	0.99398	6.82128	7.91746	-0.0608931	34.54787	30.69862	1.33132	0.75113	2.09792E-6	119.8003	7.0032E-7	0.49783	6.00987	6.00987	1.35474	1.35474	1727.49057	38188.648	42.2	10.011
1390.0	0.00614	0.99386	6.82536	7.91275	-0.12034	34.50854	30.61137	1.33111	0.75125	2.27952E-6	119.97663	7.60963E-7	0.49779	6.07589	6.07589	1.33601	1.33601	1729.83605	37978.234	42.0828	19.887
1385.0	0.00626	0.99374	6.82948	7.90791	-0.18137	34.46447	30.52398	1.33091	0.75137	2.47118E-6	120.15113	8.2497E-7	0.49774	6.14304	6.14304	1.31743	1.31743	1732.2057	37768.401	41.9666	29.627
1380.0	0.00638	0.99362	6.83354	7.90321	-0.2407	34.42488	30.43669	1.3307	0.75148	2.67072E-6	120.32566	8.91609E-7	0.4977	6.21126	6.21126	1.29903	1.29903	1734.59693	37559.147	41.8508	39.231
1375.0	0.0065	0.9935	6.83765	7.89851	-0.30005	34.38491	30.34964	1.33048	0.75161	2.88037E-6	120.5009	9.61627E-7	0.49765	6.28068	6.28068	1.28079	1.28079	1737.01091	37350.467	41.736	48.702
1370.0	0.00662	0.99338	6.84173	7.8937	-0.36071	34.34096	30.2623	1.33027	0.75172	3.10021E-6	120.67336	1.03506E-6	0.49761	6.35123	6.35123	1.26272	1.26272	1739.44849	37142.357	41.622	58.04
1365.0	0.00673	0.99327	6.84576	7.88909	-0.41892	34.30365	30.17525	1.33005	0.75185	3.32774E-6	120.847	1.11105E-6	0.49757	6.42292	6.42292	1.24482	1.24482	1741.90663	36934.815	41.5084	67.247
1360.0	0.00684	0.99316	6.84983	7.88442	-0.47787	34.26393	30.08825	1.32983	0.75198	3.56535E-6	121.02023	1.19041E-6	0.49752	6.49589	6.49589	1.22708	1.22708	1744.38757	36727.837	41.3956	76.321
1355.0	0.00696	0.99304	6.85388	7.87971	-0.53737	34.22232	30.00116	1.3296	0.7521	3.81198E-6	121.19168	1.2728E-6	0.49748	6.57007	6.57007	1.20951	1.20951	1746.89097	36521.419	41.2836	85.267
1350.0	0.00707	0.99293	6.85789	7.8752	-0.59426	34.18793	29.9143	1.32937	0.75224	4.06834E-6	121.36491	1.35843E-6	0.49745	6.6455	6.6455	1.19211	1.19211	1749.41407	36315.557	41.1724	94.083
1345.0	0.00718	0.99282	6.86192	7.87056	-0.65283	34.14844	29.82735	1.32914	0.75237	4.33378E-6	121.53602	1.4471E-6	0.4974	6.72225	6.72225	1.17487	1.17487	1751.96001	36110.249	41.0616	102.771
1340.0	0.00728	0.99272	6.86595	7.86595	-0.71109	34.10951	29.74048	1.3289	0.7525	4.60764E-6	121.70683	1.53858E-6	0.49736	6.80034	6.80034	1.15779	1.15779	1754.52695	35905.49	40.9518	111.333
1337.4	0.00734	0.99266	6.86805	7.86356	-0.74124	34.0897	29.69531	1.32877	0.75257	4.75426E-6	121.79592	1.58756E-6	0.49734	6.84155	6.9576	1.14896	1.1298	1755.87225	35799.043	40.869	115.744
1335.0	0.11624	0.88376	6.90286	7.82384	-1.2426	32.6943	30.00812	1.31297	0.76163	0.0120775	122.46465	0.00406887	0.48414	6.8909	11.47602	1.13903	0.68395	1755.94203	34238.174	651.60828	1582.865
1330.0	0.30262	0.69738	6.96327	7.756	-2.0989	30.32025	30.56184	1.28517	0.77811	0.68756	124.64878	0.23528	0.46114	6.99371	157.35141	1.1188	0.0497268	1755.85039	31556.968	536.2412	4068.711
1325.0	0.43823	0.56177	7.00825	7.70616	-2.72802	28.59356	30.97295	1.26416	0.79104	3.23847	126.3228	1.12131	0.44406	7.09658	679.20202	1.09915	0.0114843	1757.92247	29578.16412	395.76078	5852.411
1320.0	0.53978	0.46022	7.04269	7.66837	-3.20501	27.30097	31.27733	1.24794	0.80132	7.76932	127.66825	2.71455	0.43105	7.19993	1619.74255	1.07998	0.00480062	1760.00368	28067.75589	302.08165	7167.212
1315.0	0.61765	0.38235	7.06974	7.6389	-3.57699	26.30847	31.51193	1.23476	0.80987	13.71259	128.78705	4.82524	0.42092	7.30415	2910.29572	1.06123	0.00266343	1762.09394	26881.05463	237.34025	8158.74
1310.0	0.67855	0.32145	7.09146	7.61537	-3.87398	25.5305	31.6887	1.22401	0.81699	20.41781	129.74457	7.22558	0.41288	7.40961	4463.7198	1.04283	0.00173106	1764.19296	25923.80006	191.45091	8921.257
1305.0	0.72697	0.27303	7.10922	7.59623	-4.11558	24.91128	31.82018	1.2151	0.82298	27.37225	130.5845	9.73129	0.4064	7.51642	6208.06169	1.02476	0.00124073	1766.29954	25133.05977	158.14806	9517.685
1300.0	0.76602	0.23398	7.124	7.58034	-4.31618	24.40971	31.91574	1.20762	0.82807	34.2355	131.3367	12.21736	0.4011	7.62495	8094.274	1.00698	9.48591E-4	1768.41466	24465.6774	133.47647	9991.182
1295.0	0.79792	0.20208	7.13649	7.56695	-4.48522	23.99882	31.98256	1.20127	0.83245	40.80151	132.02148	14.60634	0.39671	7.73528	10091.34703	0.98946	7.58447E-4	1770.53698	23891.35455	114.86457	10372.042
1290.0	0.82428	0.17572	7.14723	7.55544	-4.63052	23.65619	32.02623	1.19581	0.83626	46.96551	132.6536	16.85749	0.39302	7.84778	12183.66609	0.97217	6.26195E-4	1772.66897	23388.37683	100.59554	10681.977
1285.0	0.84627	0.15373	7.15655	7.54548	-4.75619	23.37015	32.05107	1.19106	0.83959	52.68194	133.24485	18.95186	0.38989	7.96254	14365.35018	0.95509	5.29395E-4	1774.80567	22940.89388	89.49659	10936.835
1280.0	0.86824	0.13176	7.16557	7.53579	-4.8785	23.09205	32.07613	1.18631	0.84295	58.92731	133.86272	21.24685	0.38673	8.08484	16901.88547	0.93762	4.48503E-4	1776.89559	22491.48529	89.88172	11194.034
1275.0	0.88987	0.11013	7.17426	7.52641	-4.99693	22.82355	32.10093	1.18158	0.84633	65.63965	134.4938	23.72084	0.38359	8.21362	19818.01944	0.91995	3.81276E-4	1778.93585	22045.68772	89.15951	11448.034
1270.0	0.90734	0.0926563	7.18172	7.51833	-5.09898	22.60298	32.10681	1.17754	0.84923	71.54543	135.07431	25.90365	0.38099	8.3436	22782.50906	0.9027	3.30593E-4	1780.97834	21652.55277	78.62699	11649.782
1265.0	0.92163	0.0783708	7.18824	7.51124	-5.18841	22.41943	32.09786	1.17406	0.85175	76.74299	135.61663	27.82925	0.37882	8.47497	25814.89903	0.88582	2.90814E-4	1783.02123	21299.42508	70.62554	11811.929
1260.0	0.93343	0.0665663	7.19402	7.50493	-5.26804	22.26461	32.07708	1.171	0.85397	81.3217	136.12885	29.52905	0.37698	8.60766	28934.85052	0.86933	2.58613E-4	1785.06466	20977.15927	64.45316	11943.619
1255.0	0.94329	0.0567139	7.19924	7.49923	-5.34008	22.13203	32.04683	1.16828	0.85596	85.3699	136.61702	31.03463	0.3754	8.74181	32165.66052	0.8532	2.31878E-4	1787.10926	20679.0319	59.62547	12051.575
1250.0	0.95158	0.0484181	7.20399	7.49401	-5.40595	22.01754	32.00883	1.16584	0.85775	88.96481	137.08582	32.37376	0.37403	8.8773	35531.00669	0.83743	2.09229E-4	1789.15334	20400.02286	55.80181	12140.809
1245.0	0.95863	0.0413742	7.20839	7.48918	-5.46691	21.91747	31.96453	1.16362	0.85938	92.17372	137.53886	33.57085	0.37282	9.01447	39055.59676	0.82198	1.89722E-4	1791.19687	20136.33546	52.73748	12215.119
1240.0	0.96465	0.0353477	7.21248	7.48466	-5.52391	21.82895	31.91499	1.16159	0.86089	95.05304	137.97851	34.64642	0.37176	9.15304	42764.22076	0.80687	1.72698E-4	1793.24031	19885.05764	50.25556	12277.414
1235.0	0.96985	0.0301549	7.21633	7.4804	-5.57765	21.74999	31.8611	1.15971	0.86228	97.65122	138.40706	35.61817	0.37081	9.29324	46682.92455	0.79207	1.57679E-4	1795.28289	19643.93378	48.22477	12329.946
1230.0	0.97435	0.025652	7.21998	7.47636	-5.62872	21.67881	31.80357	1.15796	0.86359	100.00891	138.82606	36.50101	0.36995	9.43507	50838.49711	0.77758	1.4431E-4	1797.3254	19411.19879	46.547	12374.478
1225.0	0.97828	0.0217233	7.22346	7.47249	-5.67752	21.61424	31.74293	1.15631	0.86482	102.15979	139.23684	37.30729	0.36917	9.57835	55258.70364	0.7634	1.32325E-4	1799.36534	19185.45305	45.14915	12412.408
1220.0	0.98172	0.0182763	7.22739	7.46837	-5.72953	21.53891	31.64311	1.15609	0.86499	104.26211	139.70133	38.0978	0.36835	9.72335	60055.52375	0.7495	1.21349E-4	1801.40456	18939.99447	49.09172	12444.85
1215.0	0.98476	0.0152363	7.23516	7.46147	-5.81659	21.35075	31.29574	1.165	0.85837	107.10642	140.57231	39.17939	0.36687	9.87005	65826.9312	0.73589	1.10339E-4	1803.44149	18520.82308	83.83428	12472.7
1210.0	0.98746	0.0125416	7.24241	7.4547	-5.90216	21.16578	30.9643	1.17352	0.85214	109.76667	141.39528	40.19298	0.3655	10.01856	72067.50886	0.72255	1.00446E-4	1805.47691	18115.29314	81.10599	12496.684
1205.0	0.98978	0.0102229	7.24916	7.44806	-5.98596	20.98496	30.64535	1.18173	0.84621	112.23317	142.17973	41.13469	0.36422	10.18066	78801.7648	0.70865	9.15523E-5	1807.50837	17721.26564	78.8055	12518.364
1200.0	0.99193	0.00807193	7.25554	7.44147	-6.06909	20.80477	30.33788	1.18967	0.84057	114.60312	142.9332	42.04085	0.363	10.35171	86128.01751	0.69458	8.34813E-5	1809.5189	17334.41174	77.37078	12541.535
1195.0	0.99389	0.00610733	7.26152	7.43503	-6.15037	20.62909	30.04427	1.19722	0.83527	116.85103	143.64913	42.90164	0.36185	10.52332	94082.46092	0.68093	7.61638E-5	1811.52173	16957.86368	75.30961	12562.574
1190.0	0.99566	0.00434451	7.2671	7.42876	-6.22947	20.45899	29.76365	1.20439	0.83029	118.96842	144.32985	43.71371	0.36077	10.69732	102710.2065	0.66758	6.95284E-5	1813.51896	16591.70012	73.23271	12580.943
1185.0	0.99725	0.00275336	7.27232	7.42266	-6.30653	20.29416	29.49514	1.21121	0.82562	120.96942	144.97856	44.48226	0.35975	10.87377	112077.087	0.6545	6.34998E-5	1815.51264	16235.10494	71.31904	12597.038
1180.0	0.99869	0.00131237	7.27722	7.41671	-6.38161	20.13441	29.23805	1.21767	0.82124	122.86435	145.59806	45.21105	0.35879	11.05253	122253.6317	0.64171	5.80143E-5	1817.50073	15887.35939	69.54911	12611.183
1175.0	1.0	0.0	7.28183	7.41091	-6.45484	19.97941	28.99176	1.22378	0.81714	124.66405	146.19081	45.90409	0.35788	 	133318.9116	 	5.30162E-5	 	15547.82641	67.9066	12623.649
1170.44	1.0	0.0	7.28616	7.40651	-6.51038	19.87419	28.76927	1.22937	0.81343	125.65517	146.67867	46.29132	0.35722	 	143917.0636	 	4.89575E-5	 	15291.25145	 	 
1170.0	1.0	0.0	7.28657	7.40609	-6.5157	19.86418	28.7481	1.2299	0.81308	125.74986	146.72517	46.32833	0.35716	 	144994.8732	 	4.85787E-5	 	15264.16186	56.73291	 
1167.4	1.0	0.0	7.28899	7.40363	-6.54672	19.80592	28.62533	1.23295	0.81106	126.30018	146.99484	46.54349	0.3568	 	151502.4985	 	4.64084E-5	 	15106.05808	 	 
1167.4	1.0	0.0	7.28899	7.40363	-6.54679	19.80572	28.6251	1.23296	0.81106	126.30102	146.99521	46.54382	0.3568	 	151510.9206	 	4.64057E-5	 	15105.77571	 	 
1165.0	1.0	0.0	7.29121	7.40138	-6.57514	19.75272	28.51374	1.23571	0.80925	126.80192	147.2401	46.73974	0.35647	 	157814.8855	 	4.44778E-5	 	14960.78017	60.67634	 
1160.0	1.0	0.0	7.29575	7.39677	-6.63328	19.64461	28.28822	1.24123	0.80565	127.82145	147.73627	47.13876	0.3558	 	171895.2732	 	4.06925E-5	 	14662.64806	59.62642	 
1155.0	1.0	0.0	7.3002	7.39226	-6.69026	19.53948	28.07104	1.24647	0.80227	128.80991	148.21458	47.52594	0.35515	 	187367.1985	 	3.72021E-5	 	14369.65074	58.59946	 
1150.0	1.0	0.0	7.30457	7.38783	-6.74612	19.43717	27.86168	1.25144	0.79908	129.76897	148.67622	47.9019	0.35453	 	204380.1533	 	3.39859E-5	 	14081.532	57.62375	 
1145.0	1.0	0.0	7.30887	7.38349	-6.80093	19.33756	27.6597	1.25615	0.79608	130.70016	149.12228	48.26721	0.35392	 	223100.8941	 	3.10247E-5	 	13798.05252	56.6959	 
1140.0	1.0	0.0	7.31309	7.37923	-6.85473	19.24049	27.46465	1.26061	0.79327	131.60491	149.55374	48.62241	0.35334	 	243715.525	 	2.83003E-5	 	13518.98798	55.81291	 
1135.0	1.0	0.0	7.31724	7.37504	-6.90756	19.14585	27.27615	1.26483	0.79062	132.48456	149.97151	48.96799	0.35277	 	266431.961	 	2.57958E-5	 	13244.12855	54.97188	 
1130.0	1.0	0.0	7.32133	7.37093	-6.95948	19.05352	27.09381	1.26882	0.78813	133.34036	150.37641	49.30443	0.35221	 	291482.5769	 	2.34951E-5	 	12973.27751	54.17021	 
1125.0	1.0	0.0	7.32534	7.36689	-7.01053	18.96337	26.91728	1.27259	0.7858	134.17348	150.76921	49.63216	0.35168	 	319127.3296	 	2.13834E-5	 	12706.25002	53.4055	 
1120.0	1.0	0.0	7.3293	7.36291	-7.06074	18.87532	26.74624	1.27615	0.78361	134.98503	151.15061	49.95159	0.35116	 	349657.2003	 	1.94465E-5	 	12442.872	52.6756	 
1115.0	1.0	0.0	7.3332	7.359	-7.11014	18.78925	26.58037	1.2795	0.78155	135.77604	151.52127	50.26313	0.35065	 	383398.171	 	1.76715E-5	 	12182.97995	51.97841	 
1110.0	1.0	0.0	7.33704	7.35514	-7.15879	18.70507	26.41939	1.28266	0.77963	136.5475	151.88178	50.56714	0.35016	 	420715.6738	 	1.6046E-5	 	11926.4196	51.31207	 
1105.0	1.0	0.0	7.34083	7.35135	-7.2067	18.6227	26.26303	1.28564	0.77783	137.30033	152.23273	50.86397	0.34968	 	462019.7131	 	1.45587E-5	 	11673.0457	50.67478	 
1100.0	1.0	0.0	7.34457	7.34761	-7.2539	18.54205	26.11104	1.28843	0.77614	138.03542	152.57463	51.15396	0.34922	 	507770.5924	 	1.31989E-5	 	11422.72053	50.06504	 
1095.0	1.0	0.0	7.34825	7.34392	-7.30044	18.46305	25.96318	1.29105	0.77457	138.7536	152.908	51.43742	0.34876	 	558485.5591	 	1.19566E-5	 	11175.3143	49.48124	 
1090.0	1.0	0.0	7.35189	7.34028	-7.34633	18.3856	25.81923	1.2935	0.7731	139.45565	153.23329	51.71464	0.34832	 	614746.2179	 	1.08227E-5	 	10930.70411	48.92204	 
1085.0	1.0	0.0	7.35549	7.3367	-7.3916	18.30966	25.67899	1.29579	0.77173	140.14233	153.55094	51.98592	0.34789	 	677207.1102	 	9.78843E-6	 	10688.77362	48.3861	 
1080.0	1.0	0.0	7.35904	7.33316	-7.43627	18.23513	25.54226	1.29793	0.77045	140.81435	153.86137	52.25153	0.34747	 	746605.3982	 	8.84589E-6	 	10449.41235	47.87225	 
1075.0	1.0	0.0	7.36254	7.32966	-7.48038	18.16197	25.40885	1.29993	0.76927	141.4724	154.16496	52.51173	0.34706	 	823772.0082	 	7.98763E-6	 	10212.51574	47.37932	 
1070.0	1.0	0.0	7.36601	7.32621	-7.52393	18.09011	25.27861	1.30178	0.76818	142.1171	154.46208	52.76676	0.34665	 	909644.2549	 	7.20675E-6	 	9977.98452	46.90624	 
1065.0	1.0	0.0	7.36944	7.3228	-7.56696	18.0195	25.15136	1.3035	0.76717	142.74909	154.75308	53.01685	0.34626	 	1005280.375	 	6.49687E-6	 	9745.72455	46.45199	 
1060.0	1.0	0.0	7.37283	7.31944	-7.60948	17.95006	25.02695	1.30508	0.76624	143.36894	155.03828	53.26224	0.34588	 	1111876.05	 	5.85207E-6	 	9515.64619	46.01567	 
1055.0	1.0	0.0	7.37619	7.31611	-7.65152	17.88176	24.90525	1.30654	0.76538	143.97721	155.31799	53.50313	0.3455	 	1230783.463	 	5.26686E-6	 	9287.66458	45.59632	 
1050.0	1.0	0.0	7.37951	7.31281	-7.69308	17.81455	24.78612	1.30788	0.7646	144.57443	155.5925	53.73972	0.34514	 	1363533.013	 	4.7362E-6	 	9061.69906	45.1931	 
1045.0	1.0	0.0	7.38279	7.30956	-7.73419	17.74837	24.66943	1.3091	0.76389	145.1611	155.86209	53.97222	0.34478	 	1511858.273	 	4.2554E-6	 	8837.67313	44.80519	 
1040.0	1.0	0.0	7.38605	7.30633	-7.77486	17.68317	24.56024	1.30993	0.7634	145.7377	156.12702	54.2008	0.34442	 	1677724.649	 	3.82015E-6	 	8615.51394	44.43184	 
1035.0	1.0	0.0	7.38927	7.30315	-7.8151	17.61893	24.44799	1.31093	0.76282	146.3047	156.38753	54.42564	0.34408	 	1863362.399	 	3.42647E-6	 	8395.15223	44.07234	 
1030.0	1.0	0.0	7.39247	7.29999	-7.85495	17.55558	24.33786	1.31183	0.76229	146.86253	156.64385	54.64691	0.34374	 	2071304.415	 	3.0707E-6	 	8176.52327	43.72579	 
1025.0	1.0	0.0	7.39563	7.29686	-7.89439	17.49311	24.22974	1.31263	0.76183	147.4116	156.8962	54.86477	0.34341	 	2304429.95	 	2.74946E-6	 	7959.56437	43.39178	 
1020.0	1.0	0.0	7.39877	7.29377	-7.93346	17.43146	24.12355	1.31333	0.76142	147.95231	157.1448	55.07937	0.34308	 	2566014.88	 	2.45967E-6	 	7744.2165	43.06957	 
1015.0	1.0	0.0	7.40188	7.2907	-7.97216	17.3706	24.01919	1.31394	0.76107	148.48504	157.38984	55.29086	0.34276	 	2859789.781	 	2.19846E-6	 	7530.42346	42.75861	 
1010.0	1.0	0.0	7.40497	7.28767	-8.0105	17.3105	23.91659	1.31445	0.76077	149.01014	157.6315	55.49937	0.34245	 	3190006.915	 	1.96324E-6	 	7318.1317	42.45835	 
1009.87	1.0	0.0	7.40504	7.28759	-8.01147	17.30899	23.914	1.31446	0.76077	149.02337	157.63759	55.50463	0.34244	 	3198903.903	 	1.95758E-6	 	7312.76201	 	 
1008.11	1.0	0.0	7.40616	7.2865	-8.02519	17.28692	23.87297	1.31491	0.76051	149.25679	157.73826	55.59762	0.34229	 	3327357.801	 	1.87942E-6	 	7226.63237	 	 
1005.0	1.0	0.0	7.40805	7.28464	-8.0487	17.25036	23.81059	1.31516	0.76037	149.57788	157.88628	55.72515	0.3421	 	3563661.409	 	1.75054E-6	 	7095.86187	44.45397	 
1000.0	1.0	0.0	7.41108	7.28167	-8.08625	17.19212	23.71155	1.31548	0.76018	150.0887	158.12187	55.92809	0.3418	 	3982326.702	 	1.56038E-6	 	6886.66669	41.83904	 
995.0	1.0	0.0	7.41408	7.27872	-8.12349	17.13453	23.61403	1.31573	0.76003	150.59289	158.35458	56.12844	0.3415	 	4454191.441	 	1.3896E-6	 	6678.83085	41.56717	 
990.0	1.0	0.0	7.41706	7.27579	-8.16042	17.07755	23.51796	1.3159	0.75994	151.09075	158.58454	56.32632	0.34121	 	4986505.102	 	1.23636E-6	 	6472.30666	41.30484	 
985.0	1.0	0.0	7.42002	7.27289	-8.19704	17.02117	23.42329	1.31598	0.75989	151.58256	158.81189	56.52184	0.34092	 	5587570.658	 	1.099E-6	 	6267.04908	41.05152	 
980.0	1.0	0.0	7.42296	7.27001	-8.23338	16.96535	23.32995	1.316	0.75988	152.0686	159.03679	56.7151	0.34064	 	6266906.372	 	9.7597E-7	 	6063.01456	40.8069	 
975.0	1.0	0.0	7.42588	7.26715	-8.26944	16.91006	23.23788	1.31594	0.75991	152.54913	159.25935	56.90621	0.34036	 	7035435.533	 	8.6589E-7	 	5860.16162	40.57059	 
970.0	1.0	0.0	7.42878	7.26432	-8.30523	16.85528	23.14705	1.31581	0.75999	153.02439	159.47969	57.09527	0.34008	 	7905705.724	 	7.67484E-7	 	5658.45063	40.3422	 
965.0	1.0	0.0	7.43166	7.2615	-8.34076	16.80098	23.05738	1.31562	0.7601	153.49463	159.69795	57.28235	0.33981	 	8892145.42	 	6.796E-7	 	5457.8435	40.12143	 
960.0	1.0	0.0	7.43452	7.25871	-8.37603	16.74714	22.96885	1.31535	0.76025	153.96006	159.91421	57.46756	0.33954	 	1.001136353E7	 	6.01187E-7	 	5258.30414	39.90787	 
955.0	1.0	0.0	7.43736	7.25593	-8.41105	16.69373	22.8814	1.31503	0.76044	154.42091	160.1286	57.65097	0.33927	 	1.128249711E7	 	5.31292E-7	 	5059.79792	39.70124	 
950.0	1.0	0.0	7.44019	7.25318	-8.44584	16.64073	22.79499	1.31464	0.76067	154.87737	160.34122	57.83267	0.33901	 	1.272762261E7	 	4.6905E-7	 	4862.29168	39.50125	 
945.0	1.0	0.0	7.44299	7.25044	-8.48039	16.58812	22.70959	1.31419	0.76093	155.32965	160.55214	58.01274	0.33875	 	1.43722315E7	 	4.13679E-7	 	4665.75365	39.30761	 
940.0	1.0	0.0	7.44579	7.24772	-8.51471	16.53588	22.62515	1.31368	0.76122	155.77793	160.76148	58.19124	0.3385	 	1.624579212E7	 	3.64469E-7	 	4470.15345	39.12004	 
935.0	1.0	0.0	7.44856	7.24502	-8.54882	16.48398	22.54164	1.31311	0.76155	156.22239	160.96931	58.36824	0.33825	 	1.838240627E7	 	3.20778E-7	 	4275.46201	38.93829	 
930.05	1.0	0.0	7.4513	7.24236	-8.5824	16.4329	22.45978	1.31249	0.76191	156.65915	161.17381	58.5422	0.338	 	2.079755292E7	 	2.82365E-7	 	4083.43414	 	 
930.0	1.0	0.0	7.45133	7.24233	-8.58272	16.43237	22.45904	1.31249	0.76191	156.66324	161.17571	58.54383	0.338	 	2.082161571E7	 	2.82028E-7	 	4081.64413	38.76358	 
925.0	1.0	0.0	7.45417	7.23957	-8.6176	16.37604	22.37921	1.31169	0.76237	157.10403	161.38021	58.71952	0.33775	 	2.361311704E7	 	2.47654E-7	 	3887.9169	38.74544	 
920.0	1.0	0.0	7.457	7.23683	-8.65225	16.32008	22.3004	1.31084	0.76287	157.54131	161.58345	58.89383	0.3375	 	2.68072372E7	 	2.17235E-7	 	3695.06032	38.57132	 
915.0	1.0	0.0	7.45981	7.2341	-8.68667	16.26447	22.22226	1.30993	0.7634	157.97525	161.78551	59.06683	0.33726	 	3.04660372E7	 	1.90345E-7	 	3503.04781	38.4025	 
910.0	1.0	0.0	7.4626	7.23139	-8.72086	16.20919	22.14492	1.30898	0.76396	158.40599	161.98645	59.23857	0.33702	 	3.466175008E7	 	1.666E-7	 	3311.85358	38.23885	 
905.0	1.0	0.0	7.46538	7.2287	-8.75483	16.15423	22.06835	1.30797	0.76455	158.83367	162.18633	59.40912	0.33678	 	3.947854415E7	 	1.45655E-7	 	3121.45389	38.07994	 
900.0	1.0	0.0	7.46814	7.22602	-8.7886	16.09956	21.99335	1.30686	0.76519	159.25844	162.38523	59.57852	0.33654	 	4.501461446E7	 	1.272E-7	 	2931.82575	37.92563	 
898.03	1.0	0.0	7.46923	7.22497	-8.80187	16.07805	21.96371	1.30642	0.76545	159.42528	162.46347	59.64506	0.33645	 	4.742148282E7	 	1.20541E-7	 	2857.2146	 	 
895.0	1.0	0.0	7.47084	7.22341	-8.82155	16.04784	21.91714	1.30581	0.76581	159.67883	162.58353	59.74614	0.33631	 	5.138025482E7	 	1.10966E-7	 	2743.28739	37.70767	 
890.0	1.0	0.0	7.4735	7.22085	-8.85391	15.99807	21.84076	1.30477	0.76642	160.09562	162.78116	59.91231	0.33608	 	5.870954178E7	 	9.66972E-8	 	2555.67544	37.52239	 
885.0	1.0	0.0	7.47614	7.2183	-8.88611	15.94848	21.76505	1.30368	0.76706	160.50999	162.97794	60.07753	0.33586	 	6.71616356E7	 	8.41648E-8	 	2368.74313	37.38646	 
880.0	1.0	0.0	7.47877	7.21576	-8.91814	15.89906	21.68997	1.30255	0.76773	160.92205	163.17395	60.24185	0.33563	 	7.69201581E7	 	7.31699E-8	 	2182.47176	37.25427	 
875.0	1.0	0.0	7.48138	7.21324	-8.95	15.8498	21.61551	1.30137	0.76842	161.33191	163.36922	60.4053	0.33541	 	8.820062594E7	 	6.35351E-8	 	1996.84357	37.12564	 
870.0	1.0	0.0	7.48399	7.21072	-8.98171	15.80068	21.54165	1.30014	0.76915	161.73965	163.5638	60.56793	0.33519	 	1.012563215E8	 	5.51021E-8	 	1811.84218	37.00028	 
865.0	1.0	0.0	7.48658	7.20823	-9.01325	15.75168	21.46838	1.29887	0.7699	162.14539	163.75773	60.72978	0.33497	 	1.163852775E8	 	4.77296E-8	 	1627.45172	36.87809	 
860.0	1.0	0.0	7.48917	7.20574	-9.04465	15.70281	21.39567	1.29756	0.77068	162.54921	163.95107	60.89087	0.33476	 	1.339386749E8	 	4.12922E-8	 	1443.65576	36.75919	 
855.0	1.0	0.0	7.49174	7.20326	-9.07589	15.65404	21.32352	1.29621	0.77148	162.9512	164.14385	61.05125	0.33454	 	1.543308082E8	 	3.5678E-8	 	1260.43969	36.64321	 
850.0	1.0	0.0	7.4943	7.2008	-9.10698	15.60536	21.25191	1.29481	0.77231	163.35145	164.33612	61.21095	0.33433	 	1.780511324E8	 	3.07879E-8	 	1077.78909	36.53012	 
845.0	1.0	0.0	7.49641	7.19878	-9.1325	15.58194	21.19093	1.29275	0.77354	163.70733	164.5499	61.35098	0.33419	 	2.021876205E8	 	2.69918E-8	 	921.22727	31.31236	 
840.0	1.0	0.0	7.49851	7.19676	-9.15797	15.55853	21.12995	1.29069	0.77478	164.06263	164.76278	61.49082	0.33404	 	2.298583901E8	 	2.36363E-8	 	761.67614	31.91023	 
835.0	1.0	0.0	7.50061	7.19475	-9.18337	15.5351	21.06896	1.28861	0.77603	164.41735	164.97477	61.63048	0.3339	 	2.616187413E8	 	2.06736E-8	 	602.33221	31.86879	 
830.0	1.0	0.0	7.5027	7.19274	-9.20872	15.51167	21.00796	1.28652	0.77729	164.77149	165.18587	61.76994	0.33375	 	2.981170879E8	 	1.80607E-8	 	443.19475	31.82749	 
825.0	1.0	0.0	7.50479	7.19074	-9.234	15.48823	20.94695	1.28442	0.77856	165.12505	165.39608	61.90921	0.33361	 	3.401115462E8	 	1.57589E-8	 	284.263	31.78635	 
820.0	1.0	0.0	7.50688	7.18874	-9.25923	15.46479	20.88594	1.28231	0.77984	165.47804	165.6054	62.0483	0.33346	 	3.884896521E8	 	1.37337E-8	 	125.53616	31.74537	 
815.0	1.0	0.0	7.50896	7.18675	-9.28439	15.44133	20.82491	1.28018	0.78114	165.83045	165.81383	62.1872	0.33332	 	4.442918292E8	 	1.19538E-8	 	-32.98658	31.70455	 
810.0	1.0	0.0	7.51104	7.18476	-9.3095	15.41787	20.76388	1.27805	0.78245	166.18228	166.02139	62.3259	0.33317	 	5.087393604E8	 	1.03915E-8	 	-191.30607	31.6639	 
805.0	1.0	0.0	7.51311	7.18277	-9.33454	15.39441	20.70284	1.2759	0.78376	166.53353	166.22807	62.46442	0.33303	 	5.832677742E8	 	9.0219E-9	 	-349.42322	31.62343	 
800.0	1.0	0.0	7.51519	7.18079	-9.35953	15.37094	20.64179	1.27374	0.78509	166.88421	166.43387	62.60275	0.33288	 	6.695667523E8	 	7.82264E-9	 	-507.33893	31.58314	 
795.0	1.0	0.0	7.51725	7.17882	-9.38445	15.34745	20.58073	1.27156	0.78643	167.23431	166.6388	62.74089	0.33274	 	7.696279012E8	 	6.77389E-9	 	-665.05418	31.54305	 
790.0	1.0	0.0	7.51932	7.17685	-9.40931	15.32397	20.51967	1.26938	0.78779	167.58384	166.84286	62.87885	0.33259	 	8.858020228E8	 	5.85794E-9	 	-822.56994	31.50315	 
785.0	1.0	0.0	7.52137	7.17488	-9.43412	15.30047	20.45859	1.26718	0.78916	167.93279	167.04606	63.01661	0.33245	 	1.020867875E9	 	5.059E-9	 	-979.88729	31.46347	 
780.0	1.0	0.0	7.52343	7.17292	-9.45886	15.27697	20.39751	1.26497	0.79053	168.28116	167.24839	63.15418	0.3323	 	1.178114853E9	 	4.36304E-9	 	-1137.00732	31.424	 
775.0	1.0	0.0	7.52548	7.17097	-9.48354	15.25347	20.33641	1.26274	0.79193	168.62896	167.44986	63.29157	0.33216	 	1.361442564E9	 	3.7576E-9	 	-1293.93115	31.38477	 
770.0	1.0	0.0	7.52753	7.16902	-9.50817	15.22995	20.27531	1.26051	0.79333	168.97619	167.65047	63.42877	0.33202	 	1.575480934E9	 	3.23162E-9	 	-1450.65999	31.34577	 
765.0	1.0	0.0	7.52957	7.16707	-9.53273	15.20643	20.2142	1.25826	0.79475	169.32284	167.85023	63.56578	0.33187	 	1.825735308E9	 	2.77529E-9	 	-1607.19509	31.30702	 
760.0	1.0	0.0	7.53161	7.16513	-9.55723	15.1829	20.15307	1.256	0.79618	169.66892	168.04913	63.7026	0.33173	 	2.118762027E9	 	2.37995E-9	 	-1763.53775	31.26853	 
755.0	1.0	0.0	7.53365	7.16319	-9.58167	15.15937	20.09194	1.25372	0.79763	170.01443	168.24718	63.83923	0.33158	 	2.462381226E9	 	2.03792E-9	 	-1919.68936	31.23032	 
750.0	1.0	0.0	7.53568	7.16126	-9.60605	15.13582	20.0308	1.25143	0.79908	170.35936	168.44439	63.97567	0.33144	 	2.865935185E9	 	1.74245E-9	 	-2075.65135	31.1924	 
745.0	1.0	0.0	7.53771	7.15934	-9.63037	15.11227	19.96964	1.24913	0.80056	170.70372	168.64075	64.11193	0.33129	 	3.340602473E9	 	1.48756E-9	 	-2231.42523	31.15478	 
740.0	1.0	0.0	7.53973	7.15741	-9.65463	15.08872	19.90848	1.24681	0.80204	171.0475	168.83627	64.248	0.33115	 	3.89978063E9	 	1.268E-9	 	-2387.0126	31.11747	 
735.0	1.0	0.0	7.54175	7.1555	-9.67883	15.06516	19.8473	1.24449	0.80354	171.39072	169.03095	64.38387	0.33101	 	4.559553095E9	 	1.07917E-9	 	-2542.41511	31.0805	 
730.0	1.0	0.0	7.54377	7.15358	-9.70297	15.04159	19.78611	1.24214	0.80506	171.73336	169.22479	64.51956	0.33086	 	5.339259959E9	 	9.17005E-10	 	-2697.63454	31.04389	 
725.0	1.0	0.0	7.54578	7.15168	-9.72705	15.01801	19.72491	1.23979	0.80659	172.07544	169.4178	64.65507	0.33072	 	6.262196829E9	 	7.77957E-10	 	-2852.67274	31.00764	 
720.0	1.0	0.0	7.54779	7.14977	-9.75106	14.99443	19.66371	1.23742	0.80814	172.41694	169.60998	64.79038	0.33058	 	7.35647213E9	 	6.58919E-10	 	-3007.53165	30.97178	 
715.0	1.0	0.0	7.54979	7.14788	-9.77502	14.97084	19.60248	1.23503	0.8097	172.75787	169.80133	64.92551	0.33043	 	8.656060646E9	 	5.57172E-10	 	-3162.21334	30.93634	 
710.0	1.0	0.0	7.55179	7.14598	-9.79892	14.94724	19.54125	1.23263	0.81127	173.09823	169.99185	65.06045	0.33029	 	1.02021E10	 	4.70345E-10	 	-3316.71996	30.90132	 
705.0	1.0	0.0	7.55379	7.14409	-9.82275	14.92363	19.48001	1.23022	0.81286	173.43801	170.18155	65.1952	0.33014	 	1.2044499999999998E10	 	3.96373E-10	 	-3471.05382	30.86677	 
700.0	1.0	0.0	7.55578	7.14221	-9.84653	14.90002	19.41875	1.22779	0.81447	173.77723	170.37043	65.32976	0.33	 	1.4243899999999998E10	 	3.33456E-10	 	-3625.21732	30.8327	 
695.0	1.0	0.0	7.55777	7.14033	-9.87024	14.8764	19.35748	1.22535	0.81609	174.11588	170.55849	65.46413	0.32986	 	1.6874099999999998E10	 	2.80033E-10	 	-3779.21304	30.79914	 
690.0	1.0	0.0	7.55975	7.13846	-9.89389	14.85278	19.2962	1.22289	0.81773	174.45396	170.74573	65.59832	0.32971	 	2.00252E10	 	2.34749E-10	 	-3933.04367	30.76613	 
685.0	1.0	0.0	7.56173	7.13659	-9.91748	14.82915	19.2349	1.22042	0.81939	174.79147	170.93216	65.73232	0.32957	 	2.3807199999999996E10	 	1.96431E-10	 	-4086.71208	30.73368	 
680.0	1.0	0.0	7.56371	7.13473	-9.94102	14.80551	19.17359	1.21793	0.82106	175.12842	171.11778	65.86613	0.32943	 	2.8354999999999996E10	 	1.64066E-10	 	-4240.2213	30.70184	 
675.0	1.0	0.0	7.56568	7.13287	-9.96449	14.78186	19.11227	1.21543	0.82275	175.46479	171.30258	65.99975	0.32928	 	3.3833799999999996E10	 	1.36777E-10	 	-4393.57455	30.67065	 
670.0	1.0	0.0	7.56765	7.13101	-9.9879	14.75821	19.05094	1.21292	0.82446	175.80059	171.48659	66.13318	0.32914	 	4.04469E10	 	1.1381E-10	 	-4546.77521	30.64013	 
665.0	1.0	0.0	7.56961	7.12916	-10.01124	14.73455	18.98959	1.21038	0.82618	176.13583	171.66979	66.26643	0.329	 	4.844479999999999E10	 	9.45175E-11	 	-4699.82693	30.61034	 
660.0	1.0	0.0	7.57157	7.12732	-10.03453	14.71088	18.92822	1.20784	0.82793	176.4705	171.85219	66.39949	0.32885	 	5.813639999999999E10	 	7.83412E-11	 	-4852.72335	30.57928	 
655.0	1.0	0.0	7.57353	7.12548	-10.05776	14.68721	18.86684	1.20527	0.82969	176.8046	172.03379	66.53236	0.32871	 	6.9904E10	 	6.48041E-11	 	-5005.40788	30.53691	 
650.0	1.0	0.0	7.57548	7.12364	-10.08092	14.66353	18.80545	1.20269	0.83147	177.13814	172.21459	66.66504	0.32857	 	8.42216E10	 	5.34977E-11	 	-5157.8054	30.4795	 
645.0	1.0	0.0	7.57742	7.12181	-10.10403	14.63984	18.74404	1.2001	0.83327	177.4711	172.3946	66.79754	0.32843	 	1.01678E11	 	4.40731E-11	 	-5309.9171	30.42234	 
640.0	1.0	0.0	7.57937	7.11999	-10.12707	14.61615	18.68262	1.19749	0.83508	177.8035	172.57382	66.92984	0.32828	 	1.23006E11	 	3.6233E-11	 	-5461.74417	30.36541	 
635.0	1.0	0.0	7.58131	7.11817	-10.15005	14.59245	18.62118	1.19486	0.83692	178.13534	172.75224	67.06196	0.32814	 	1.49119E11	 	2.97242E-11	 	-5613.28778	30.30872	 
630.0	1.0	0.0	7.58324	7.11635	-10.17297	14.56874	18.55973	1.19221	0.83878	178.4666	172.92989	67.1939	0.328	 	1.81163E11	 	2.4332E-11	 	-5764.54909	30.25226	 
625.0	1.0	0.0	7.58517	7.11454	-10.19583	14.54503	18.49826	1.18955	0.84065	178.79731	173.10674	67.32564	0.32785	 	2.2057E11	 	1.98742E-11	 	-5915.52968	30.19612	 
620.0	1.0	0.0	7.5871	7.11273	-10.21863	14.5213	18.43677	1.18688	0.84255	179.12744	173.28282	67.4572	0.32771	 	2.6914E11	 	1.61969E-11	 	-6066.23172	30.14041	 
615.0	1.0	0.0	7.58902	7.11093	-10.24137	14.49758	18.37527	1.18418	0.84446	179.45701	173.45811	67.58857	0.32757	 	3.29144E11	 	1.31701E-11	 	-6216.65583	30.08482	 
610.0	1.0	0.0	7.59094	7.10913	-10.26405	14.47384	18.31375	1.18147	0.8464	179.78602	173.63263	67.71975	0.32743	 	4.03442E11	 	1.06841E-11	 	-6366.80319	30.02947	 
605.0	1.0	0.0	7.59285	7.10734	-10.28666	14.4501	18.25221	1.17874	0.84836	180.11446	173.80638	67.85074	0.32728	 	4.9566E11	 	8.64711E-12	 	-6516.67494	29.97435	 
600.0	1.0	0.0	7.59476	7.10556	-10.30922	14.42635	18.19066	1.176	0.85034	180.44233	173.97935	67.98155	0.32714	 	6.10395E11	 	6.98175E-12	 	-6666.27223	29.91946	 
595.0	1.0	0.0	7.59666	7.10377	-10.33171	14.40259	18.12908	1.17324	0.85234	180.76964	174.15155	68.11217	0.327	 	7.53493E11	 	5.62344E-12	 	-6815.59621	29.8648	 
590.0	1.0	0.0	7.59857	7.102	-10.35414	14.37883	18.06749	1.17045	0.85437	181.09639	174.32298	68.2426	0.32686	 	9.32411E11	 	4.5182E-12	 	-6964.64802	29.81036	 
585.0	1.0	0.0	7.60046	7.10022	-10.37651	14.35506	18.00588	1.16766	0.85642	181.42257	174.49364	68.37284	0.32672	 	1.15668E12	 	3.62107E-12	 	-7113.42881	29.75616	 
580.0	1.0	0.0	7.60235	7.09846	-10.39882	14.33128	17.94425	1.16484	0.85849	181.74819	174.66355	68.50289	0.32657	 	1.43852E12	 	2.89464E-12	 	-7261.93971	29.70218	 
575.0	1.0	0.0	7.60424	7.09669	-10.42106	14.3075	17.8826	1.16201	0.86058	182.07324	174.83269	68.63276	0.32643	 	1.79365E12	 	2.30793E-12	 	-7410.18186	29.64843	 
570.0	1.0	0.0	7.60613	7.09494	-10.44325	14.28371	17.82093	1.15915	0.8627	182.39773	175.00107	68.76244	0.32629	 	2.2423E12	 	1.83526E-12	 	-7558.15639	29.59491	 
565.0	1.0	0.0	7.60801	7.09318	-10.46537	14.25991	17.75925	1.15628	0.86484	182.72166	175.1687	68.89193	0.32615	 	2.81065E12	 	1.45547E-12	 	-7705.86445	29.54161	 
560.0	1.0	0.0	7.60988	7.09144	-10.48744	14.23611	17.69754	1.15339	0.86701	183.04502	175.33557	69.02124	0.32601	 	3.53262E12	 	1.1511E-12	 	-7853.30715	29.48854	 
555.0	1.0	0.0	7.61175	7.08969	-10.50944	14.21229	17.63581	1.15048	0.8692	183.36782	175.50168	69.15036	0.32586	 	4.45233E12	 	9.07838E-13	 	-8000.48563	29.43569	 
550.0	1.0	0.0	7.61362	7.08796	-10.53138	14.18848	17.57405	1.14755	0.87142	183.69006	175.66705	69.27929	0.32572	 	5.62727E12	 	7.1395E-13	 	-8147.40101	29.38308	 
545.0	1.0	0.0	7.61548	7.08622	-10.55325	14.16465	17.51228	1.14461	0.87366	184.01174	175.83167	69.40803	0.32558	 	7.13266E12	 	5.59845E-13	 	-8294.05442	29.33068	 
540.0	1.0	0.0	7.61734	7.08449	-10.57507	14.14082	17.45049	1.14164	0.87593	184.33285	175.99554	69.53658	0.32544	 	9.06716E12	 	4.37709E-13	 	-8440.44696	29.27851	 
535.0	1.0	0.0	7.61919	7.08277	-10.59682	14.11698	17.38867	1.13865	0.87823	184.6534	176.15867	69.66495	0.3253	 	1.15606E13	 	3.41191E-13	 	-8586.57977	29.22656	 
530.0	1.0	0.0	7.62104	7.08105	-10.61852	14.09313	17.32683	1.13565	0.88055	184.97339	176.32106	69.79313	0.32515	 	1.47844E13	 	2.65142E-13	 	-8732.45394	29.17484	 
525.0	1.0	0.0	7.62289	7.07934	-10.64015	14.06928	17.26496	1.13262	0.88291	185.29282	176.48271	69.92112	0.32501	 	1.89656E13	 	2.05402E-13	 	-8878.0706	29.12333	 
520.0	1.0	0.0	7.62473	7.07763	-10.66172	14.04542	17.20307	1.12958	0.88529	185.61169	176.64362	70.04892	0.32487	 	2.44057E13	 	1.58618E-13	 	-9023.43084	29.07205	 
515.0	1.0	0.0	7.62656	7.07593	-10.68323	14.02155	17.14116	1.12651	0.8877	185.92999	176.8038	70.17654	0.32473	 	3.15069E13	 	1.22093E-13	 	-9168.53581	29.02099	 
510.0	1.0	0.0	7.62839	7.07423	-10.70467	13.99768	17.07922	1.12342	0.89014	186.24774	176.96324	70.30397	0.32459	 	4.08072E13	 	9.36687E-14	 	-9313.38673	28.97018	 
505.0	1.0	0.0	7.63022	7.07253	-10.72606	13.9738	17.01725	1.12031	0.89261	186.56492	177.12195	70.43121	0.32445	 	5.30288E13	 	7.16207E-14	 	-9457.98462	28.91958	 
500.0	1.0	0.0	7.63204	7.07084	-10.74738	13.94991	16.95526	1.11719	0.89511	186.88154	177.27994	70.55826	0.32431	 	6.91446E13	 	5.45748E-14	 	-9602.33059	28.86919	 
495.0	1.0	0.0	7.63386	7.06916	-10.76864	13.92602	16.89325	1.11404	0.89764	187.1976	177.43719	70.68513	0.32417	 	9.047E13	 	4.14408E-14	 	-9746.42572	28.81902	 
490.0	1.0	0.0	7.63568	7.06748	-10.78984	13.90212	16.8312	1.11086	0.9002	187.51311	177.59373	70.81181	0.32402	 	1.1879E14	 	3.13556E-14	 	-9890.27106	28.76907	 
485.0	1.0	0.0	7.63749	7.06581	-10.81097	13.87821	16.76913	1.10767	0.9028	187.82805	177.74953	70.9383	0.32388	 	1.56537E14	 	2.36387E-14	 	-10033.86771	28.71933	 
480.0	1.0	0.0	7.63929	7.06414	-10.83205	13.8543	16.70703	1.10446	0.90542	188.14243	177.90462	71.0646	0.32374	 	2.07036E14	 	1.77551E-14	 	-10177.21672	28.6698	 
475.0	1.0	0.0	7.64109	7.06247	-10.85306	13.83037	16.6449	1.10122	0.90808	188.45625	178.05899	71.19072	0.3236	 	2.7484999999999997E14	 	1.32855E-14	 	-10320.31917	28.62049	 
470.0	1.0	0.0	7.64289	7.06081	-10.87401	13.80644	16.58274	1.09796	0.91078	188.76951	178.21265	71.31664	0.32346	 	3.66271E14	 	9.90286E-15	 	-10463.1761	28.57138	 
465.0	1.0	0.0	7.64468	7.05916	-10.8949	13.78251	16.52055	1.09468	0.91351	189.08221	178.36558	71.44238	0.32332	 	4.90003E14	 	7.35246E-15	 	-10605.78858	28.5225	 
460.0	1.0	0.0	7.64647	7.05751	-10.91573	13.75857	16.45833	1.09137	0.91628	189.39436	178.51781	71.56794	0.32318	 	6.5814E14	 	5.43702E-15	 	-10748.15763	28.47381	 
455.0	1.0	0.0	7.64825	7.05586	-10.93649	13.73462	16.39608	1.08805	0.91908	189.70594	178.66933	71.6933	0.32304	 	8.8756E14	 	4.00414E-15	 	-10890.28433	28.42534	 
450.0	1.0	0.0	7.65003	7.05422	-10.95719	13.71066	16.33379	1.08469	0.92192	190.01696	178.82013	71.81848	0.3229	 	1.20191E15	 	2.93658E-15	 	-11032.1697	28.37707	 
445.0	1.0	0.0	7.6518	7.05259	-10.97783	13.6867	16.27148	1.08132	0.9248	190.32743	178.97023	71.94347	0.32276	 	1.63449E15	 	2.14447E-15	 	-11173.81478	28.32902	 
440.0	1.0	0.0	7.65357	7.05096	-10.99841	13.66273	16.20913	1.07792	0.92771	190.63734	179.11963	72.06827	0.32262	 	2.23236E15	 	1.55921E-15	 	-11315.22059	28.28116	 
435.0	1.0	0.0	7.65534	7.04933	-11.01893	13.63875	16.14674	1.0745	0.93067	190.94669	179.26832	72.19288	0.32248	 	3.06236E15	 	1.12864E-15	 	-11456.38817	28.23351	 
430.0	1.0	0.0	7.6571	7.04771	-11.03938	13.61477	16.08432	1.07105	0.93366	191.25548	179.41631	72.3173	0.32234	 	4.2199E15	 	8.13267E-16	 	-11597.31851	28.18607	 
425.0	1.0	0.0	7.65885	7.04609	-11.05977	13.59078	16.02186	1.06758	0.93669	191.56371	179.56361	72.44154	0.3222	 	5.84173E15	 	5.83302E-16	 	-11738.0125	28.1388	 
420.0	1.0	0.0	7.6606	7.04448	-11.0801	13.56678	15.95937	1.06409	0.93977	191.87138	179.7102	72.56559	0.32205	 	8.12492E15	 	4.16385E-16	 	-11878.47136	28.09177	 
415.0	1.0	0.0	7.66235	7.04288	-11.10037	13.54277	15.89684	1.06057	0.94289	192.1785	179.85611	72.68945	0.32191	 	1.13548E16	 	2.95795E-16	 	-12018.69549	28.04483	 
410.0	1.0	0.0	7.66409	7.04128	-11.12057	13.51876	15.83427	1.05702	0.94605	192.48506	180.00132	72.81313	0.32177	 	1.59465E16	 	2.09092E-16	 	-12158.68505	27.99791	 
405.0	1.0	0.0	7.66583	7.03968	-11.14071	13.49474	15.77166	1.05345	0.94926	192.79106	180.14583	72.93661	0.32163	 	2.25076E16	 	1.47056E-16	 	-12298.44017	27.95102	 
400.0	1.0	0.0	7.66756	7.03809	-11.16079	13.47072	15.70901	1.04985	0.95251	193.0965	180.28966	73.05991	0.32149	 	3.19311E16	 	1.02893E-16	 	-12437.96102	27.90417	 
395.0	1.0	0.0	7.66929	7.03651	-11.18081	13.44669	15.64632	1.04623	0.95581	193.40139	180.4328	73.18302	0.32135	 	4.55379E16	 	7.16123E-17	 	-12577.24771	27.85734	 
390.0	1.0	0.0	7.67101	7.03492	-11.20077	13.42265	15.58359	1.04258	0.95916	193.70571	180.57526	73.30594	0.32121	 	6.52915E16	 	4.95726E-17	 	-12716.30036	27.81053	 
385.0	1.0	0.0	7.67273	7.03335	-11.22066	13.3986	15.52081	1.03891	0.96255	194.00949	180.71703	73.42868	0.32107	 	9.41277E16	 	3.41267E-17	 	-12855.11911	27.76375	 
380.0	1.0	0.0	7.67444	7.03178	-11.24049	13.37455	15.45799	1.0352	0.96599	194.3127	180.85812	73.55122	0.32093	 	1.36462E17	 	2.33609E-17	 	-12993.70405	27.71699	 
375.0	1.0	0.0	7.67615	7.03021	-11.26026	13.35049	15.39512	1.03147	0.96949	194.61536	180.99854	73.67358	0.32079	 	1.98972E17	 	1.5899E-17	 	-13132.05529	27.67025	 
370.0	1.0	0.0	7.67786	7.02865	-11.27996	13.32642	15.33221	1.02772	0.97303	194.91746	181.13827	73.79575	0.32065	 	2.91824E17	 	1.07567E-17	 	-13270.17292	27.62353	 
365.0	1.0	0.0	7.67956	7.02709	-11.2996	13.30235	15.26925	1.02393	0.97663	195.21901	181.27733	73.91774	0.32052	 	4.30582E17	 	7.23359E-18	 	-13408.05702	27.57682	 
360.0	1.0	0.0	7.68125	7.02554	-11.31918	13.27827	15.20624	1.02012	0.98028	195.51999	181.41571	74.03953	0.32038	 	6.39232E17	 	4.83431E-18	 	-13545.70766	27.53013	 
355.0	1.0	0.0	7.68295	7.024	-11.3387	13.25418	15.14318	1.01628	0.98398	195.82043	181.55342	74.16114	0.32024	 	9.54978E17	 	3.21038E-18	 	-13683.12491	27.48345	 
350.0	1.0	0.0	7.68463	7.02246	-11.35816	13.23008	15.08007	1.01241	0.98774	196.1203	181.69046	74.28255	0.3201	 	1.43591E18	 	2.11813E-18	 	-13820.30882	27.43678	 
345.0	1.0	0.0	7.68631	7.02092	-11.37755	13.20598	15.01691	1.00851	0.99156	196.41963	181.82683	74.40378	0.31996	 	2.17332E18	 	1.38821E-18	 	-13957.25944	27.39012	 
340.0	1.0	0.0	7.68799	7.01939	-11.39688	13.18188	14.95369	1.00458	0.99544	196.71839	181.96254	74.52482	0.31982	 	3.31175E18	 	9.03641E-19	 	-14093.97677	27.34347	 
335.0	1.0	0.0	7.68966	7.01786	-11.41614	13.15776	14.89042	1.00062	0.99938	197.0166	182.09758	74.64568	0.31968	 	5.08159E18	 	5.84115E-19	 	-14230.46086	27.29682	 
330.0	1.0	0.0	7.69133	7.01634	-11.43535	13.13364	14.82709	0.99663	1.00338	197.31425	182.23195	74.76634	0.31954	 	7.85279E18	 	3.74876E-19	 	-14366.71169	27.25017	 
325.0	1.0	0.0	7.69299	7.01482	-11.45449	13.10951	14.7637	0.99262	1.00744	197.61135	182.36567	74.88682	0.3194	 	1.22239E19	 	2.3883E-19	 	-14502.72927	27.20352	 
320.0	1.0	0.0	7.69465	7.01331	-11.47357	13.08537	14.70025	0.98857	1.01157	197.90789	182.49872	75.00711	0.31926	 	1.91705E19	 	1.51014E-19	 	-14638.51358	27.15686	 
315.0	1.0	0.0	7.6963	7.01181	-11.49258	13.06123	14.63674	0.98449	1.01576	198.20388	182.63112	75.12721	0.31912	 	3.02957E19	 	9.47532E-20	 	-14774.06458	27.1102	 
310.0	1.0	0.0	7.69795	7.0103	-11.51153	13.03708	14.57317	0.98038	1.02002	198.49932	182.76286	75.24712	0.31898	 	4.82543E19	 	5.89835E-20	 	-14909.38222	27.06353	 
305.0	1.0	0.0	7.6996	7.00881	-11.53042	13.01292	14.50953	0.97623	1.02435	198.79419	182.89394	75.36684	0.31884	 	7.74798E19	 	3.64199E-20	 	-15044.46644	27.01684	 
300.0	1.0	0.0	7.70123	7.00732	-11.54925	12.98876	14.44583	0.97206	1.02875	199.08852	183.02438	75.48638	0.3187	 	1.2543799999999998E20	 	2.23011E-20	 	-15179.31716	26.97015	 
295.0	1.0	0.0	7.70287	7.00583	-11.56801	12.96459	14.38206	0.96785	1.03322	199.38229	183.15416	75.60573	0.31857	 	2.0481E20	 	1.35393E-20	 	-15313.93429	26.92343	 
290.0	1.0	0.0	7.7045	7.00435	-11.58671	12.94041	14.31822	0.96361	1.03776	199.6755	183.28329	75.72488	0.31843	 	3.3733099999999997E20	 	8.14807E-21	 	-15448.31771	26.87668	 
285.0	1.0	0.0	7.70612	7.00287	-11.60535	12.91623	14.25431	0.95934	1.04239	199.96816	183.41177	75.84385	0.31829	 	5.6058699999999997E20	 	4.85954E-21	 	-15582.46729	26.82992	 
280.0	1.0	0.0	7.70774	7.0014	-11.62393	12.89204	14.19032	0.95503	1.04709	200.26027	183.53961	75.96263	0.31815	 	9.40193E20	 	2.87152E-21	 	-15716.38288	26.78312	 
275.0	1.0	0.0	7.70936	6.99993	-11.64244	12.86784	14.12625	0.95069	1.05187	200.55182	183.66681	76.08123	0.31801	 	1.5918E21	 	1.68073E-21	 	-15850.06431	26.73629	 
270.0	1.0	0.0	7.71097	6.99847	-11.66089	12.84364	14.06211	0.94631	1.05673	200.84281	183.79336	76.19963	0.31787	 	2.72126E21	 	9.74174E-22	 	-15983.5114	26.68942	 
265.0	1.0	0.0	7.71257	6.99702	-11.67927	12.81942	13.99789	0.9419	1.06168	201.13326	183.91927	76.31785	0.31773	 	4.69871E21	 	5.58999E-22	 	-16116.72393	26.64251	 
260.0	1.0	0.0	7.71417	6.99556	-11.69759	12.79521	13.93358	0.93746	1.06671	201.42315	184.04454	76.43587	0.3176	 	8.19666E21	 	3.17467E-22	 	-16249.70168	26.59555	 
255.0	1.0	0.0	7.71577	6.99412	-11.71585	12.77098	13.86919	0.93298	1.07183	201.71248	184.16917	76.55371	0.31746	 	1.4450099999999999E22	 	1.78391E-22	 	-16382.44438	26.54854	 
250.0	1.0	0.0	7.71736	6.99268	-11.73405	12.74675	13.80471	0.92846	1.07705	202.00127	184.29317	76.67136	0.31732	 	2.5751999999999998E22	 	9.91521E-23	 	-16514.95174	26.50147	 
245.0	1.0	0.0	7.71894	6.99124	-11.75218	12.72251	13.74014	0.92391	1.08235	202.28949	184.41654	76.78882	0.31718	 	4.64082E22	 	5.44939E-23	 	-16647.22349	26.45435	 
240.0	1.0	0.0	7.72052	6.98981	-11.77025	12.69826	13.67548	0.91932	1.08776	202.57717	184.53927	76.90609	0.31704	 	8.459849999999999E22	 	2.96052E-23	 	-16779.25927	26.40716	 
235.0	1.0	0.0	7.7221	6.98838	-11.78826	12.67401	13.61072	0.9147	1.09326	202.86429	184.66137	77.02318	0.3169	 	1.5604899999999997E23	 	1.58934E-23	 	-16911.05872	26.35989	 
230.0	1.0	0.0	7.72367	6.98696	-11.8062	12.64975	13.54586	0.91003	1.09886	203.15086	184.78284	77.14007	0.31677	 	2.9137099999999997E23	 	8.42825E-24	 	-17042.62145	26.31255	 
225.0	1.0	0.0	7.72524	6.98554	-11.82408	12.62548	13.48089	0.90533	1.10457	203.43688	184.90368	77.25678	0.31663	 	5.50903E23	 	4.41338E-24	 	-17173.94705	26.26512	 
220.0	1.0	0.0	7.7268	6.98413	-11.8419	12.60121	13.41582	0.90059	1.11038	203.72234	185.0239	77.37329	0.31649	 	1.05515E24	 	2.28115E-24	 	-17305.03505	26.2176	 
215.0	1.0	0.0	7.72836	6.98273	-11.85965	12.57693	13.35065	0.89581	1.11631	204.00725	185.14349	77.48962	0.31635	 	2.04801E24	 	1.16334E-24	 	-17435.88498	26.16998	 
210.0	1.0	0.0	7.72991	6.98132	-11.87734	12.55264	13.28536	0.89099	1.12234	204.29161	185.26246	77.60576	0.31621	 	4.03007E24	 	5.85135E-25	 	-17566.49629	26.12226	 
205.0	1.0	0.0	7.73145	6.97993	-11.89496	12.52835	13.21995	0.88614	1.12849	204.57541	185.38081	77.72171	0.31608	 	8.04344E24	 	2.90141E-25	 	-17696.86845	26.07443	 
200.0	1.0	0.0	7.73299	6.97854	-11.91253	12.50404	13.15442	0.88124	1.13477	204.85866	185.49854	77.83747	0.31594	 	1.6289700000000002E25	 	1.41766E-25	 	-17827.00081	26.02647	 
195.0	1.0	0.0	7.73453	6.97715	-11.93002	12.47974	13.08877	0.8763	1.14116	205.14136	185.61565	77.95304	0.3158	 	3.3491400000000003E25	 	6.82242E-26	 	-17956.89278	25.97839	 
190.0	1.0	0.0	7.73606	6.97577	-11.94746	12.45542	13.02299	0.87132	1.14769	205.42351	185.73214	78.06842	0.31566	 	6.99375E25	 	3.2322E-26	 	-18086.54363	25.93017	 
185.0	1.0	0.0	7.73759	6.97439	-11.96483	12.4311	12.95708	0.8663	1.15434	205.7051	185.84802	78.18361	0.31553	 	1.4841100000000001E26	 	1.5067E-26	 	-18215.95266	25.88181	 
180.0	1.0	0.0	7.73911	6.97302	-11.98214	12.40677	12.89103	0.86123	1.16113	205.98615	185.96329	78.29862	0.31539	 	3.2021E26	 	6.90707E-27	 	-18345.11904	25.83328	 
175.0	1.0	0.0	7.74063	6.97166	-11.99938	12.38243	12.82484	0.85613	1.16805	206.26664	186.07794	78.41343	0.31525	 	7.02837E26	 	3.11211E-27	 	-18474.04197	25.78459	 
170.0	1.0	0.0	7.74214	6.97029	-12.01657	12.35809	12.75849	0.85098	1.17512	206.54658	186.19198	78.52806	0.31511	 	1.57029E27	 	1.3774E-27	 	-18602.72055	25.73572	 
165.0	1.0	0.0	7.74365	6.96894	-12.03368	12.33374	12.692	0.84578	1.18234	206.82596	186.30542	78.64249	0.31498	 	3.57332E27	 	5.98464E-28	 	-18731.15383	25.68666	 
160.0	1.0	0.0	7.74515	6.96759	-12.05074	12.30938	12.62535	0.84055	1.1897	207.1048	186.41824	78.75674	0.31484	 	8.2872E27	 	2.55104E-28	 	-18859.34079	25.63739	 
155.0	1.0	0.0	7.74664	6.96624	-12.06773	12.28502	12.55853	0.83526	1.19723	207.38308	186.53047	78.8708	0.3147	 	1.9601000000000002E28	 	1.06612E-28	 	-18987.28037	25.58792	 
150.0	1.0	0.0	7.74813	6.9649	-12.08465	12.26065	12.49155	0.82994	1.20491	207.66081	186.64208	78.98466	0.31456	 	4.73132E28	 	4.36515E-29	 	-19114.9714	25.53821	 
145.0	1.0	0.0	7.74962	6.96356	-12.10152	12.23627	12.42439	0.82456	1.21277	207.93799	186.7531	79.09834	0.31443	 	1.1663800000000001E29	 	1.74977E-29	 	-19242.4127	25.48826	 
140.0	1.0	0.0	7.7511	6.96223	-12.11831	12.21189	12.35704	0.81914	1.22079	208.21462	186.86351	79.21183	0.31429	 	2.93887E29	 	6.86141E-30	 	-19369.60294	25.43805	 
135.0	1.0	0.0	7.75258	6.96091	-12.13505	12.1875	12.2895	0.81368	1.22899	208.4907	186.97333	79.32513	0.31415	 	7.57453E29	 	2.62997E-30	 	-19496.54077	25.38757	 
130.0	1.0	0.0	7.75405	6.95959	-12.15172	12.1631	12.22177	0.80816	1.23737	208.76622	187.08254	79.43824	0.31402	 	1.99862E30	 	9.84518E-31	 	-19623.22472	25.33679	 
125.0	1.0	0.0	7.75552	6.95827	-12.16833	12.13869	12.15382	0.8026	1.24595	209.0412	187.19116	79.55116	0.31388	 	5.40365E30	 	3.59622E-31	 	-19749.65323	25.2857	 
120.0	1.0	0.0	7.75698	6.95696	-12.18487	12.11428	12.08567	0.79699	1.25472	209.31562	187.29919	79.66389	0.31374	 	1.49841E31	 	1.2806E-31	 	-19875.82466	25.23428	 
115.0	1.0	0.0	7.75843	6.95566	-12.20135	12.08986	12.01729	0.79133	1.26369	209.58949	187.40662	79.77643	0.31361	 	4.26567E31	 	4.44119E-32	 	-20001.73723	25.18251	 
110.0	1.0	0.0	7.75988	6.95436	-12.21777	12.06544	11.94868	0.78562	1.27287	209.86281	187.51346	79.88878	0.31347	 	1.24796E32	 	1.49849E-32	 	-20127.38908	25.13037	 
105.0	1.0	0.0	7.76133	6.95306	-12.23412	12.041	11.87982	0.77987	1.28227	210.13558	187.61971	80.00094	0.31333	 	3.75617E32	 	4.91367E-33	 	-20252.77824	25.07783	 
100.0	1.0	0.0	7.76277	6.95177	-12.2504	12.01656	11.81072	0.77406	1.29189	210.4078	187.72536	80.11291	0.3132	 	1.16443E33	 	1.56407E-33	 	-20377.90257	25.02487	 
95.0	1.0	0.0	7.76421	6.95048	-12.26663	11.99212	11.74134	0.7682	1.30175	210.67947	187.83044	80.22469	0.31306	 	3.72244E33	 	4.82707E-34	 	-20502.75984	24.97145	 
90.0	1.0	0.0	7.76564	6.9492	-12.28279	11.96767	11.6717	0.76229	1.31184	210.95059	187.93492	80.33628	0.31292	 	1.2286800000000001E34	 	1.44256E-34	 	-20627.34765	24.91756	 
85.0	1.0	0.0	7.76706	6.94793	-12.29888	11.94321	11.60176	0.75632	1.32219	211.22115	188.03882	80.44768	0.31279	 	4.19308E34	 	4.16887E-35	 	-20751.66347	24.86316	 
80.0	1.0	0.0	7.76848	6.94666	-12.31491	11.91874	11.53153	0.75031	1.33279	211.49117	188.14214	80.55889	0.31265	 	1.4815699999999998E35	 	1.16339E-35	 	-20875.70456	24.80822	 
75.0	1.0	0.0	7.7699	6.94539	-12.33088	11.89426	11.46098	0.74424	1.34366	211.76064	188.24487	80.66991	0.31251	 	5.428209999999999E35	 	3.13038E-36	 	-20999.46805	24.7527	 
70.0	1.0	0.0	7.77131	6.94413	-12.34678	11.86978	11.39009	0.73811	1.35481	212.02955	188.34702	80.78074	0.31238	 	2.0655E36	 	8.1086E-37	 	-21122.95086	24.69656	 
65.0	1.0	0.0	7.77271	6.94288	-12.36262	11.8453	11.31887	0.73193	1.36624	212.29792	188.4486	80.89138	0.31224	 	8.17629E36	 	2.01855E-37	 	-21246.1497	24.63977	 
60.0	1.0	0.0	7.77411	6.94163	-12.3784	11.8208	11.24728	0.7257	1.37798	212.56573	188.54959	81.00183	0.3121	 	3.3730599999999996E37	 	4.82062E-38	 	-21369.06108	24.58228	 
55.0	1.0	0.0	7.7755	6.94039	-12.39411	11.7963	11.17531	0.71941	1.39002	212.833	188.65001	81.11209	0.31197	 	1.4529399999999999E38	 	1.10233E-38	 	-21491.68127	24.52404	 
50.0	1.0	0.0	7.77689	6.93915	-12.40975	11.77179	11.10294	0.71307	1.40239	213.09971	188.74986	81.22216	0.31183	 	6.54781E38	 	2.40877E-39	 	-21614.00627	24.465	 
45.0	1.0	0.0	7.77828	6.93791	-12.42533	11.74728	11.03015	0.70667	1.41509	213.36588	188.84913	81.33204	0.3117	 	3.0938300000000005E39	 	5.01906E-40	 	-21736.03182	24.40511	 
40.0	1.0	0.0	7.77965	6.93668	-12.44085	11.72275	10.95692	0.70021	1.42814	213.63149	188.94783	81.44173	0.31156	 	1.53615E40	 	9.9496E-41	 	-21857.75337	24.34431	 
35.0	1.0	0.0	7.78103	6.93546	-12.4563	11.69822	10.88322	0.6937	1.44155	213.89656	189.04596	81.55123	0.31142	 	8.03442E40	 	1.87195E-41	 	-21979.16605	24.28254	 
30.0	1.0	0.0	7.7824	6.93424	-12.47169	11.67369	10.80904	0.68713	1.45534	214.16107	189.14352	81.66053	0.31129	 	4.4379E41	 	3.33401E-42	 	-22100.26464	24.21972	 
25.0	1.0	0.0	7.78376	6.93302	-12.48702	 	10.73433	0.6805	1.46952	214.42504	189.24051	81.76965	0.31115	 	2.59594E42	 	5.60566E-43	 	-22221.04352	 	 
